#lambda/nm	C1
208.295	468.8
208.67	431.4
209.045	400.6
209.419	398.4
209.794	540
210.169	523
210.544	621
210.919	534
211.295	529.2
211.67	535.8
212.045	527.8
212.421	530.6
212.796	565.4
213.172	528
213.547	533
213.923	533.6
214.299	526.2
214.675	540.4
215.051	535
215.427	537.8
215.803	548
216.179	542.6
216.555	525.8
216.932	536.4
217.308	538.4
217.684	535.8
218.061	542.6
218.438	531.8
218.814	528.4
219.191	535.2
219.568	533
219.945	534.6
220.322	534.2
220.699	533.2
221.076	537
221.453	533
221.83	530.6
222.208	524.6
222.585	529.2
222.962	530.8
223.34	535
223.717	528
224.095	536.8
224.473	526.8
224.851	525.4
225.229	526.6
225.607	541.4
225.985	523
226.363	533
226.741	533.6
227.119	527.2
227.497	542
227.876	527.6
228.254	533.8
228.633	538
229.011	530.8
229.39	534.6
229.769	537.2
230.148	543.6
230.527	550.2
230.905	531
231.284	534.8
231.664	525.8
232.043	543.8
232.422	541.2
232.801	526.6
233.181	540.2
233.56	535.2
233.94	528.2
234.319	523.2
234.699	529.8
235.079	566.2
235.458	566.8
235.838	543.4
236.218	529.6
236.598	520
236.978	522
237.358	529
237.738	527
238.119	540.2
238.499	529
238.88	533
239.26	537.4
239.641	519.2
240.021	537.4
240.402	533.2
240.783	528.8
241.163	527.4
241.544	530.4
241.925	538
242.306	544.8
242.687	526.2
243.069	535.8
243.45	541.2
243.831	524.8
244.212	527.8
244.594	555.2
244.975	529.2
245.357	536.4
245.739	528.6
246.12	538.6
246.502	544
246.884	529
247.266	531
247.648	528.8
248.03	549
248.412	529.8
248.794	537
249.176	524
249.559	527.4
249.941	529.6
250.323	522
250.706	524.8
251.089	534
251.471	526
251.854	532.8
252.237	536.6
252.62	534
253.002	527.2
253.385	533
253.769	543.4
254.152	533
254.535	534
254.918	529.2
255.301	534.6
255.685	523.2
256.068	537.2
256.452	544.8
256.835	535.6
257.219	531
257.603	544.4
257.986	519.2
258.37	540.4
258.754	524.6
259.138	534.8
259.522	539.8
259.906	529
260.29	541.4
260.675	523.2
261.059	533.8
261.443	521
261.828	528.2
262.212	533.4
262.597	530.4
262.981	519.4
263.366	543
263.751	537.4
264.136	525
264.521	532.8
264.906	525
265.291	540.8
265.676	527
266.061	535
266.446	549.2
266.831	533
267.217	550
267.602	532.4
267.987	533.2
268.373	528.4
268.759	545.6
269.144	535.6
269.53	526.4
269.916	532.8
270.302	531.4
270.688	537.2
271.074	531.6
271.46	547
271.846	560.8
272.232	529
272.618	526.8
273.004	525.2
273.391	540.2
273.777	541
274.164	536
274.55	548.4
274.937	534.4
275.324	522.8
275.71	537.4
276.097	537
276.484	527.4
276.871	529.8
277.258	537.6
277.645	516.2
278.032	537.2
278.419	533.8
278.807	532.2
279.194	527
279.581	525.2
279.969	533.2
280.356	537
280.744	530.8
281.131	549.4
281.519	538.8
281.907	528.6
282.295	528.6
282.682	538.2
283.07	530
283.458	537.6
283.846	536.4
284.235	541.8
284.623	532.2
285.011	524.4
285.399	524.4
285.788	533.8
286.176	530.8
286.565	539.2
286.953	525
287.342	537.2
287.731	528
288.119	528
288.508	531.6
288.897	536
289.286	518.6
289.675	530.4
290.064	536.4
290.453	534.8
290.821	530.6
291.21	549
291.599	536.6
291.989	537.4
292.378	537.6
292.768	539.4
293.157	539
293.547	535.6
293.936	537
294.326	531.8
294.716	535.8
295.106	525.8
295.496	532
295.886	536.6
296.276	529
296.666	529
297.056	531.4
297.446	528.4
297.836	543.8
298.227	523
298.617	527.6
299.008	537.2
299.398	528.4
299.789	525.2
300.179	526.2
300.57	544.8
300.961	530.8
301.352	524.4
301.742	536.2
302.133	534.2
302.524	531.4
302.915	533.4
303.307	526.2
303.698	539.6
304.089	533.4
304.48	528.4
304.872	541
305.263	527.6
305.655	527.2
306.046	534.4
306.438	532.2
306.829	523.8
307.221	537.8
307.613	543
308.005	539.6
308.397	538.8
308.789	557.2
309.181	550
309.573	542.2
309.965	537.2
310.357	531.6
310.749	544.4
311.142	527.8
311.534	532
311.926	538.2
312.319	532.6
312.711	525
313.104	540.2
313.497	524.6
313.889	561.2
314.282	544.8
314.675	552.4
315.068	538.2
315.461	536.2
315.854	560.2
316.247	532.8
316.64	525.6
317.033	538.8
317.405	538.4
317.798	533
318.192	529
318.585	519.2
318.979	532
319.372	521
319.766	539.4
320.16	530
320.553	541.2
320.947	541
321.341	526.4
321.735	535.8
322.129	518.2
322.523	546.8
322.917	531.2
323.311	537.2
323.705	536.6
324.099	538.8
324.494	545.2
324.888	535.4
325.282	532.4
325.677	531.6
326.071	533.8
326.466	537.6
326.861	533.4
327.255	540.4
327.65	539
328.045	543.4
328.44	537.8
328.835	531.2
329.23	525.6
329.625	547.8
330.02	525.6
330.415	549.4
330.81	536.8
331.206	532.8
331.601	533.2
331.996	534.4
332.37	550.8
332.766	527.4
333.161	552.8
333.557	530.4
333.953	540.2
334.348	821.6
334.744	537.4
335.14	530.8
335.536	527.6
335.932	539.8
336.328	537.2
336.724	549.4
337.12	531.8
337.516	529.8
337.913	533.4
338.309	543.4
338.705	533.8
339.102	540
339.498	534.2
339.895	543.2
340.291	524.6
340.688	548
341.085	520
341.481	522.4
341.878	532.4
342.275	550.2
342.672	529.8
343.069	528.8
343.466	521.4
343.842	532
344.239	524.8
344.636	531.2
345.033	516.4
345.431	527.6
345.828	534.8
346.225	521
346.623	561.4
347.02	528
347.418	526.2
347.816	540.2
348.213	522
348.611	532.8
349.009	522.2
349.407	531.2
349.805	518.4
350.203	512.6
350.601	542.6
350.999	524.4
351.397	577
351.795	527.6
352.193	536.4
352.57	536.6
352.969	533.2
353.367	519
353.766	519.8
354.164	529.6
354.563	533.8
354.961	525.2
355.36	522
355.759	524.2
356.158	522.8
356.557	520.2
356.956	524
357.355	521.8
357.754	530
358.153	530.8
358.552	552.4
358.951	516.4
359.35	534.2
359.75	526
360.149	514.8
360.527	514.2
360.926	516.4
361.326	530.4
361.726	526
362.125	516
362.525	533
362.925	530
363.325	529.8
363.724	522
364.124	522.2
364.524	523.2
364.924	529.6
365.324	534.2
365.725	513.6
366.125	524.4
366.525	521
366.904	512.8
367.304	510.8
367.705	530.6
368.105	536.2
368.506	514
368.906	526.8
369.307	525
369.708	534
370.108	518
370.509	530.2
370.91	513.4
371.311	523.6
371.712	522.2
372.113	524.6
372.514	514
372.894	515.6
373.295	527.2
373.696	533
374.097	534.2
374.499	549.4
374.9	530.2
375.301	518.6
375.703	524.6
376.105	513.6
376.506	528.4
376.908	533.6
377.309	523.4
377.711	525.8
378.113	527.8
378.493	528.2
378.895	520.6
379.297	530.8
379.699	513.4
380.102	524
380.504	530.6
380.906	521
381.308	543.6
381.71	522.6
382.113	530.2
382.515	522.4
382.918	528.2
383.299	521.2
383.701	532.4
384.104	523.2
384.507	509.4
384.909	528.8
385.312	520.6
385.715	518
386.118	524.4
386.521	511.8
386.924	528.2
387.327	520.6
387.709	513.2
388.112	512.2
388.515	531
388.918	518.4
389.322	526.8
389.725	524.4
390.129	542.2
390.532	531.8
390.936	524.8
391.339	520.6
391.743	531.6
392.125	522.8
392.529	534
392.933	533.2
393.337	524.4
393.74	517.2
394.144	524
394.548	520.6
394.953	524.4
395.357	533.4
395.761	521.2
396.144	532.2
396.548	528
396.952	527.2
397.357	522.2
397.761	520.2
398.166	523
398.57	513.4
398.975	512.2
399.379	532.4
399.763	562.6
400.168	527.8
400.572	522.6
400.977	528.2
401.382	538.6
401.787	535.2
402.192	540.8
402.597	537.4
403.002	511
403.386	537.6
403.791	531.4
404.197	522
404.602	526.8
405.007	515.8
405.413	525
405.818	520.4
406.224	519.6
406.608	521.4
407.014	504.8
407.42	534
407.825	522.8
408.231	532.4
408.637	526.6
409.043	534.6
409.449	522.6
409.834	525.2
410.24	525.2
410.646	539
411.052	531.4
411.458	524.4
411.865	537
412.271	532.6
412.677	526.4
413.062	523.4
413.469	525
413.875	537.6
414.282	538.8
414.689	526.6
415.095	523.2
415.502	519.6
415.888	525
416.294	508.4
416.701	552.4
417.108	527.6
417.515	531.8
417.923	530.2
418.33	536.2
418.715	534.4
419.123	517.4
419.53	516
419.937	528.6
420.345	533.6
420.752	511.2
421.16	532
421.546	524.2
421.953	534.4
422.361	525.2
422.769	525.4
423.177	518.6
423.585	543.8
423.992	543.8
424.379	534.2
424.787	532.2
425.195	541.4
425.603	525.8
426.011	535.6
426.419	538.2
426.806	542.2
427.214	536.6
427.623	550.2
428.031	549.2
428.44	543.2
428.848	553
429.235	565.8
429.644	570
430.053	563.6
430.461	587.6
430.87	614
431.279	605.2
431.666	611.8
432.075	644.8
432.484	662.2
432.893	672.6
433.302	691
433.711	755
434.099	740
434.508	751.4
434.918	781.8
435.327	809.4
435.737	848.2
436.125	859
436.534	885
436.944	908.8
437.353	937.2
437.763	982.8
438.173	967.8
438.561	1015
438.971	1013.6
439.381	1042.6
439.791	1078
440.201	1080
440.589	1102.6
440.999	1133.6
441.409	1160.4
441.819	1169.6
442.23	1201.2
442.619	1214.6
443.029	1238.4
443.439	1252.2
443.85	1262
444.26	1254.2
444.649	1267.2
445.06	1278.4
445.471	1305.4
445.881	1306.8
446.292	1345.4
446.682	1359.6
447.092	1332
447.503	1388.8
447.914	1360.8
448.325	1374.8
448.715	1363.4
449.126	1373.6
449.537	1356.6
449.948	1378
450.338	1391.8
450.75	1393
451.161	1399
451.572	1417.6
451.984	1420.6
452.374	1411.6
452.786	1433
453.197	1424.8
453.609	1425.8
453.999	1423
454.411	1411.2
454.823	1438.6
455.235	1428
455.647	1454
456.037	1451
456.449	1421.6
456.862	1450.4
457.274	1451
457.665	1447.2
458.077	1461.2
458.489	1491.4
458.902	1447.4
459.293	1456
459.705	1458.2
460.118	1424
460.53	1455.6
460.921	1459.4
461.334	1456
461.747	1464.6
462.16	1470.4
462.551	1477.6
462.964	1488.6
463.377	1457
463.79	1460.4
464.182	1466.8
464.595	1455
465.008	1463.8
465.421	1460
465.813	1461.2
466.226	1475.8
466.64	1451.2
467.053	1491.8
467.445	1476
467.859	1485.6
468.272	1455.6
468.686	1471.8
469.078	1462.4
469.492	1455.2
469.906	1465.8
470.298	1456
470.712	1443.8
471.126	1462.2
471.54	1456.8
471.933	1434.4
472.347	1448.6
472.761	1438.2
473.175	1440.6
473.568	1449
473.982	1433.6
474.397	1431.6
474.79	1436
475.204	1426.8
475.619	1426.6
476.033	1419.2
476.426	1408.2
476.841	1392.2
477.256	1415.2
477.649	1400.4
478.064	1374.2
478.479	1383.6
478.872	1375.4
479.287	1381.4
479.702	1367.6
480.118	1363.8
480.511	1370.2
480.927	1366.4
481.342	1355
481.736	1346.4
482.151	1335.8
482.566	1360.6
482.96	1324.4
483.376	1338
483.792	1324.2
484.186	1343.6
484.602	1323.8
485.017	1322.2
485.412	1308
485.827	1319.8
486.243	1303.6
486.638	1317
487.054	1294.8
487.47	1288.6
487.865	1289.2
488.281	1280.4
488.697	1267.6
489.092	1266
489.508	1237.8
489.925	1257.4
490.32	1247.4
490.736	1243.2
491.153	1235
491.548	1232.2
491.964	1229.2
492.381	1212.2
492.776	1217
493.193	1207.6
493.61	1209.8
494.006	1200.8
494.422	1204.8
494.84	1173
495.235	1188.8
495.652	1173.6
496.069	1182
496.465	1178.2
496.883	1160.2
497.3	1173.6
497.696	1136.8
498.113	1136
498.509	1130.4
498.927	1116.2
499.344	1112.2
499.741	1108.4
500.158	1127.2
500.576	1106.8
500.973	1100.2
501.39	1097.6
501.787	1072
502.205	1085.6
502.623	1069
503.02	1056.4
503.438	1065.4
503.856	1059.4
504.253	1046.4
504.671	1055.8
505.068	1036.6
505.486	1036
505.905	1051.6
506.302	1031.4
506.72	1021.8
507.118	1006
507.536	1003.6
507.955	1003.8
508.352	1001.2
508.771	1001.4
509.169	990.6
509.587	976.8
510.006	978.2
510.404	961.2
510.823	966.8
511.221	974.6
511.64	956.2
512.038	964.2
512.457	942.8
512.877	950.2
513.275	935.4
513.694	928.8
514.092	935.4
514.512	930
514.91	925.2
515.33	928.6
515.749	923.8
516.148	925.2
516.568	905
516.966	900.2
517.386	894.4
517.785	891.8
518.205	881.4
518.603	874
519.024	887
519.444	876.4
519.843	883
520.263	884.8
520.662	868.6
521.082	857.4
521.481	858.2
521.902	857.2
522.301	861.8
522.722	838.2
523.121	844.2
523.542	846.2
523.963	833
524.362	830
524.783	824.6
525.183	811
525.604	823
526.003	807.2
526.425	807.4
526.824	821.4
527.246	819.4
527.646	808.4
528.067	788.6
528.467	804.8
528.888	789.6
529.289	779.4
529.71	782.6
530.11	769.8
530.532	774.8
530.932	771
531.354	769.8
531.755	785.4
532.176	777
532.577	761.2
532.999	773.8
533.4	756
533.822	764.2
534.223	760.2
534.645	751.8
535.046	743.2
535.468	742.8
535.869	751.6
536.292	728.6
536.693	768
537.115	730.4
537.516	746.2
537.939	724.6
538.34	742.4
538.742	733.8
539.165	724
539.566	721.2
539.989	723
540.391	722.8
540.814	712.6
541.216	727
541.639	718.4
542.041	718.4
542.464	700.6
542.866	712.2
543.268	690.2
543.691	700.2
544.093	703.4
544.517	706.2
544.919	696.2
545.343	711.6
545.745	684.4
546.147	687.8
546.571	682.4
546.974	672.8
547.398	691.2
547.8	702.4
548.224	680.6
548.627	672.4
549.03	680.4
549.454	674
549.857	661.6
550.281	667.2
550.684	648.6
551.087	670.8
551.512	666.2
551.915	669
552.34	654.2
552.743	659.8
553.146	661.6
553.571	659.4
553.975	666.8
554.399	643.2
554.803	688.6
555.207	636.8
555.632	636
556.036	646.6
556.461	636.6
556.865	644.6
557.268	630.8
557.694	634.8
558.098	635
558.502	640.8
558.927	629.4
559.332	619.6
559.736	621.4
560.162	622.4
560.566	617.2
560.992	632.2
561.396	626.6
561.801	619
562.227	624.2
562.631	608.2
563.036	622.8
563.462	620.4
563.867	609.2
564.272	601.2
564.698	621.4
565.103	600.4
565.508	626
565.935	604.2
566.34	601.2
566.745	614.6
567.172	598.8
567.577	621.6
567.982	616.6
568.409	606.4
568.815	586
569.22	602.2
569.626	605
570.053	583.4
570.459	602.2
570.865	597.4
571.292	597.8
571.698	598.8
572.104	585.2
572.531	582.4
572.937	600.2
573.343	591.4
573.75	587.2
574.177	589.4
574.583	592.8
574.99	580.2
575.396	593.2
575.824	581
576.231	582.4
576.637	572
577.065	596.6
577.472	574
577.879	581.6
578.286	588.8
578.714	568.4
579.121	575.4
579.528	578.6
579.935	575.6
580.364	574.4
580.771	562.6
581.178	565.6
581.585	572.8
582.014	572.8
582.421	563.4
582.829	567
583.236	577.8
583.644	566.4
584.073	562.4
584.481	569.4
584.889	556.8
585.296	571.6
585.726	563.2
586.134	552.4
586.542	562.2
586.95	574.6
587.358	551
587.787	563.6
588.196	539
588.604	556
589.012	554.4
589.421	539
589.851	545.8
590.259	551.6
590.668	551
591.076	579.4
591.485	543.6
591.894	553.4
592.324	565.6
592.733	560
593.142	546
593.551	545.6
593.96	577.2
594.369	535.8
594.8	550.2
595.209	547.4
595.618	538.2
596.028	541.6
596.437	535
596.847	541.2
597.256	545.8
597.687	550.2
598.097	544.4
598.507	537.2
598.917	547.8
599.327	545.8
599.736	539.8
600.146	546.2
600.556	534.8
600.988	556.8
601.398	539
601.808	545.6
602.219	527
602.629	543.4
603.039	540.6
603.45	558.4
603.86	542.6
604.271	544.6
604.703	540.4
605.114	532.4
605.525	543.6
605.935	548.8
606.346	555.6
606.757	544.8
607.168	530
607.579	536.8
607.99	552.8
608.402	538.2
608.813	541
609.224	538
609.636	521.6
610.047	532.4
610.48	533.8
610.892	546
611.303	539
611.715	542.6
612.127	531.4
612.539	535.2
612.95	541.8
613.362	531.6
613.774	532
614.186	532.6
614.599	537.8
615.011	539.4
615.423	539.2
615.835	541.2
616.248	535.2
616.66	539.8
617.073	536.4
617.485	543.2
617.898	545.6
618.311	541.4
618.723	545
619.136	566.8
619.549	550
619.962	565.2
620.375	547.6
620.788	545.6
621.201	549.6
621.614	548.2
622.028	542.4
622.441	547.2
622.854	553.4
623.268	533
623.681	541.8
624.095	539.6
624.509	550.8
624.922	549.4
625.336	534.4
625.728	547.2
626.142	547.8
626.556	560.8
626.97	543.8
627.384	540.2
627.799	541
628.213	542.6
628.627	552.6
629.041	541.4
629.456	545.6
629.87	551.2
630.285	548
630.699	545.6
631.093	545
631.507	545.8
631.922	551
632.337	554.6
632.752	529.8
633.167	539.6
633.582	528.8
633.997	529.6
634.412	533.6
634.806	532.4
635.221	528.6
635.637	536.4
636.052	533.8
636.468	536.8
636.883	545.4
637.299	535
637.715	524.8
638.109	522.8
638.525	521.8
638.941	535.8
639.357	537
639.773	540.6
640.189	525.8
640.584	530.8
641	534
641.416	526.8
641.832	533.6
642.249	524.6
642.665	528.8
643.06	533.2
643.477	534.8
643.894	521
644.31	531.2
644.727	515.6
645.123	525.8
645.54	521.6
645.957	528.8
646.374	530.2
646.77	530.8
647.187	554
647.604	522.2
648.021	514.4
648.439	511.6
648.835	530
649.252	526
649.67	515.2
650.088	516
650.484	523
650.902	524.6
651.32	528.2
651.738	518.6
652.134	526.4
652.552	539
652.971	530
653.389	523.2
653.786	530.2
654.204	529
654.622	515
655.019	517.8
655.438	521.2
655.857	524.2
656.275	520
656.673	524.2
657.091	531.8
657.51	506.4
657.908	520.8
658.327	525.4
658.746	506
659.144	513
659.563	521.4
659.982	527.4
660.38	502
660.8	515
661.219	518
661.617	524
662.037	515.2
662.457	529
662.855	506
663.275	542
663.695	511
664.094	514.2
664.514	516.8
664.934	512.2
665.333	521.2
665.753	508.6
666.152	501.8
666.572	497.6
666.993	519.4
667.392	501.8
667.812	514
668.212	514.6
668.632	524.2
669.053	508
669.453	514.6
669.874	512.6
670.273	515
670.694	509
671.116	515.6
671.515	518.6
671.937	512.4
672.337	505.8
672.758	506.8
673.158	512.2
673.58	502
673.98	509.2
674.402	513.4
674.824	500
675.224	502.6
675.646	505.2
676.047	503.4
676.469	507.8
676.869	509.6
677.292	507.6
677.693	503.8
678.115	508.2
678.516	511.6
678.939	519.8
679.34	510
679.762	513.4
680.164	511
680.586	494.2
680.988	503
681.411	529.2
681.812	508.4
682.236	504.2
682.637	499.2
683.061	495.8
683.462	505.4
683.864	499.2
684.288	510.4
684.69	499.6
685.114	514.4
685.516	512.2
685.94	507.4
686.342	511.6
686.766	498.8
687.168	501.8
687.571	516.4
687.995	509
688.398	496.4
688.822	502.6
689.225	515.2
689.628	519.8
690.052	500.4
690.456	507.2
690.88	512.2
691.284	502.8
691.687	514.6
692.112	491
692.515	501.2
692.919	504.6
693.344	499.6
693.747	498.2
694.173	500.2
694.577	508.2
694.98	506
695.406	496.8
695.81	506.8
696.214	512.2
696.64	508.4
697.044	504.2
697.448	511.8
697.874	501.6
698.279	499
698.684	501.6
699.11	500.6
699.514	500.8
699.919	493
700.324	496
700.75	500.2
701.156	508.6
701.561	508
701.987	511.6
702.393	511.8
702.798	513
703.203	501.8
703.63	497.6
704.036	501.6
704.442	506.8
704.847	495.6
705.274	503.8
705.68	500.8
706.086	512.8
706.492	495
706.92	497.4
707.326	511.8
707.732	503.4
708.139	494.4
708.545	494
708.973	499.6
709.38	500.2
709.786	490.4
710.193	510.2
710.6	499.8
711.028	498.6
711.435	497.6
711.842	507.6
712.249	499.8
712.656	497.4
713.064	511.6
713.492	495
713.9	500.8
714.307	503.6
714.715	502.6
715.123	498.8
715.53	498.8
715.938	507.6
716.367	497.2
716.775	497.8
717.184	498.4
717.592	503
718	509
718.408	531
718.816	534.8
719.225	504
719.633	497.4
720.042	491.6
720.472	497.6
720.881	514.6
721.29	504
721.699	495.6
722.108	498.4
722.517	505.4
722.926	502.4
723.335	511.8
723.744	501.6
724.154	499
724.563	514.4
724.973	507.6
725.382	502.4
725.792	503
726.202	490
726.612	518.4
727.022	498.2
727.432	498.6
779.813	496.8
780.223	540
780.634	498.4
781.044	492.6
781.454	500.2
781.865	506.4
782.276	490.8
782.686	503.6
783.097	491.6
783.508	500.8
783.919	502.4
784.33	503.4
784.741	502.4
785.152	496.8
785.563	485.8
785.974	489
786.386	510.2
786.776	491
787.188	498.8
787.599	486.8
788.011	497
788.423	500.4
788.835	495
789.247	501
789.659	495.8
790.071	491
790.483	537
790.874	492.4
791.286	507.2
791.699	498.2
792.111	501
792.524	498
792.937	500.6
793.349	489
793.741	492.2
794.154	492.8
794.567	511
794.98	492
795.393	489.8
795.785	512.2
796.198	488
796.612	502.6
797.026	492.4
797.439	485.8
797.831	495
798.245	491.8
798.659	492.8
799.073	482
799.487	489.2
799.88	498.4
800.294	495
800.708	499.4
801.123	500.2
801.516	515.8
801.93	492.4
802.345	487
802.76	497.6
803.153	508.2
803.568	508.4
803.983	493
804.377	501.2
804.792	482.8
805.207	482.4
805.601	506.8
806.016	523
806.432	494.4
806.826	520.6
807.242	507.8
807.658	497.6
808.052	492.4
808.468	497.6
808.884	494.6
809.279	499.8
809.695	507.4
810.111	512.2
810.506	498
810.922	506.4
811.339	493.2
811.734	496.8
812.151	483.2
812.546	486.8
812.963	488.2
813.38	501.6
813.776	493.8
814.193	511.6
814.589	496.8
815.006	492.4
815.402	489.8
815.82	496.4
816.237	502.6
816.633	498
817.051	490.8
817.448	496.2
817.866	491
818.262	511.6
818.68	496.8
819.077	497.8
819.495	490.4
819.892	528.2
820.311	494
820.708	499.4
821.127	496.6
821.524	510.4
821.943	498.8
822.34	514.4
822.759	496.6
823.157	498.6
823.576	499.6
823.974	506.6
824.393	578.8
824.791	494
825.189	492.2
825.609	506
826.007	499.4
826.427	491
826.826	492.2
827.246	495.6
827.644	487.2
828.043	500.4
828.463	491.6
828.862	509.6
829.261	497.6
829.682	484
830.081	500.2
830.502	491.6
830.901	496.6
831.301	489.2
831.722	490
832.121	500.4
832.521	488.6
832.943	497.4
833.342	493
833.742	490.8
834.164	490.4
834.564	486
834.965	496.4
835.386	490.4
835.787	496
836.188	494.2
836.588	493.2
837.01	496
837.411	488.6
837.812	505.2
838.213	495.4
838.636	490.2
839.037	547
839.438	496.4
839.84	496.8
840.263	498.2
840.664	503
841.066	496.4
841.468	499
841.891	491.8
842.293	502.6
842.695	504.4
843.098	506
843.5	489.6
843.902	497.8
844.326	496.2
844.729	493.6
845.131	508.2
845.534	496
845.937	495
846.34	515
846.764	495.8
847.167	504
847.571	493
847.974	496.2
848.377	487.2
848.781	538.2
849.184	507.8
849.588	490
849.992	491.6
850.396	494
850.821	510
851.225	493.6
851.63	492
852.034	507
852.438	491.2
852.843	561.4
