#lambda/nm	C1
208.295	470.6
208.67	432
209.045	393.2
209.419	400.2
209.794	530.4
210.169	519.8
210.544	623.8
210.919	530.8
211.295	525.8
211.67	538.2
212.045	530.8
212.421	528
212.796	554
213.172	530.6
213.547	528.6
213.923	528
214.299	526.6
214.675	541.4
215.051	538.2
215.427	537
215.803	547.8
216.179	539.4
216.555	524.8
216.932	536.6
217.308	534.6
217.684	536
218.061	539
218.438	534.2
218.814	528.4
219.191	542.6
219.568	529
219.945	529.4
220.322	535.8
220.699	533.4
221.076	545.4
221.453	529.8
221.83	525
222.208	537.2
222.585	527.2
222.962	521
223.34	540.8
223.717	529.6
224.095	526
224.473	529.8
224.851	524.6
225.229	527.8
225.607	539.4
225.985	525
226.363	526.2
226.741	533.4
227.119	525
227.497	538.4
227.876	524.2
228.254	537.6
228.633	543
229.011	540.8
229.39	535.8
229.769	541.6
230.148	537.4
230.527	556
230.905	537.4
231.284	536.8
231.664	523
232.043	544.6
232.422	540.8
232.801	527.8
233.181	536.8
233.56	531.8
233.94	536.2
234.319	527.2
234.699	525.6
235.079	568.8
235.458	564.8
235.838	550.2
236.218	519.2
236.598	519.8
236.978	527.8
237.358	527
237.738	532
238.119	537
238.499	522.2
238.88	530
239.26	543.4
239.641	524.8
240.021	530.4
240.402	532.2
240.783	533
241.163	533
241.544	541.8
241.925	531
242.306	547
242.687	528.6
243.069	534
243.45	533
243.831	531.4
244.212	526.4
244.594	556.8
244.975	540.6
245.357	539
245.739	524.6
246.12	538.2
246.502	545.2
246.884	530.8
247.266	527.8
247.648	530.2
248.03	547.2
248.412	529
248.794	540.4
249.176	528.4
249.559	539
249.941	530.4
250.323	525.2
250.706	522.6
251.089	531.6
251.471	544.2
251.854	536.2
252.237	533.4
252.62	539.2
253.002	529.6
253.385	532.2
253.769	546.4
254.152	531.2
254.535	524.8
254.918	524.4
255.301	529.4
255.685	525.8
256.068	532
256.452	546.2
256.835	540.8
257.219	546.6
257.603	538.2
257.986	521.6
258.37	529.4
258.754	520.6
259.138	534
259.522	538
259.906	525.6
260.29	531
260.675	536
261.059	540.6
261.443	524.4
261.828	532.2
262.212	536.2
262.597	520.6
262.981	528.8
263.366	538.6
263.751	534.8
264.136	524.6
264.521	531.8
264.906	519.2
265.291	540.8
265.676	533.8
266.061	528.4
266.446	544.6
266.831	536
267.217	554
267.602	536.2
267.987	531.2
268.373	532.6
268.759	537
269.144	535.2
269.53	532.6
269.916	526.2
270.302	530.8
270.688	537.2
271.074	530.2
271.46	537.4
271.846	564.8
272.232	535
272.618	536
273.004	530.2
273.391	540
273.777	542.2
274.164	538.4
274.55	542.4
274.937	535.8
275.324	529
275.71	537.2
276.097	533.6
276.484	528.4
276.871	532.8
277.258	537
277.645	523.2
278.032	522.8
278.419	526.6
278.807	538
279.194	526.4
279.581	529.6
279.969	539
280.356	537.4
280.744	536.6
281.131	552.2
281.519	536.8
281.907	529.6
282.295	520
282.682	536.8
283.07	538
283.458	540.6
283.846	547.2
284.235	536.8
284.623	536.8
285.011	521.6
285.399	538.2
285.788	532.8
286.176	520.4
286.565	545.8
286.953	529
287.342	532.4
287.731	524
288.119	530.6
288.508	529.8
288.897	527
289.286	521.2
289.675	533.6
290.064	545.2
290.453	527.4
290.821	532
291.21	545.4
291.599	523.8
291.989	530
292.378	530.6
292.768	546.2
293.157	535
293.547	538.6
293.936	524.2
294.326	527.4
294.716	532
295.106	528
295.496	526.8
295.886	538.6
296.276	529.4
296.666	524.8
297.056	521.6
297.446	520.8
297.836	542
298.227	526.4
298.617	531.6
299.008	538.2
299.398	533
299.789	524.8
300.179	529.8
300.57	535
300.961	525.2
301.352	527.6
301.742	539.2
302.133	533
302.524	535.2
302.915	531.6
303.307	524.6
303.698	533.4
304.089	532.8
304.48	526.6
304.872	536.8
305.263	531.2
305.655	520
306.046	533.8
306.438	531.8
306.829	528.4
307.221	543.4
307.613	537.4
308.005	539.8
308.397	545.2
308.789	551.8
309.181	550.2
309.573	553.6
309.965	545.4
310.357	529
310.749	544.2
311.142	517.4
311.534	525.2
311.926	539.8
312.319	535.8
312.711	523.6
313.104	551.2
313.497	523
313.889	560.4
314.282	544.2
314.675	551.8
315.068	533.6
315.461	539
315.854	554.6
316.247	532.4
316.64	532.2
317.033	529
317.405	541
317.798	530.4
318.192	536.8
318.585	523.4
318.979	535.6
319.372	531.2
319.766	529.8
320.16	541.2
320.553	548.6
320.947	554
321.341	531.2
321.735	527.2
322.129	519.8
322.523	549.6
322.917	524.8
323.311	541.6
323.705	534.6
324.099	538
324.494	548
324.888	539.2
325.282	534.4
325.677	548.4
326.071	541.4
326.466	542.8
326.861	543
327.255	543.2
327.65	545.4
328.045	542.2
328.44	542.6
328.835	522.8
329.23	531
329.625	554.6
330.02	532.2
330.415	553.8
330.81	532.6
331.206	532.6
331.601	530
331.996	540.2
332.37	553.4
332.766	518
333.161	550.4
333.557	526.2
333.953	529.8
334.348	828
334.744	540.2
335.14	535.2
335.536	532.4
335.932	540.4
336.328	536
336.724	539.6
337.12	535.4
337.516	538.2
337.913	537.2
338.309	540.2
338.705	538.4
339.102	539.6
339.498	533.4
339.895	542
340.291	528.4
340.688	541.6
341.085	530.4
341.481	527.6
341.878	527.2
342.275	542.6
342.672	522
343.069	532.4
343.466	524.4
343.842	538
344.239	528.4
344.636	529.2
345.033	529
345.431	524.8
345.828	534.2
346.225	528.2
346.623	553.8
347.02	532.6
347.418	539
347.816	546.6
348.213	525.6
348.611	533.2
349.009	525.6
349.407	532.2
349.805	519.6
350.203	525.4
350.601	537.4
350.999	526.2
351.397	580
351.795	530.6
352.193	536
352.57	531.4
352.969	535.4
353.367	513.4
353.766	519.6
354.164	520.8
354.563	531.6
354.961	523.4
355.36	523.8
355.759	521.6
356.158	518
356.557	520.2
356.956	522.8
357.355	525.4
357.754	527
358.153	527.6
358.552	542.6
358.951	525.6
359.35	541.8
359.75	530
360.149	516.8
360.527	509.6
360.926	518.4
361.326	526.4
361.726	525.8
362.125	523.2
362.525	535.8
362.925	519.4
363.325	525.8
363.724	521.4
364.124	524.4
364.524	525.4
364.924	526.2
365.324	534.2
365.725	506.8
366.125	526
366.525	525
366.904	516
367.304	511.4
367.705	538.6
368.105	537.6
368.506	519.8
368.906	528.8
369.307	527
369.708	533.4
370.108	517.4
370.509	535.4
370.91	520.2
371.311	527.2
371.712	525.2
372.113	519.4
372.514	508.2
372.894	519.8
373.295	518
373.696	531.2
374.097	530
374.499	546.8
374.9	519.8
375.301	515.8
375.703	532.8
376.105	514.6
376.506	529.4
376.908	526.6
377.309	521.8
377.711	524
378.113	511.8
378.493	526.6
378.895	514.2
379.297	528.8
379.699	517.2
380.102	528.6
380.504	528.8
380.906	528
381.308	540.8
381.71	522.2
382.113	534.8
382.515	524.6
382.918	531.4
383.299	527
383.701	528.8
384.104	532.4
384.507	510.2
384.909	525.8
385.312	512.8
385.715	520
386.118	514.8
386.521	517
386.924	534.6
387.327	512.2
387.709	509.2
388.112	507.2
388.515	518.8
388.918	526.2
389.322	522
389.725	517.4
390.129	526.8
390.532	530.2
390.936	521.8
391.339	517.2
391.743	525.2
392.125	519.2
392.529	528
392.933	536.8
393.337	528
393.74	526.4
394.144	518.2
394.548	521.4
394.953	523.2
395.357	531.4
395.761	519.2
396.144	521.8
396.548	524.2
396.952	530.8
397.357	521
397.761	519.8
398.166	522.8
398.57	515
398.975	516
399.379	522.6
399.763	563.4
400.168	524.6
400.572	523.8
400.977	522.4
401.382	537
401.787	533.2
402.192	532.8
402.597	532.8
403.002	513
403.386	530.4
403.791	535.2
404.197	513.6
404.602	517
405.007	527.8
405.413	516.6
405.818	529.8
406.224	514.2
406.608	516.8
407.014	513.2
407.42	531.4
407.825	519.8
408.231	537.8
408.637	531.2
409.043	530.6
409.449	520.8
409.834	522.2
410.24	523.8
410.646	531.2
411.052	533.8
411.458	528.4
411.865	534.4
412.271	533.4
412.677	525.6
413.062	533.8
413.469	515
413.875	546.4
414.282	527.4
414.689	531.2
415.095	527.6
415.502	513.6
415.888	517.2
416.294	513.8
416.701	554.2
417.108	525.2
417.515	533.6
417.923	521.4
418.33	546.6
418.715	537.6
419.123	523
419.53	520.4
419.937	528.4
420.345	541.4
420.752	526
421.16	538.6
421.546	527.6
421.953	536.6
422.361	518.2
422.769	531
423.177	521.2
423.585	549.4
423.992	537
424.379	543
424.787	538.8
425.195	546.4
425.603	533.2
426.011	535.6
426.419	542.6
426.806	538.6
427.214	530
427.623	538.4
428.031	555.8
428.44	543.2
428.848	547.4
429.235	569.4
429.644	564.4
430.053	577.4
430.461	588.4
430.87	614
431.279	602.8
431.666	617.6
432.075	639.2
432.484	651.6
432.893	670.6
433.302	681.8
433.711	735.2
434.099	747.8
434.508	755.6
434.918	766.6
435.327	807.8
435.737	829.4
436.125	861.6
436.534	879.4
436.944	905
437.353	936.2
437.763	963.2
438.173	976.6
438.561	1000
438.971	1007.8
439.381	1036.6
439.791	1067
440.201	1069.2
440.589	1106
440.999	1131.4
441.409	1136.4
441.819	1166.8
442.23	1200.6
442.619	1211.4
443.029	1235
443.439	1239
443.85	1259.4
444.26	1262.6
444.649	1275.2
445.06	1286.2
445.471	1293.6
445.881	1313.2
446.292	1324.4
446.682	1339.8
447.092	1311.2
447.503	1382
447.914	1352.6
448.325	1366.8
448.715	1369.4
449.126	1353.2
449.537	1358
449.948	1362.2
450.338	1372.8
450.75	1390.6
451.161	1379.2
451.572	1400.6
451.984	1407.4
452.374	1396.8
452.786	1408.2
453.197	1419
453.609	1412.8
453.999	1394.8
454.411	1412.6
454.823	1436.6
455.235	1430
455.647	1422.8
456.037	1440.8
456.449	1425.2
456.862	1436.8
457.274	1427.8
457.665	1438.8
458.077	1446.4
458.489	1462.8
458.902	1451.2
459.293	1429.4
459.705	1435.8
460.118	1431
460.53	1438
460.921	1445.4
461.334	1440.6
461.747	1452.8
462.16	1463
462.551	1476.8
462.964	1471.6
463.377	1426.8
463.79	1451
464.182	1458.2
464.595	1432.4
465.008	1441.6
465.421	1452.2
465.813	1451.6
466.226	1446.4
466.64	1440.4
467.053	1481.4
467.445	1443
467.859	1458.4
468.272	1448.2
468.686	1467.4
469.078	1442
469.492	1432
469.906	1442.2
470.298	1454.2
470.712	1435
471.126	1462.4
471.54	1428.6
471.933	1432.2
472.347	1438
472.761	1432.4
473.175	1422.2
473.568	1431.6
473.982	1428.2
474.397	1429.6
474.79	1420.6
475.204	1423.6
475.619	1414.6
476.033	1426.8
476.426	1387.8
476.841	1392
477.256	1405.4
477.649	1380.6
478.064	1362.8
478.479	1379
478.872	1353.4
479.287	1333.4
479.702	1355.8
480.118	1338.4
480.511	1343.2
480.927	1340
481.342	1344.2
481.736	1347.4
482.151	1331.2
482.566	1325.4
482.96	1336
483.376	1327.6
483.792	1314.2
484.186	1331
484.602	1303.8
485.017	1318.4
485.412	1302.4
485.827	1292.2
486.243	1281.4
486.638	1311.2
487.054	1285
487.47	1281.8
487.865	1272.8
488.281	1254.2
488.697	1247.6
489.092	1249.2
489.508	1232.4
489.925	1243.4
490.32	1227.8
490.736	1213.4
491.153	1218
491.548	1217.4
491.964	1209.4
492.381	1206.2
492.776	1198
493.193	1201
493.61	1187.8
494.006	1190.6
494.422	1181.8
494.84	1177.8
495.235	1180.4
495.652	1164.4
496.069	1161.4
496.465	1133
496.883	1149.2
497.3	1176.6
497.696	1117.8
498.113	1145.4
498.509	1112.6
498.927	1106.2
499.344	1102
499.741	1092.2
500.158	1092.2
500.576	1094.6
500.973	1099.2
501.39	1072
501.787	1067.6
502.205	1073
502.623	1056.4
503.02	1055.8
503.438	1067.4
503.856	1043.2
504.253	1058.8
504.671	1044
505.068	1013.6
505.486	1025.4
505.905	1045.6
506.302	1026.6
506.72	1025.6
507.118	1005.4
507.536	1001.4
507.955	1005
508.352	995.2
508.771	1000.2
509.169	993.8
509.587	965.2
510.006	974.6
510.404	963.2
510.823	957.6
511.221	961
511.64	948.4
512.038	972.6
512.457	941.6
512.877	942
513.275	923.8
513.694	930.6
514.092	926.2
514.512	916.8
514.91	928.8
515.33	916.2
515.749	914.2
516.148	910.2
516.568	897.4
516.966	892.8
517.386	875.4
517.785	895.6
518.205	880.8
518.603	874.2
519.024	855.4
519.444	866.8
519.843	872.6
520.263	868.4
520.662	864.4
521.082	845
521.481	846.6
521.902	845.8
522.301	842.2
522.722	848.2
523.121	822.8
523.542	834.6
523.963	823.6
524.362	819.6
524.783	818.8
525.183	813.6
525.604	821.4
526.003	817.8
526.425	808.4
526.824	819.2
527.246	817
527.646	804
528.067	795.4
528.467	795.4
528.888	790
529.289	784.2
529.71	785.2
530.11	767.4
530.532	775.8
530.932	768.2
531.354	766.8
531.755	802.2
532.176	773.2
532.577	752.4
532.999	758.8
533.4	748.4
533.822	754.6
534.223	752.6
534.645	739
535.046	737.2
535.468	741.2
535.869	753
536.292	736
536.693	767.4
537.115	731.4
537.516	730.8
537.939	729.6
538.34	744.4
538.742	734.4
539.165	719.2
539.566	718.8
539.989	708.6
540.391	712.8
540.814	726
541.216	708.6
541.639	713.6
542.041	713.8
542.464	702.4
542.866	702
543.268	687.8
543.691	701
544.093	698.2
544.517	713.6
544.919	682.6
545.343	707.8
545.745	688.6
546.147	686.4
546.571	672.8
546.974	670.4
547.398	682.2
547.8	680
548.224	666.6
548.627	671.4
549.03	672.4
549.454	655
549.857	656.6
550.281	659.6
550.684	667.4
551.087	677
551.512	667.4
551.915	667
552.34	658.6
552.743	652
553.146	660.2
553.571	655.2
553.975	664
554.399	639
554.803	681
555.207	644
555.632	643
556.036	634.8
556.461	632.8
556.865	639.6
557.268	637.4
557.694	626.8
558.098	634.2
558.502	643.6
558.927	630.4
559.332	629.2
559.736	625.2
560.162	622.8
560.566	619.6
560.992	624.2
561.396	617.4
561.801	615.6
562.227	630.2
562.631	606.6
563.036	610.2
563.462	630
563.867	615.2
564.272	598.6
564.698	607.8
565.103	597
565.508	624.4
565.935	606
566.34	608
566.745	609.2
567.172	597
567.577	615.8
567.982	615.8
568.409	606
568.815	588.6
569.22	603.6
569.626	608.8
570.053	588
570.459	595.6
570.865	593.8
571.292	591.2
571.698	595.6
572.104	571.2
572.531	580.6
572.937	592.8
573.343	593.2
573.75	582.2
574.177	589.6
574.583	583.4
574.99	579
575.396	583.6
575.824	577.4
576.231	585
576.637	580.8
577.065	600.6
577.472	575.6
577.879	576.6
578.286	592.4
578.714	561.2
579.121	564.2
579.528	575.6
579.935	574.2
580.364	579
580.771	560.6
581.178	567.2
581.585	571
582.014	568
582.421	568.8
582.829	561.8
583.236	576.6
583.644	557
584.073	558.8
584.481	561.4
584.889	556.8
585.296	566
585.726	562.8
586.134	555.2
586.542	554
586.95	570
587.358	548.4
587.787	562.6
588.196	545.4
588.604	557.8
589.012	559.4
589.421	549
589.851	545.6
590.259	555.8
590.668	546.6
591.076	584.2
591.485	544.4
591.894	557.8
592.324	565.4
592.733	563
593.142	546.8
593.551	540.6
593.96	577
594.369	536.2
594.8	538.6
595.209	534.8
595.618	533.6
596.028	539
596.437	541.4
596.847	539
597.256	549.8
597.687	541.8
598.097	545.8
598.507	522.8
598.917	541.2
599.327	540.4
599.736	547.4
600.146	542.4
600.556	539.4
600.988	556.8
601.398	531.2
601.808	541.2
602.219	533.8
602.629	540
603.039	537.8
603.45	560.4
603.86	532
604.271	548.6
604.703	538.4
605.114	534.4
605.525	534.8
605.935	539.6
606.346	555.4
606.757	543.2
607.168	536.8
607.579	534.2
607.99	544.2
608.402	539.2
608.813	536.2
609.224	535.2
609.636	533
610.047	529
610.48	538.8
610.892	538.2
611.303	542
611.715	535.6
612.127	524.8
612.539	534.2
612.95	534.2
613.362	528
613.774	524.6
614.186	526.8
614.599	531.6
615.011	544.8
615.423	533.6
615.835	528.8
616.248	529.2
616.66	543
617.073	526.4
617.485	535.2
617.898	538
618.311	542.4
618.723	543.8
619.136	555.6
619.549	554
619.962	547.6
620.375	534
620.788	537.8
621.201	531.6
621.614	545.2
622.028	532.8
622.441	543.6
622.854	547.4
623.268	542.2
623.681	537
624.095	541.4
624.509	538.8
624.922	540.8
625.336	526
625.728	536.2
626.142	547.2
626.556	545.8
626.97	542
627.384	529.4
627.799	533.4
628.213	550.4
628.627	534.4
629.041	532.2
629.456	529
629.87	532.8
630.285	544.4
630.699	537.8
631.093	544.4
631.507	546.2
631.922	534.2
632.337	558.8
632.752	522
633.167	532.6
633.582	530.8
633.997	522
634.412	521.6
634.806	531.4
635.221	523.8
635.637	536.4
636.052	526.2
636.468	520
636.883	549
637.299	523
637.715	525.6
638.109	532
638.525	517.6
638.941	543
639.357	525.6
639.773	539.8
640.189	522
640.584	524.8
641	526.8
641.416	522.4
641.832	530
642.249	524.2
642.665	524.4
643.06	525
643.477	529.4
643.894	513
644.31	525
644.727	520.4
645.123	520.4
645.54	518.6
645.957	523
646.374	525.8
646.77	523.8
647.187	536.6
647.604	514.6
648.021	511.6
648.439	516.6
648.835	519
649.252	524.2
649.67	518.2
650.088	513.4
650.484	520.4
650.902	522.4
651.32	518.4
651.738	519.8
652.134	517.4
652.552	528.4
652.971	525.8
653.389	505.2
653.786	527
654.204	525.2
654.622	518.2
655.019	512.2
655.438	518
655.857	517.8
656.275	525.4
656.673	507
657.091	517
657.51	510.4
657.908	519
658.327	529
658.746	509.4
659.144	522
659.563	523.8
659.982	522.8
660.38	512.4
660.8	513
661.219	523.8
661.617	514.6
662.037	504
662.457	517.4
662.855	503.8
663.275	534.6
663.695	516
664.094	510.6
664.514	516.2
664.934	505.4
665.333	520.8
665.753	503.4
666.152	508.6
666.572	502.8
666.993	530
667.392	508.2
667.812	509.6
668.212	506.8
668.632	517.6
669.053	505
669.453	515.2
669.874	509.4
670.273	517.8
670.694	502.2
671.116	524.8
671.515	520.6
671.937	504.2
672.337	512
672.758	501.2
673.158	518.2
673.58	500.4
673.98	507.8
674.402	522.6
674.824	505.4
675.224	503
675.646	501
676.047	502.6
676.469	510.4
676.869	504
677.292	516.4
677.693	512.6
678.115	503.2
678.516	512.2
678.939	507
679.34	504
679.762	512.2
680.164	515.8
680.586	495.8
680.988	515.4
681.411	526.4
681.812	502.2
682.236	498.6
682.637	497.4
683.061	493
683.462	509.6
683.864	506.4
684.288	506.6
684.69	499
685.114	507.8
685.516	510.6
685.94	501.6
686.342	511
686.766	500
687.168	503.4
687.571	518.6
687.995	508.8
688.398	496.6
688.822	505.6
689.225	515
689.628	517.6
690.052	502.2
690.456	510.6
690.88	501.4
691.284	490.6
691.687	511.4
692.112	492.4
692.515	494
692.919	505.4
693.344	505.8
693.747	500.6
694.173	498.8
694.577	507.6
694.98	498.6
695.406	504.8
695.81	508.6
696.214	494.8
696.64	507.6
697.044	504.2
697.448	501.2
697.874	503.6
698.279	498.8
698.684	498.4
699.11	492.4
699.514	505
699.919	504.8
700.324	502.2
700.75	499
701.156	505
701.561	508.4
701.987	504.8
702.393	518.6
702.798	511.6
703.203	504.2
703.63	499
704.036	495.6
704.442	505.4
704.847	497.6
705.274	504
705.68	507.4
706.086	508.4
706.492	501
706.92	497.2
707.326	502
707.732	498.4
708.139	502.2
708.545	500.2
708.973	501.6
709.38	496.2
709.786	496.8
710.193	518.8
710.6	499.8
711.028	492.8
711.435	501.2
711.842	497.2
712.249	493
712.656	498.4
713.064	505.6
713.492	489
713.9	500.6
714.307	505
714.715	499.8
715.123	505.8
715.53	512.2
715.938	512.6
716.367	508.2
716.775	499
717.184	497.2
717.592	498
718	505.6
718.408	528.2
718.816	534.8
719.225	508.2
719.633	508.2
720.042	499.6
720.472	500.4
720.881	514.8
721.29	504.8
721.699	486
722.108	508
722.517	500
722.926	496.6
723.335	505
723.744	504.2
724.154	508.8
724.563	508.6
724.973	504
725.382	498.8
725.792	500.2
726.202	490.6
726.612	510.8
727.022	496
727.432	493.6
779.813	499.2
780.223	533
780.634	501.2
781.044	499.4
781.454	498.2
781.865	507.8
782.276	492.8
782.686	509.4
783.097	499.6
783.508	503.6
783.919	502.8
784.33	504.6
784.741	509
785.152	498
785.563	485.2
785.974	496.8
786.386	506.4
786.776	495
787.188	501.2
787.599	491.2
788.011	510.6
788.423	502.8
788.835	503.6
789.247	488.6
789.659	498.2
790.071	503.8
790.483	531.6
790.874	488
791.286	503.8
791.699	495.2
792.111	496.4
792.524	490.2
792.937	492.4
793.349	491.6
793.741	498.6
794.154	491.8
794.567	504.8
794.98	500.8
795.393	484.6
795.785	516.6
796.198	495.6
796.612	499.2
797.026	495.6
797.439	485.6
797.831	496
798.245	490
798.659	497.2
799.073	495.4
799.487	490.4
799.88	494.2
800.294	498.2
800.708	490.4
801.123	491.6
801.516	514.4
801.93	485.2
802.345	481.8
802.76	497.6
803.153	500.2
803.568	509.8
803.983	508
804.377	494.8
804.792	482.8
805.207	487.6
805.601	499.2
806.016	525.4
806.432	491.8
806.826	523
807.242	501.2
807.658	495.6
808.052	490
808.468	495.4
808.884	488.2
809.279	500
809.695	508.8
810.111	508.6
810.506	500.6
810.922	503.8
811.339	499
811.734	504
812.151	488.6
812.546	492
812.963	491
813.38	498.6
813.776	488.4
814.193	513.6
814.589	487.4
815.006	496
815.402	494.8
815.82	495
816.237	494.8
816.633	498.8
817.051	488.4
817.448	498
817.866	487.4
818.262	513.2
818.68	484.8
819.077	492.8
819.495	500.8
819.892	533.4
820.311	488.8
820.708	503.2
821.127	491.4
821.524	503.4
821.943	501
822.34	512.2
822.759	499.8
823.157	500.6
823.576	500
823.974	500.2
824.393	586.2
824.791	497.6
825.189	488.6
825.609	497.2
826.007	499.4
826.427	490
826.826	492.4
827.246	502.2
827.644	486.4
828.043	499.4
828.463	495.2
828.862	501.8
829.261	495.2
829.682	494
830.081	503.4
830.502	488.8
830.901	500.8
831.301	487.2
831.722	479.4
832.121	488.8
832.521	491.8
832.943	493
833.342	501.4
833.742	496
834.164	498.6
834.564	486.2
834.965	496.8
835.386	493.6
835.787	492.2
836.188	489.4
836.588	491.4
837.01	499.8
837.411	488.8
837.812	502.4
838.213	501
838.636	492.2
839.037	546.8
839.438	501.8
839.84	498.8
840.263	498.8
840.664	498
841.066	490.2
841.468	501
841.891	489
842.293	504.6
842.695	495
843.098	499.6
843.5	492
843.902	499
844.326	498.4
844.729	499.4
845.131	507.8
845.534	489.8
845.937	507.6
846.34	507.4
846.764	488.4
847.167	495.4
847.571	492.2
847.974	493.8
848.377	491.4
848.781	532.8
849.184	509.6
849.588	493
849.992	490.4
850.396	497
850.821	510.2
851.225	493.8
