#lambda/nm	C1
208.295	471.6
208.67	429.8
209.045	396.2
209.419	395
209.794	541.2
210.169	519
210.544	620.2
210.919	544.4
211.295	521.6
211.67	536.6
212.045	527.8
212.421	530.8
212.796	557.6
213.172	521.2
213.547	531.6
213.923	524.2
214.299	531.4
214.675	534.8
215.051	531.4
215.427	536
215.803	548.2
216.179	538.4
216.555	525.4
216.932	543
217.308	538.8
217.684	530.2
218.061	541.4
218.438	542.2
218.814	527
219.191	536.6
219.568	533.4
219.945	528.2
220.322	537.4
220.699	542.6
221.076	538
221.453	540
221.83	526.8
222.208	532.6
222.585	525.2
222.962	536
223.34	537
223.717	532.4
224.095	525.6
224.473	533.4
224.851	527.8
225.229	529.4
225.607	545.8
225.985	521.8
226.363	535.4
226.741	532.6
227.119	528.2
227.497	543.2
227.876	519.4
228.254	532
228.633	536.4
229.011	529.2
229.39	530.4
229.769	526
230.148	531.8
230.527	547.6
230.905	529
231.284	533.4
231.664	528
232.043	541.6
232.422	536.4
232.801	532.2
233.181	537
233.56	535.2
233.94	530.8
234.319	522.2
234.699	523.8
235.079	564.2
235.458	568
235.838	545.2
236.218	523.4
236.598	520.8
236.978	525.2
237.358	522.2
237.738	525
238.119	540.8
238.499	527.6
238.88	538
239.26	544.8
239.641	528.2
240.021	527.6
240.402	525
240.783	524.2
241.163	530
241.544	525.8
241.925	526.8
242.306	543
242.687	533
243.069	529.2
243.45	539.4
243.831	527.4
244.212	530.8
244.594	567.2
244.975	543
245.357	537.4
245.739	527.6
246.12	529.2
246.502	546.4
246.884	532.2
247.266	533.2
247.648	538.8
248.03	552.4
248.412	530.6
248.794	536.2
249.176	528.2
249.559	542
249.941	540
250.323	522.8
250.706	529.2
251.089	533.4
251.471	536.4
251.854	533.6
252.237	530
252.62	544.2
253.002	533.4
253.385	525.6
253.769	547.6
254.152	530.6
254.535	531
254.918	528
255.301	527.8
255.685	535
256.068	528.8
256.452	550
256.835	544.8
257.219	538.2
257.603	544.4
257.986	516
258.37	535
258.754	525.8
259.138	534.6
259.522	540.2
259.906	534.4
260.29	535.2
260.675	538.6
261.059	529.6
261.443	529.6
261.828	539.8
262.212	541.8
262.597	526.2
262.981	532.8
263.366	536.4
263.751	537
264.136	530.2
264.521	533.2
264.906	529.6
265.291	541.6
265.676	531.4
266.061	540.8
266.446	545.8
266.831	535
267.217	547.6
267.602	536
267.987	535.8
268.373	530.6
268.759	542.4
269.144	540.4
269.53	528
269.916	530.4
270.302	531
270.688	536.8
271.074	535
271.46	543.4
271.846	557.2
272.232	529.2
272.618	534
273.004	532.4
273.391	546
273.777	546.4
274.164	536.8
274.55	539.4
274.937	535.8
275.324	531
275.71	545.6
276.097	532.8
276.484	526.6
276.871	537.4
277.258	535
277.645	515.6
278.032	531
278.419	531.6
278.807	531.8
279.194	527.8
279.581	531.2
279.969	535.2
280.356	531.8
280.744	531.8
281.131	551
281.519	544.4
281.907	529.8
282.295	529.2
282.682	546.8
283.07	530.8
283.458	546
283.846	543.2
284.235	541
284.623	540
285.011	526.2
285.399	545.4
285.788	539.2
286.176	524.8
286.565	541.4
286.953	524.2
287.342	534.2
287.731	528.8
288.119	526
288.508	531.4
288.897	535
289.286	521.8
289.675	532.6
290.064	538
290.453	532.6
290.821	530.8
291.21	540
291.599	526.2
291.989	535.6
292.378	539.6
292.768	547.6
293.157	544.2
293.547	544.2
293.936	526.6
294.326	527
294.716	536
295.106	534.6
295.496	527
295.886	538.4
296.276	534.8
296.666	532
297.056	519.6
297.446	520.4
297.836	551
298.227	524.6
298.617	537.4
299.008	544.8
299.398	531
299.789	531.2
300.179	540.4
300.57	545
300.961	536.6
301.352	529.4
301.742	537.8
302.133	528
302.524	528.6
302.915	531.8
303.307	521
303.698	537
304.089	536.8
304.48	526.8
304.872	530.8
305.263	527.6
305.655	527.2
306.046	541.8
306.438	535.4
306.829	524.4
307.221	536.4
307.613	528.6
308.005	532.2
308.397	534.6
308.789	545.4
309.181	550.6
309.573	545.2
309.965	539.4
310.357	530.4
310.749	548.6
311.142	538
311.534	528.4
311.926	540.2
312.319	522.2
312.711	535.2
313.104	538.8
313.497	531.8
313.889	565.8
314.282	552.4
314.675	551
315.068	532.8
315.461	544.8
315.854	556.2
316.247	541.4
316.64	525.6
317.033	537.2
317.405	540.4
317.798	534.4
318.192	535.2
318.585	529.2
318.979	537
319.372	531.2
319.766	529
320.16	532.8
320.553	547.2
320.947	550.8
321.341	520.2
321.735	531.8
322.129	526.4
322.523	545.6
322.917	522.4
323.311	538.4
323.705	537.6
324.099	532.2
324.494	545.2
324.888	537.6
325.282	532
325.677	537.4
326.071	534.6
326.466	535.8
326.861	538
327.255	546.4
327.65	544.4
328.045	544.4
328.44	536.4
328.835	534.4
329.23	530.6
329.625	552.2
330.02	528
330.415	545.4
330.81	529.4
331.206	536.8
331.601	523.4
331.996	544.6
332.37	546.6
332.766	515.4
333.161	552.6
333.557	531.2
333.953	538.4
334.348	751.8
334.744	531.2
335.14	537
335.536	530
335.932	543.8
336.328	528
336.724	541.2
337.12	541.2
337.516	535.2
337.913	531.8
338.309	538
338.705	535.4
339.102	538.6
339.498	531.6
339.895	547
340.291	522.6
340.688	539
341.085	522.2
341.481	529.4
341.878	535.4
342.275	541.8
342.672	524.8
343.069	529
343.466	521.8
343.842	539.6
344.239	534
344.636	530
345.033	523
345.431	524.4
345.828	534
346.225	527.4
346.623	559.6
347.02	533.4
347.418	538.8
347.816	539
348.213	523.6
348.611	534.6
349.009	524.2
349.407	545.8
349.805	524
350.203	522.8
350.601	534.4
350.999	527
351.397	572.2
351.795	528.6
352.193	535.6
352.57	530.4
352.969	530.2
353.367	519.8
353.766	522
354.164	524
354.563	535.8
354.961	518.6
355.36	519
355.759	526.4
356.158	520
356.557	516.2
356.956	524
357.355	523.2
357.754	533.6
358.153	533.8
358.552	544
358.951	533.8
359.35	535.2
359.75	530.2
360.149	528.6
360.527	522.8
360.926	509.4
361.326	530.2
361.726	534.4
362.125	514.6
362.525	531.4
362.925	529
363.325	528.2
363.724	522.8
364.124	520
364.524	521
364.924	522
365.324	536.8
365.725	521.6
366.125	528.4
366.525	531.8
366.904	521.2
367.304	508.6
367.705	538.2
368.105	537.4
368.506	525.2
368.906	528.4
369.307	524.2
369.708	531.8
370.108	512.4
370.509	535
370.91	523.2
371.311	530.6
371.712	533.2
372.113	517.8
372.514	520.4
372.894	524.2
373.295	512.6
373.696	544
374.097	539.2
374.499	549.4
374.9	524.6
375.301	516
375.703	533.2
376.105	517.6
376.506	530
376.908	525.2
377.309	529.2
377.711	521.2
378.113	519.8
378.493	525.8
378.895	518.4
379.297	532.4
379.699	514
380.102	529.2
380.504	524.2
380.906	522
381.308	541.2
381.71	523.4
382.113	536.2
382.515	523.6
382.918	532
383.299	531.4
383.701	536.6
384.104	522.6
384.507	506.8
384.909	521.2
385.312	515.4
385.715	520.8
386.118	523
386.521	521.4
386.924	537.4
387.327	522
387.709	514
388.112	515.2
388.515	522.4
388.918	521
389.322	533
389.725	528.4
390.129	539.8
390.532	526.8
390.936	524
391.339	527
391.743	530.4
392.125	517.2
392.529	526.8
392.933	531.8
393.337	525.2
393.74	523.8
394.144	528.2
394.548	518.6
394.953	514
395.357	524.2
395.761	518.8
396.144	522.4
396.548	526.8
396.952	522.2
397.357	524.8
397.761	518
398.166	523.4
398.57	526.8
398.975	515
399.379	525
399.763	560
400.168	516.2
400.572	519.2
400.977	517.4
401.382	528.6
401.787	529.2
402.192	522.2
402.597	536.2
403.002	512.2
403.386	530.6
403.791	532
404.197	516
404.602	523.4
405.007	516.4
405.413	513
405.818	532.6
406.224	521.6
406.608	518.2
407.014	515
407.42	543.4
407.825	521.8
408.231	534.4
408.637	532
409.043	532.8
409.449	519.4
409.834	519.4
410.24	520.8
410.646	535.4
411.052	533
411.458	527.8
411.865	535.6
412.271	533.8
412.677	525.4
413.062	532.6
413.469	518
413.875	544.4
414.282	534.8
414.689	534.6
415.095	532.6
415.502	520.2
415.888	516.4
416.294	515.2
416.701	557.2
417.108	519
417.515	531.6
417.923	520.4
418.33	535.4
418.715	532.4
419.123	519.6
419.53	526.6
419.937	534.8
420.345	533.2
420.752	518.4
421.16	541
421.546	532
421.953	533.2
422.361	510.8
422.769	530.2
423.177	519
423.585	537.8
423.992	539.2
424.379	530.6
424.787	535.4
425.195	545.2
425.603	524.4
426.011	537.8
426.419	544.8
426.806	528.8
427.214	527.4
427.623	532.4
428.031	541.6
428.44	539.6
428.848	550.2
429.235	557.2
429.644	555
430.053	555.6
430.461	572.4
430.87	595.2
431.279	593.8
431.666	597
432.075	607.8
432.484	625.4
432.893	634.2
433.302	663.4
433.711	704.2
434.099	682.2
434.508	710.6
434.918	725.2
435.327	750.8
435.737	768.6
436.125	800
436.534	813.6
436.944	834
437.353	865
437.763	892.6
438.173	887
438.561	927.8
438.971	921.6
439.381	964.8
439.791	973.8
440.201	972
440.589	1009.6
440.999	1043.2
441.409	1042.2
441.819	1055.4
442.23	1099.4
442.619	1101.6
443.029	1097.2
443.439	1108.2
443.85	1121.4
444.26	1147
444.649	1161.2
445.06	1173
445.471	1183.6
445.881	1173.4
446.292	1205.8
446.682	1210.8
447.092	1202.4
447.503	1255.4
447.914	1219.2
448.325	1230.6
448.715	1230.2
449.126	1227.6
449.537	1244.2
449.948	1253
450.338	1269
450.75	1273.2
451.161	1275.8
451.572	1281.8
451.984	1280.2
452.374	1274.8
452.786	1286.8
453.197	1297.8
453.609	1298.4
453.999	1291.2
454.411	1283.8
454.823	1294.4
455.235	1297.2
455.647	1307.6
456.037	1311.4
456.449	1301.4
456.862	1305.8
457.274	1319.2
457.665	1299
458.077	1324
458.489	1349
458.902	1315.2
459.293	1304.8
459.705	1318.4
460.118	1312.8
460.53	1320.6
460.921	1323.6
461.334	1326.6
461.747	1324
462.16	1330.4
462.551	1339.2
462.964	1335.8
463.377	1307.4
463.79	1327.6
464.182	1323.6
464.595	1306
465.008	1338.6
465.421	1331.2
465.813	1333.8
466.226	1335
466.64	1320
467.053	1365.8
467.445	1345
467.859	1341.6
468.272	1334.2
468.686	1338.2
469.078	1328
469.492	1312.2
469.906	1318.4
470.298	1324.6
470.712	1308.4
471.126	1344.4
471.54	1306.8
471.933	1318
472.347	1308.4
472.761	1313.2
473.175	1308.6
473.568	1304.2
473.982	1299
474.397	1281
474.79	1298.6
475.204	1285
475.619	1285.8
476.033	1281.6
476.426	1279.2
476.841	1271
477.256	1285.4
477.649	1254.2
478.064	1249.6
478.479	1248.8
478.872	1251.2
479.287	1236.2
479.702	1254.4
480.118	1241.6
480.511	1245.6
480.927	1237.8
481.342	1233
481.736	1235.4
482.151	1220.8
482.566	1227.8
482.96	1227.8
483.376	1226.2
483.792	1207.2
484.186	1216.2
484.602	1198
485.017	1212.4
485.412	1179.8
485.827	1197.2
486.243	1184.2
486.638	1209.4
487.054	1168.2
487.47	1197
487.865	1184.8
488.281	1162.8
488.697	1165.8
489.092	1158.2
489.508	1153.6
489.925	1147.2
490.32	1134.6
490.736	1141.6
491.153	1128.6
491.548	1135
491.964	1129.4
492.381	1106
492.776	1125
493.193	1112.4
493.61	1110
494.006	1090.8
494.422	1097.4
494.84	1084.6
495.235	1094.4
495.652	1079.6
496.069	1090.2
496.465	1069.8
496.883	1053.8
497.3	1082
497.696	1052
498.113	1052.6
498.509	1044.4
498.927	1031.2
499.344	1027.2
499.741	1021.8
500.158	1030.4
500.576	1030.6
500.973	1016.6
501.39	1002.4
501.787	994.2
502.205	998.8
502.623	987.6
503.02	976.2
503.438	978.4
503.856	992.2
504.253	992.4
504.671	975.4
505.068	962.4
505.486	962.2
505.905	975.8
506.302	954.4
506.72	965
507.118	933.8
507.536	937.4
507.955	930
508.352	931
508.771	922
509.169	923.4
509.587	908.6
510.006	910.4
510.404	906.2
510.823	894.2
511.221	903.6
511.64	900.4
512.038	908.8
512.457	883.6
512.877	899.8
513.275	876
513.694	876.8
514.092	869.8
514.512	873
514.91	881.6
515.33	868
515.749	864
516.148	858.4
516.568	854.8
516.966	856.6
517.386	839
517.785	835.2
518.205	844.8
518.603	839.6
519.024	831.4
519.444	823
519.843	827.4
520.263	828
520.662	826.4
521.082	807.6
521.481	812.2
521.902	806.2
522.301	804.4
522.722	803.2
523.121	800.8
523.542	800
523.963	794.2
524.362	782.2
524.783	784.6
525.183	785
525.604	788
526.003	779
526.425	769
526.824	772
527.246	775
527.646	775
528.067	762.4
528.467	760.4
528.888	761
529.289	753.6
529.71	756.4
530.11	745.4
530.532	740.2
530.932	738.4
531.354	732.4
531.755	757.2
532.176	741.6
532.577	733.4
532.999	732.2
533.4	717
533.822	729.6
534.223	711.8
534.645	712.2
535.046	702.4
535.468	720.6
535.869	720.6
536.292	709.6
536.693	739.4
537.115	710.8
537.516	706.8
537.939	708.6
538.34	720
538.742	708.6
539.165	694.8
539.566	689.4
539.989	692
540.391	695
540.814	690
541.216	699.6
541.639	682
542.041	698
542.464	679
542.866	677.8
543.268	677
543.691	673.8
544.093	688.4
544.517	695.2
544.919	664
545.343	696.4
545.745	661.4
546.147	658.4
546.571	669.8
546.974	652.8
547.398	667.2
547.8	673.2
548.224	662.8
548.627	641.6
549.03	658.2
549.454	653.2
549.857	648
550.281	655.4
550.684	643.8
551.087	650.2
551.512	641.4
551.915	649.8
552.34	643.2
552.743	637.6
553.146	638
553.571	624.6
553.975	642.8
554.399	619.4
554.803	671
555.207	622.8
555.632	616.6
556.036	634.2
556.461	620
556.865	627.4
557.268	610
557.694	620.8
558.098	628.2
558.502	622.2
558.927	614
559.332	623.2
559.736	619.6
560.162	618.2
560.566	621.6
560.992	606
561.396	612.6
561.801	604.2
562.227	605.6
562.631	598.2
563.036	605.8
563.462	621.6
563.867	608.4
564.272	595.6
564.698	610
565.103	593.8
565.508	614.4
565.935	596.2
566.34	592.2
566.745	602
567.172	593.2
567.577	606
567.982	597.6
568.409	593.8
568.815	579.6
569.22	591.6
569.626	605.4
570.053	573
570.459	591
570.865	586.8
571.292	588.6
571.698	588
572.104	581.8
572.531	583
572.937	587
573.343	587
573.75	571.6
574.177	575.8
574.583	585.6
574.99	582.2
575.396	588.4
575.824	564.6
576.231	572.2
576.637	569.2
577.065	596
577.472	569.4
577.879	563.6
578.286	584
578.714	563.2
579.121	566.8
579.528	565.4
579.935	568.6
580.364	558.4
580.771	557.8
581.178	553.6
581.585	568.8
582.014	564
582.421	565.4
582.829	560
583.236	564.4
583.644	556.8
584.073	562.6
584.481	561.8
584.889	556
585.296	565
585.726	558.2
586.134	547.2
586.542	547.2
586.95	562.8
587.358	541.6
587.787	555.6
588.196	537.6
588.604	552.2
589.012	547.4
589.421	536.8
589.851	548
590.259	552.4
590.668	547.2
591.076	572
591.485	529.8
591.894	548.4
592.324	556
592.733	549.8
593.142	536.2
593.551	547.2
593.96	551.4
594.369	532.8
594.8	547.8
595.209	536.2
595.618	536.8
596.028	540.4
596.437	530.4
596.847	534.8
597.256	539.8
597.687	547.6
598.097	536.6
598.507	525.2
598.917	537.4
599.327	537.8
599.736	537.2
600.146	543
600.556	537.6
600.988	545
601.398	530.4
601.808	548.6
602.219	518.2
602.629	543
603.039	531.4
603.45	550.4
603.86	540.6
604.271	540
604.703	528.6
605.114	530
605.525	527.4
605.935	532.2
606.346	551.8
606.757	536.6
607.168	533
607.579	524
607.99	547
608.402	528.6
608.813	529.4
609.224	527
609.636	524.4
610.047	524.6
610.48	524.4
610.892	540.4
611.303	534.2
611.715	523.8
612.127	524.4
612.539	533.8
612.95	526.4
613.362	516
613.774	514.4
614.186	519.2
614.599	516
615.011	527.4
615.423	524
615.835	520.6
616.248	516.2
616.66	531.8
617.073	521.4
617.485	525.2
617.898	524.2
618.311	537
618.723	514.8
619.136	550.4
619.549	532.4
619.962	543.2
620.375	521
620.788	527.8
621.201	520.2
621.614	533.8
622.028	524.8
622.441	516.8
622.854	527.8
623.268	517.6
623.681	528.2
624.095	521.4
624.509	526.2
624.922	529.4
625.336	516.4
625.728	528.4
626.142	540.4
626.556	527
626.97	530.4
627.384	525.8
627.799	516.6
628.213	526.2
628.627	520.2
629.041	517.4
629.456	513.6
629.87	520.6
630.285	519.8
630.699	535
631.093	517.2
631.507	525.4
631.922	527.8
632.337	534.6
632.752	518
633.167	509.4
633.582	515.8
633.997	515
634.412	515.8
634.806	526
635.221	509.8
635.637	519.2
636.052	512.8
636.468	521.6
636.883	517.4
637.299	512
637.715	507.4
638.109	517.6
638.525	506.2
638.941	525.8
639.357	515
639.773	524.6
640.189	511.8
640.584	514.6
641	514.2
641.416	508.4
641.832	513.8
642.249	514.4
642.665	507.2
643.06	522
643.477	520.8
643.894	503.6
644.31	519.4
644.727	512.4
645.123	514
645.54	502.2
645.957	516.6
646.374	522
646.77	505
647.187	532
647.604	508.6
648.021	501.6
648.439	506
648.835	513.8
649.252	505.4
649.67	507.4
650.088	508.6
650.484	522
650.902	519.6
651.32	521.8
651.738	509.6
652.134	514
652.552	525
652.971	521.6
653.389	511.4
653.786	519.8
654.204	519.4
654.622	502
655.019	513.4
655.438	515.2
655.857	516.8
656.275	518.2
656.673	500.2
657.091	514.6
657.51	507
657.908	509.8
658.327	520.2
658.746	506
659.144	511
659.563	521.8
659.982	514.6
660.38	506.4
660.8	516.6
661.219	521
661.617	511.4
662.037	502.2
662.457	518.4
662.855	504.6
663.275	541
663.695	509
664.094	513.8
664.514	510.6
664.934	499
665.333	518.2
665.753	513.4
666.152	498.4
666.572	495.8
666.993	523.8
667.392	505.6
667.812	505.6
668.212	502.8
668.632	511.8
669.053	508
669.453	515
669.874	507.2
670.273	517.6
670.694	509.4
671.116	524
671.515	509.8
671.937	506.2
672.337	506.8
672.758	504
673.158	514.2
673.58	506.2
673.98	514
674.402	526.4
674.824	510
675.224	504.4
675.646	505.8
676.047	498.8
676.469	505.2
676.869	512.8
677.292	511.2
677.693	496.8
678.115	505.2
678.516	511.2
678.939	511.2
679.34	504
679.762	524
680.164	509.4
680.586	502.6
680.988	510.6
681.411	529.8
681.812	498.6
682.236	492.8
682.637	501
683.061	493.4
683.462	515.4
683.864	501
684.288	503.2
684.69	497.2
685.114	505.4
685.516	505.8
685.94	506
686.342	508.8
686.766	504.6
687.168	500.6
687.571	513.8
687.995	506.2
688.398	500.8
688.822	497
689.225	510.6
689.628	519.6
690.052	502
690.456	506.6
690.88	500
691.284	491
691.687	508
692.112	492.6
692.515	498.2
692.919	496.2
693.344	508.2
693.747	498.6
694.173	492.8
694.577	505.6
694.98	505.8
695.406	505.2
695.81	502.2
696.214	508.4
696.64	504.2
697.044	512.4
697.448	510.8
697.874	506.6
698.279	500.4
698.684	501
699.11	494.8
699.514	499.4
699.919	500.2
700.324	501.4
700.75	502.2
701.156	502.4
701.561	521
701.987	505.8
702.393	509
702.798	506.8
703.203	501.8
703.63	496.4
704.036	499.4
704.442	508.2
704.847	494
705.274	507
705.68	506.4
706.086	510.2
706.492	502.6
706.92	502.4
707.326	513.8
707.732	499.6
708.139	502.2
708.545	503.6
708.973	501.4
709.38	499.6
709.786	494.6
710.193	517.2
710.6	503.6
711.028	492.2
711.435	499.2
711.842	501
712.249	499
712.656	495
713.064	503.2
713.492	496.4
713.9	492.6
714.307	497.2
714.715	499.6
715.123	507
715.53	499.6
715.938	512.6
716.367	506.4
716.775	495.8
717.184	497
717.592	501.6
718	506.6
718.408	527.4
718.816	538.6
719.225	507.6
719.633	506.2
720.042	497.4
720.472	501.2
720.881	513.4
721.29	505.2
721.699	488.2
722.108	507.6
722.517	497.2
722.926	501.8
723.335	509.2
723.744	508
724.154	499.2
724.563	503
724.973	498.6
725.382	491.6
725.792	492.8
726.202	489.2
726.612	498.2
727.022	505.6
727.432	497.4
779.813	493.8
780.223	540.8
780.634	498.6
781.044	496.4
781.454	502
781.865	508.4
782.276	492.6
782.686	507.8
783.097	493.6
783.508	504.2
783.919	499.2
784.33	515.6
784.741	513.4
785.152	496.2
785.563	492.6
785.974	492.2
786.386	502.8
786.776	494.4
787.188	499.2
787.599	491.2
788.011	512.6
788.423	499.4
788.835	495.4
789.247	487.8
789.659	499.4
790.071	493.8
790.483	534.4
790.874	495.2
791.286	502
791.699	493.8
792.111	488.6
792.524	498.2
792.937	502.4
793.349	498.2
793.741	499.4
794.154	502.8
794.567	517.6
794.98	501.4
795.393	490.2
795.785	512.6
796.198	488
796.612	499.2
797.026	487.6
797.439	487.4
797.831	493.2
798.245	485.4
798.659	492.4
799.073	499
799.487	495.8
799.88	493
800.294	499
800.708	500.4
801.123	496.2
801.516	508.4
801.93	490.8
802.345	487.4
802.76	505.2
803.153	510.2
803.568	506.6
803.983	503.8
804.377	502.6
804.792	490.2
805.207	495.8
805.601	497.6
806.016	523.2
806.432	495.6
806.826	524.4
807.242	505.6
807.658	498.4
808.052	497.4
808.468	487.8
808.884	493.6
809.279	494.6
809.695	512.8
810.111	522.4
810.506	503.6
810.922	517.8
811.339	492.6
811.734	505.6
812.151	497.4
812.546	483.8
812.963	491.2
813.38	491.8
813.776	496.8
814.193	513
814.589	494
815.006	494.4
815.402	494.8
815.82	491.6
816.237	494.6
816.633	504
817.051	493.2
817.448	500.2
817.866	488.4
818.262	513.6
818.68	489.2
819.077	497.6
819.495	497
819.892	533.4
820.311	489.4
820.708	494.8
821.127	482.6
821.524	509.2
821.943	500.4
822.34	507.6
822.759	504
823.157	499.8
823.576	511.2
823.974	503.2
824.393	554.4
824.791	490.2
825.189	495
825.609	499.2
826.007	504.8
826.427	487.2
826.826	496
827.246	494.2
827.644	488.8
828.043	506.6
828.463	490.4
828.862	499.6
829.261	504
829.682	494.2
830.081	500.8
830.502	492.6
830.901	510.4
831.301	489.4
831.722	490.2
832.121	493.4
832.521	493.8
832.943	498.4
833.342	495.2
833.742	482.8
834.164	497
834.564	494
834.965	488.8
835.386	490
835.787	492.6
836.188	495.4
836.588	499.2
837.01	490.6
837.411	489
837.812	497.8
838.213	503
838.636	492.4
839.037	545.6
839.438	492.4
839.84	496.8
840.263	505.4
840.664	497.2
841.066	501.2
841.468	496.2
841.891	487.8
842.293	502.4
842.695	502
843.098	503.6
843.5	494.8
843.902	498.2
844.326	502
844.729	496.6
845.131	505.8
845.534	501.2
845.937	505.8
846.34	504.6
846.764	488.2
847.167	498
847.571	489.2
847.974	495.4
848.377	490
848.781	528.6
849.184	499
849.588	491.2
849.992	487.4
850.396	493.4
850.821	512.8
851.225	492.8
851.63	491.6
852.034	505.8
852.438	496.6
