#lambda/nm	C1
208.295	468.4
208.67	433
209.045	397.2
209.419	399.2
209.794	540
210.169	514.6
210.544	617.2
210.919	535.4
211.295	524.2
211.67	531.8
212.045	528.6
212.421	523.8
212.796	560.4
213.172	528.4
213.547	526
213.923	528.2
214.299	529.6
214.675	536.6
215.051	528.8
215.427	541.2
215.803	544
216.179	535.6
216.555	527.2
216.932	536.8
217.308	538.6
217.684	522.4
218.061	537.6
218.438	539.8
218.814	533.6
219.191	543.8
219.568	526.6
219.945	532
220.322	536.2
220.699	534.6
221.076	538.8
221.453	530.2
221.83	520
222.208	532
222.585	524.2
222.962	535.6
223.34	538.8
223.717	535.6
224.095	528.8
224.473	533.6
224.851	524
225.229	517.6
225.607	541.8
225.985	524.2
226.363	540.8
226.741	531.6
227.119	522.8
227.497	542.8
227.876	524.8
228.254	540.8
228.633	528.2
229.011	533.4
229.39	536.6
229.769	531.6
230.148	538.4
230.527	549.8
230.905	534.2
231.284	532.4
231.664	529.6
232.043	548.2
232.422	539.8
232.801	523.4
233.181	534
233.56	540.4
233.94	535.8
234.319	514
234.699	533.2
235.079	562.4
235.458	568.4
235.838	546
236.218	524
236.598	525.2
236.978	525.2
237.358	530.2
237.738	530.2
238.119	536
238.499	520.2
238.88	529.2
239.26	545.6
239.641	521.8
240.021	523
240.402	523
240.783	525.8
241.163	524.4
241.544	531.6
241.925	527.4
242.306	536.6
242.687	525.6
243.069	532.2
243.45	531.4
243.831	527.2
244.212	528.6
244.594	559.6
244.975	536.6
245.357	536.6
245.739	532.8
246.12	528.2
246.502	538.8
246.884	527.2
247.266	529.8
247.648	534.8
248.03	556.6
248.412	535.8
248.794	541.4
249.176	519.2
249.559	538.8
249.941	531.6
250.323	533.6
250.706	525
251.089	529.2
251.471	534
251.854	535.4
252.237	540
252.62	544.2
253.002	521.2
253.385	531.2
253.769	545.8
254.152	539
254.535	543.6
254.918	523.2
255.301	528.2
255.685	525.8
256.068	526.8
256.452	554.4
256.835	541
257.219	538.2
257.603	542.2
257.986	525.8
258.37	542
258.754	524
259.138	528.4
259.522	544.4
259.906	534.2
260.29	541.8
260.675	526.4
261.059	534.4
261.443	522.6
261.828	534.4
262.212	536.4
262.597	523.4
262.981	534.8
263.366	540.4
263.751	534.6
264.136	520.6
264.521	536.4
264.906	524.4
265.291	543.2
265.676	526.2
266.061	546.8
266.446	547.6
266.831	535.4
267.217	544.8
267.602	536.6
267.987	532.6
268.373	533.2
268.759	533
269.144	537.2
269.53	535.2
269.916	535.2
270.302	525.4
270.688	535.8
271.074	534.4
271.46	545.8
271.846	559.6
272.232	531.6
272.618	530.4
273.004	534.6
273.391	541
273.777	543.4
274.164	525
274.55	545.6
274.937	533.4
275.324	530
275.71	539.8
276.097	530.4
276.484	527.6
276.871	534
277.258	532.2
277.645	519.2
278.032	533.4
278.419	519.4
278.807	532
279.194	520.6
279.581	529.4
279.969	538.6
280.356	531
280.744	536.6
281.131	554.4
281.519	536.2
281.907	520
282.295	521
282.682	538.8
283.07	532.8
283.458	531.8
283.846	535.8
284.235	542.2
284.623	530.6
285.011	520.8
285.399	529.4
285.788	528.6
286.176	518.4
286.565	541.2
286.953	526.8
287.342	525.6
287.731	526.4
288.119	533.4
288.508	523.4
288.897	531.2
289.286	526.6
289.675	538.8
290.064	539.8
290.453	531.8
290.821	528.6
291.21	546.4
291.599	525.2
291.989	530.8
292.378	541.6
292.768	550.2
293.157	542.8
293.547	539.4
293.936	526
294.326	531.4
294.716	535.2
295.106	535.6
295.496	536.4
295.886	537.4
296.276	537.8
296.666	529.2
297.056	522
297.446	521.8
297.836	536.8
298.227	528.8
298.617	529.4
299.008	546
299.398	531.6
299.789	529.2
300.179	534
300.57	534.8
300.961	523.2
301.352	529
301.742	535
302.133	531.2
302.524	530
302.915	532.8
303.307	528.4
303.698	548
304.089	530
304.48	529.4
304.872	532.4
305.263	533.2
305.655	526.4
306.046	533
306.438	529.8
306.829	526.6
307.221	533.2
307.613	538
308.005	535.8
308.397	538.4
308.789	551.4
309.181	549
309.573	550.8
309.965	540.8
310.357	521.2
310.749	539.4
311.142	533
311.534	529
311.926	537
312.319	532.8
312.711	517.8
313.104	538
313.497	527.2
313.889	561.8
314.282	543.8
314.675	556.8
315.068	533.2
315.461	539
315.854	553.8
316.247	532.6
316.64	537
317.033	534.4
317.405	536.4
317.798	535.8
318.192	537.2
318.585	527.6
318.979	535.2
319.372	535.8
319.766	525.6
320.16	543.4
320.553	544.4
320.947	546
321.341	537.2
321.735	534.8
322.129	521.4
322.523	546.6
322.917	529.8
323.311	546
323.705	534.2
324.099	533.6
324.494	543
324.888	539.2
325.282	536.8
325.677	543.2
326.071	534.4
326.466	541.4
326.861	531.6
327.255	536.2
327.65	541.4
328.045	545.8
328.44	530.4
328.835	530.8
329.23	519.4
329.625	557.8
330.02	523
330.415	544.2
330.81	539.4
331.206	533.4
331.601	527.8
331.996	536
332.37	549
332.766	525
333.161	552.4
333.557	523.6
333.953	532.4
334.348	841.6
334.744	527.6
335.14	525.8
335.536	530.2
335.932	543.2
336.328	530
336.724	542
337.12	531.8
337.516	535.6
337.913	532.6
338.309	545.8
338.705	525.8
339.102	533.4
339.498	525.6
339.895	538.8
340.291	525.8
340.688	537.6
341.085	526
341.481	526.2
341.878	521.2
342.275	545
342.672	523.8
343.069	519.4
343.466	528
343.842	539
344.239	530.8
344.636	520.4
345.033	531.6
345.431	517.6
345.828	524.4
346.225	530.6
346.623	561.2
347.02	534.4
347.418	529.4
347.816	539.4
348.213	525.6
348.611	534.2
349.009	527.4
349.407	541.6
349.805	520.8
350.203	518.8
350.601	535.8
350.999	528.8
351.397	580.4
351.795	531.4
352.193	534.4
352.57	537.2
352.969	544.6
353.367	523.6
353.766	524
354.164	535.4
354.563	540
354.961	535
355.36	520.2
355.759	527.8
356.158	521.2
356.557	530
356.956	520
357.355	526.4
357.754	534.4
358.153	538.4
358.552	543.8
358.951	522.8
359.35	536.6
359.75	522.4
360.149	520.8
360.527	514.4
360.926	524.4
361.326	529.6
361.726	528.8
362.125	520
362.525	532.4
362.925	522.8
363.325	528
363.724	532
364.124	527.2
364.524	524.4
364.924	526
365.324	534
365.725	518
366.125	528.6
366.525	523.4
366.904	522.4
367.304	516.2
367.705	543.4
368.105	532.8
368.506	524.2
368.906	519.6
369.307	528.2
369.708	531.4
370.108	518
370.509	534.2
370.91	518.2
371.311	526.2
371.712	526
372.113	523.2
372.514	513
372.894	524.8
373.295	519.8
373.696	526.4
374.097	524.8
374.499	548.4
374.9	529.8
375.301	526.4
375.703	523.6
376.105	521.4
376.506	526.6
376.908	529.4
377.309	520.4
377.711	517
378.113	522
378.493	514.6
378.895	518.6
379.297	533.2
379.699	511.8
380.102	523.2
380.504	517
380.906	511.8
381.308	549.4
381.71	523
382.113	530.4
382.515	526.6
382.918	523.4
383.299	522.8
383.701	528.4
384.104	526.6
384.507	521.4
384.909	526.4
385.312	518.8
385.715	515.4
386.118	520.4
386.521	515.6
386.924	530
387.327	524.4
387.709	516.8
388.112	508.8
388.515	520.2
388.918	519
389.322	523
389.725	523.6
390.129	545.6
390.532	529
390.936	530.4
391.339	518
391.743	521.4
392.125	523.8
392.529	534.8
392.933	537.8
393.337	521.8
393.74	529.2
394.144	523.8
394.548	517.6
394.953	524.6
395.357	527.6
395.761	519.8
396.144	532.2
396.548	521.2
396.952	521.4
397.357	518.4
397.761	516.4
398.166	521.2
398.57	523.8
398.975	518.8
399.379	530.2
399.763	554.2
400.168	520.6
400.572	510
400.977	520.8
401.382	531.4
401.787	536.2
402.192	534.2
402.597	538.8
403.002	514.4
403.386	535.8
403.791	540.6
404.197	528.2
404.602	515.4
405.007	525.4
405.413	519.4
405.818	530.4
406.224	519
406.608	522
407.014	512.6
407.42	530
407.825	522.8
408.231	536.4
408.637	525.2
409.043	534.4
409.449	523
409.834	519.8
410.24	524.6
410.646	532.4
411.052	534.6
411.458	532
411.865	528
412.271	527
412.677	516.8
413.062	518.2
413.469	513.2
413.875	533.4
414.282	530.8
414.689	528.6
415.095	534.6
415.502	518
415.888	522.4
416.294	518.2
416.701	552.6
417.108	513.8
417.515	531.6
417.923	525.6
418.33	541.6
418.715	536.6
419.123	522
419.53	517.2
419.937	529.2
420.345	533.4
420.752	527.6
421.16	528.8
421.546	525.8
421.953	533
422.361	522.6
422.769	527.2
423.177	519.6
423.585	549.8
423.992	546.4
424.379	534.4
424.787	536.2
425.195	547
425.603	527.4
426.011	533.2
426.419	539.2
426.806	537.4
427.214	545.6
427.623	536.2
428.031	552.2
428.44	548.4
428.848	561.6
429.235	575
429.644	571.6
430.053	571.8
430.461	596.2
430.87	616.8
431.279	618.4
431.666	619.4
432.075	642.8
432.484	670.6
432.893	679.4
433.302	708.8
433.711	752.2
434.099	739.2
434.508	758.2
434.918	782
435.327	820
435.737	838.4
436.125	875.4
436.534	894.6
436.944	917.2
437.353	940
437.763	979
438.173	969.8
438.561	1036.8
438.971	1034.2
439.381	1060.8
439.791	1090.4
440.201	1104.2
440.589	1130
440.999	1156
441.409	1178.8
441.819	1196.4
442.23	1208.8
442.619	1228.8
443.029	1257.4
443.439	1256.2
443.85	1268.2
444.26	1297.4
444.649	1286.2
445.06	1316.8
445.471	1323.6
445.881	1327.6
446.292	1353.2
446.682	1351.8
447.092	1350.8
447.503	1414.6
447.914	1383.4
448.325	1400.4
448.715	1388.4
449.126	1376.2
449.537	1389.4
449.948	1397.6
450.338	1418
450.75	1426.2
451.161	1437.6
451.572	1430.4
451.984	1438.2
452.374	1433.2
452.786	1439
453.197	1443.8
453.609	1452.4
453.999	1447
454.411	1454.8
454.823	1469.8
455.235	1450.2
455.647	1463.6
456.037	1467.4
456.449	1480.4
456.862	1474
457.274	1474.2
457.665	1478.6
458.077	1482
458.489	1499
458.902	1492.4
459.293	1482.8
459.705	1479.6
460.118	1475.2
460.53	1471.6
460.921	1479.6
461.334	1501.2
461.747	1497.4
462.16	1497.6
462.551	1515
462.964	1502.6
463.377	1471.4
463.79	1485.8
464.182	1491.6
464.595	1469
465.008	1467
465.421	1481.4
465.813	1474
466.226	1490
466.64	1465
467.053	1515.8
467.445	1495.8
467.859	1509.4
468.272	1491.2
468.686	1501.2
469.078	1492.2
469.492	1505.8
469.906	1473.2
470.298	1491.6
470.712	1483.2
471.126	1498.4
471.54	1467.4
471.933	1468.4
472.347	1474
472.761	1446
473.175	1446.6
473.568	1462.4
473.982	1450.8
474.397	1436.2
474.79	1459.8
475.204	1437.6
475.619	1438.2
476.033	1417.6
476.426	1420.2
476.841	1406
477.256	1422
477.649	1396.8
478.064	1403.2
478.479	1383.4
478.872	1384
479.287	1370.4
479.702	1375.6
480.118	1395.8
480.511	1364
480.927	1378
481.342	1378.6
481.736	1368.6
482.151	1358.6
482.566	1375.8
482.96	1368.8
483.376	1356.4
483.792	1354.8
484.186	1342.4
484.602	1338.8
485.017	1329.6
485.412	1346.8
485.827	1328.4
486.243	1325.4
486.638	1316.6
487.054	1307.6
487.47	1321
487.865	1292.6
488.281	1283.4
488.697	1275
489.092	1259.2
489.508	1255.8
489.925	1262.8
490.32	1249.2
490.736	1251.6
491.153	1247.6
491.548	1244.8
491.964	1242.6
492.381	1221.2
492.776	1227
493.193	1214.8
493.61	1225
494.006	1195.6
494.422	1220
494.84	1192
495.235	1184.6
495.652	1194
496.069	1169.6
496.465	1173
496.883	1170.4
497.3	1177.8
497.696	1150
498.113	1155.8
498.509	1134.4
498.927	1134
499.344	1133.2
499.741	1112.4
500.158	1128.8
500.576	1126.2
500.973	1115
501.39	1086.2
501.787	1082.2
502.205	1087.2
502.623	1086
503.02	1079.6
503.438	1062.8
503.856	1058.6
504.253	1069.4
504.671	1057.6
505.068	1051.6
505.486	1042.8
505.905	1055.8
506.302	1035.6
506.72	1034
507.118	1010
507.536	1012.4
507.955	1016.8
508.352	1014.8
508.771	997.6
509.169	1003
509.587	973.4
510.006	982.4
510.404	973.2
510.823	975.8
511.221	974.2
511.64	960.2
512.038	974.8
512.457	963.8
512.877	943.6
513.275	936
513.694	949
514.092	930.4
514.512	933.6
514.91	949
515.33	928
515.749	920.8
516.148	922.6
516.568	914.6
516.966	912.4
517.386	903.2
517.785	895.2
518.205	886.4
518.603	871.2
519.024	880
519.444	875.4
519.843	886
520.263	895.6
520.662	883
521.082	876.4
521.481	871
521.902	871
522.301	853.4
522.722	853.2
523.121	845.4
523.542	837
523.963	831.2
524.362	836
524.783	846
525.183	825
525.604	835.2
526.003	820.4
526.425	804.6
526.824	823.8
527.246	819.6
527.646	817.4
528.067	800.6
528.467	794.6
528.888	797.2
529.289	791.8
529.71	797.2
530.11	786.2
530.532	776.2
530.932	764.8
531.354	767.6
531.755	798.4
532.176	784.6
532.577	772.6
532.999	763.8
533.4	753.8
533.822	762.6
534.223	758.2
534.645	750.2
535.046	737
535.468	750.4
535.869	753.8
536.292	735.4
536.693	765.6
537.115	746.4
537.516	740.6
537.939	734.8
538.34	751
538.742	743.4
539.165	735.4
539.566	734.2
539.989	726
540.391	710.2
540.814	717.4
541.216	729
541.639	714.2
542.041	728.4
542.464	703.8
542.866	705.6
543.268	705.2
543.691	715.6
544.093	705.4
544.517	715.4
544.919	701.4
545.343	719.8
545.745	689
546.147	693.6
546.571	692.6
546.974	684.4
547.398	687.2
547.8	696
548.224	678.8
548.627	675
549.03	681
549.454	672.8
549.857	665.2
550.281	667.4
550.684	662.4
551.087	681
551.512	673.6
551.915	667.6
552.34	661.2
552.743	655
553.146	666
553.571	655
553.975	669.4
554.399	647
554.803	686.8
555.207	649
555.632	641.2
556.036	647.2
556.461	631.4
556.865	642.6
557.268	641.4
557.694	633.4
558.098	652.6
558.502	644.6
558.927	630.4
559.332	635.2
559.736	625.4
560.162	642.2
560.566	622
560.992	617.6
561.396	628.8
561.801	622.4
562.227	622.8
562.631	627.8
563.036	609.6
563.462	625.2
563.867	614.6
564.272	610.6
564.698	622.6
565.103	605.6
565.508	629.2
565.935	612.8
566.34	614
566.745	624
567.172	606.8
567.577	627.8
567.982	606.4
568.409	601.2
568.815	595
569.22	601.4
569.626	588.4
570.053	580
570.459	593.4
570.865	591.8
571.292	597.2
571.698	600.4
572.104	586.8
572.531	577.4
572.937	589.2
573.343	587.8
573.75	584.6
574.177	580.6
574.583	594.8
574.99	577.4
575.396	583
575.824	582
576.231	584
576.637	576.6
577.065	601.2
577.472	571.8
577.879	576.2
578.286	589
578.714	568.2
579.121	573
579.528	585.2
579.935	583.8
580.364	568
580.771	554.2
581.178	569
581.585	578.2
582.014	579.8
582.421	571.8
582.829	569.2
583.236	579.6
583.644	561.6
584.073	567.2
584.481	559.6
584.889	557.8
585.296	570
585.726	570.6
586.134	561.4
586.542	556.6
586.95	573.4
587.358	552.2
587.787	565.4
588.196	548.6
588.604	558.2
589.012	551.4
589.421	548.6
589.851	553.2
590.259	553.8
590.668	556.2
591.076	582
591.485	548.8
591.894	556.2
592.324	564.4
592.733	567.2
593.142	542
593.551	546
593.96	555
594.369	538.8
594.8	546
595.209	553.8
595.618	533.4
596.028	542.2
596.437	539.2
596.847	551
597.256	546.4
597.687	545.6
598.097	543.8
598.507	532.6
598.917	546.2
599.327	541.8
599.736	541.2
600.146	542.8
600.556	534.4
600.988	548.8
601.398	536.6
601.808	544.4
602.219	529.4
602.629	539
603.039	541
603.45	557
603.86	544
604.271	549.6
604.703	543.2
605.114	528
605.525	535.8
605.935	536.4
606.346	549.4
606.757	541
607.168	529.6
607.579	526
607.99	541.8
608.402	531.2
608.813	531.2
609.224	536.2
609.636	521
610.047	532.2
610.48	537
610.892	542
611.303	534.6
611.715	534.8
612.127	531.6
612.539	529.6
612.95	540.6
613.362	530
613.774	531.4
614.186	533.6
614.599	522.4
615.011	544.6
615.423	533.6
615.835	537.8
616.248	533.2
616.66	538.6
617.073	533.6
617.485	533
617.898	543.2
618.311	537.8
618.723	540
619.136	552.2
619.549	546.8
619.962	554
620.375	526
620.788	538.2
621.201	540.8
621.614	538.2
622.028	539
622.441	535.6
622.854	536.8
623.268	525.4
623.681	535.6
624.095	539.6
624.509	535.8
624.922	539.8
625.336	524.2
625.728	534.2
626.142	549.4
626.556	548.4
626.97	532
627.384	530.4
627.799	530.6
628.213	545.6
628.627	522.8
629.041	533.8
629.456	529.8
629.87	537.2
630.285	543
630.699	533.6
631.093	527.4
631.507	537.8
631.922	528.2
632.337	547
632.752	517.4
633.167	529.6
633.582	527.2
633.997	530.6
634.412	530.4
634.806	527
635.221	524.2
635.637	533.4
636.052	517.4
636.468	531.4
636.883	537
637.299	524.6
637.715	519.8
638.109	532.8
638.525	520.6
638.941	531.6
639.357	532.6
639.773	536
640.189	522.2
640.584	525.2
641	528.4
641.416	514.4
641.832	524.4
642.249	525.4
642.665	530.8
643.06	516.2
643.477	532
643.894	518.2
644.31	519.6
644.727	519.8
645.123	512.2
645.54	515.2
645.957	524.2
646.374	528.6
646.77	523.8
647.187	545
647.604	525.2
648.021	509
648.439	519.2
648.835	521.4
649.252	530.4
649.67	515.4
650.088	522
650.484	514.2
650.902	524.8
651.32	523
651.738	521.8
652.134	519
652.552	525.8
652.971	528.8
653.389	515.6
653.786	530.2
654.204	523.4
654.622	505.4
655.019	517.2
655.438	518.4
655.857	520.4
656.275	520.4
656.673	509
657.091	519.8
657.51	510.8
657.908	521.8
658.327	520.4
658.746	513.4
659.144	515.4
659.563	531
659.982	510.4
660.38	505.8
660.8	509
661.219	523
661.617	512
662.037	519
662.457	519.4
662.855	498.2
663.275	547.4
663.695	517.6
664.094	508.6
664.514	516
664.934	499.6
665.333	509.6
665.753	499.4
666.152	505.4
666.572	503.4
666.993	511
667.392	509
667.812	508.8
668.212	498.6
668.632	519
669.053	510.6
669.453	511.6
669.874	507.2
670.273	512
670.694	503
671.116	517.8
671.515	519
671.937	506.2
672.337	508.8
672.758	498.2
673.158	504.8
673.58	492.2
673.98	517.2
674.402	514.2
674.824	501.4
675.224	502.6
675.646	502.4
676.047	502
676.469	509.4
676.869	511.4
677.292	515.4
677.693	498
678.115	510.8
678.516	507
678.939	505.8
679.34	503.6
679.762	513
680.164	509.2
680.586	509.8
680.988	514
681.411	530.2
681.812	506.2
682.236	500.4
682.637	504
683.061	496.4
683.462	513
683.864	500.6
684.288	504.2
684.69	500.2
685.114	512.4
685.516	501.6
685.94	499
686.342	510.6
686.766	499.2
687.168	500.2
687.571	518.2
687.995	500.6
688.398	495
688.822	497.8
689.225	516.4
689.628	520.4
690.052	503.6
690.456	507.6
690.88	507.4
691.284	498.4
691.687	505.6
692.112	497.4
692.515	490.8
692.919	503.4
693.344	512.4
693.747	508
694.173	495.2
694.577	516.6
694.98	502.2
695.406	499.4
695.81	504.2
696.214	503.2
696.64	508
697.044	495.2
697.448	512.2
697.874	510.4
698.279	494.2
698.684	497
699.11	491.8
699.514	494.8
699.919	494
700.324	490
700.75	493.6
701.156	497.4
701.561	506.6
701.987	504
702.393	511.8
702.798	512.4
703.203	503.4
703.63	492.4
704.036	499.8
704.442	501
704.847	493.4
705.274	497.6
705.68	504
706.086	507
706.492	503.4
706.92	498.2
707.326	507
707.732	504
708.139	492.8
708.545	489.8
708.973	503.2
709.38	497
709.786	496.6
710.193	510.6
710.6	503.4
711.028	499.6
711.435	496.8
711.842	502
712.249	502.2
712.656	500.8
713.064	512
713.492	490.2
713.9	494.6
714.307	502.6
714.715	498.6
715.123	502.4
715.53	507.2
715.938	513
716.367	504.8
716.775	496.4
717.184	496.4
717.592	499.4
718	511.4
718.408	536.6
718.816	534.2
719.225	500
719.633	503.6
720.042	496.6
720.472	496.8
720.881	514.4
721.29	501
721.699	492.8
722.108	500.8
722.517	501.6
722.926	500.2
723.335	509
723.744	502
724.154	497
724.563	500.6
724.973	503.4
725.382	497.2
725.792	494.6
726.202	494.8
726.612	500.8
727.022	494
727.432	487.6
779.813	501.8
780.223	532.4
780.634	491.8
781.044	496.8
781.454	500
781.865	511
782.276	497.4
782.686	509.2
783.097	492.2
783.508	492.4
783.919	500
784.33	511.2
784.741	511.2
785.152	495.4
785.563	490.8
785.974	490.6
786.386	503.8
786.776	497.6
787.188	495.8
787.599	489.2
788.011	502.4
788.423	500.6
788.835	494.2
789.247	488.4
789.659	495.4
790.071	491.4
790.483	526.8
790.874	501.8
791.286	502.6
791.699	490.4
792.111	499.8
792.524	503.4
792.937	492
793.349	484.4
793.741	493.4
794.154	491.6
794.567	510.4
794.98	495.4
795.393	487.6
795.785	513.4
796.198	491.8
796.612	505.8
797.026	494.8
797.439	488.2
797.831	497.6
798.245	492
798.659	490
799.073	494.6
799.487	494.6
799.88	496.6
800.294	501.4
800.708	506.2
801.123	503
801.516	507.2
801.93	491
802.345	483
802.76	500.2
803.153	514.2
803.568	514.2
803.983	505.4
804.377	495.6
804.792	486.4
805.207	485
805.601	498
806.016	522
806.432	492.6
806.826	527.6
807.242	506
807.658	504.4
808.052	494.8
808.468	493.8
808.884	492.8
809.279	485.8
809.695	505.2
810.111	515.6
810.506	499.8
810.922	513.2
811.339	497
811.734	505.8
812.151	496.6
812.546	487.6
812.963	494.2
813.38	499.4
813.776	495
814.193	510
814.589	484.6
815.006	492.6
815.402	483.8
815.82	493.6
816.237	495.2
816.633	499.4
817.051	490.6
817.448	494
817.866	482.4
818.262	508.8
818.68	493.8
819.077	491.8
819.495	494
819.892	524.2
820.311	494.2
820.708	495.6
821.127	490.4
821.524	503.8
821.943	505.4
822.34	517.6
822.759	492.4
823.157	498.6
823.576	497.6
823.974	503.2
824.393	580.4
824.791	497
825.189	491.6
825.609	496.2
826.007	490.4
826.427	480.4
826.826	494.6
827.246	504
827.644	488.6
828.043	499.8
828.463	490.4
828.862	506.2
829.261	502.8
829.682	489.8
830.081	503.2
830.502	496.6
830.901	493.2
831.301	492.2
831.722	486.8
832.121	488.2
832.521	484.8
832.943	489.8
833.342	486
833.742	495
834.164	487.6
834.564	489.2
834.965	497.6
835.386	493.4
835.787	492
836.188	494
836.588	492
837.01	492.6
837.411	487.2
837.812	502.8
838.213	499.6
838.636	487.2
839.037	547.6
839.438	497
839.84	500.8
840.263	507.6
840.664	500.4
841.066	492.2
841.468	493.8
841.891	495.2
842.293	502
842.695	496.6
843.098	501.2
843.5	492.6
843.902	501.4
844.326	497
844.729	490.6
845.131	505
845.534	496.4
845.937	502.6
846.34	506.8
846.764	493.6
847.167	499.4
847.571	489.2
847.974	491.6
848.377	482.6
848.781	528.6
849.184	502.4
849.588	484
849.992	486.8
850.396	491.6
850.821	509.6
