#lambda/nm	C1
208.295	468.4
208.67	436.2
209.045	395.4
209.419	400
209.794	535.6
210.169	521
210.544	622.4
210.919	529.4
211.295	523
211.67	531.4
212.045	524.2
212.421	522.4
212.796	559.2
213.172	533.2
213.547	527
213.923	541.6
214.299	527.6
214.675	542
215.051	537
215.427	543.8
215.803	554
216.179	544.4
216.555	527
216.932	535.8
217.308	540
217.684	532
218.061	537.6
218.438	530.8
218.814	526.6
219.191	539.6
219.568	527.8
219.945	524.4
220.322	535.4
220.699	535.4
221.076	539.2
221.453	533
221.83	524.6
222.208	527.8
222.585	529.8
222.962	532.2
223.34	536.4
223.717	529.2
224.095	525.2
224.473	534.4
224.851	525.8
225.229	521.6
225.607	545.4
225.985	520
226.363	531.8
226.741	532.2
227.119	529.4
227.497	541.4
227.876	526.6
228.254	538.8
228.633	531.6
229.011	531.2
229.39	541.6
229.769	536.2
230.148	539
230.527	544
230.905	529.8
231.284	534.6
231.664	531.2
232.043	531.2
232.422	534.8
232.801	520.6
233.181	536
233.56	533.6
233.94	530
234.319	520.6
234.699	527.2
235.079	563.6
235.458	562.4
235.838	540.2
236.218	522.8
236.598	515.8
236.978	525.4
237.358	522.4
237.738	531.4
238.119	533.2
238.499	513
238.88	534.6
239.26	547.2
239.641	526.6
240.021	529.8
240.402	524.8
240.783	529.8
241.163	529.6
241.544	535.8
241.925	532
242.306	545.6
242.687	527.2
243.069	535.2
243.45	546
243.831	533.6
244.212	534.2
244.594	561.6
244.975	540.8
245.357	531.2
245.739	525
246.12	536
246.502	549.2
246.884	532
247.266	530.4
247.648	531.8
248.03	553.4
248.412	532.8
248.794	542
249.176	526.2
249.559	546.4
249.941	521.8
250.323	528.2
250.706	530
251.089	531.6
251.471	539.4
251.854	539.6
252.237	541.8
252.62	533.6
253.002	534.8
253.385	532.4
253.769	539
254.152	538.4
254.535	539.6
254.918	523.6
255.301	533.6
255.685	526
256.068	525
256.452	554.2
256.835	545.2
257.219	543.2
257.603	547
257.986	529.6
258.37	530.2
258.754	529
259.138	538.4
259.522	539.2
259.906	531.6
260.29	540.6
260.675	526.2
261.059	535.4
261.443	522.6
261.828	532.2
262.212	534.8
262.597	522.6
262.981	528.8
263.366	538.8
263.751	533.2
264.136	524.6
264.521	525.6
264.906	529.6
265.291	543.6
265.676	529
266.061	539.4
266.446	553.2
266.831	534.6
267.217	550.2
267.602	536.4
267.987	539.2
268.373	532.4
268.759	535.8
269.144	536
269.53	532.4
269.916	528
270.302	530.6
270.688	531.8
271.074	531.8
271.46	542.4
271.846	559.6
272.232	530.4
272.618	532.6
273.004	534.4
273.391	545.2
273.777	541.4
274.164	538.6
274.55	542.2
274.937	534.8
275.324	529.6
275.71	535.2
276.097	539.4
276.484	528.4
276.871	535.6
277.258	538.4
277.645	517.6
278.032	530
278.419	531.6
278.807	535.4
279.194	527
279.581	531.8
279.969	536.2
280.356	538.6
280.744	529.6
281.131	554.2
281.519	538.2
281.907	532.6
282.295	534.4
282.682	541.4
283.07	529.2
283.458	539.2
283.846	545
284.235	541.6
284.623	541.2
285.011	529.8
285.399	537.6
285.788	533.8
286.176	529.8
286.565	543.2
286.953	531.2
287.342	533.2
287.731	532
288.119	531
288.508	532.4
288.897	538.4
289.286	523.4
289.675	529.6
290.064	540
290.453	534.2
290.821	536.2
291.21	545.8
291.599	527.8
291.989	535.8
292.378	544.4
292.768	545.6
293.157	537
293.547	540.6
293.936	527.2
294.326	527.2
294.716	536.8
295.106	536.4
295.496	537.2
295.886	536.6
296.276	531
296.666	525.2
297.056	524.6
297.446	525
297.836	542.6
298.227	535
298.617	528.4
299.008	542
299.398	531.6
299.789	532.4
300.179	533.4
300.57	538.4
300.961	522.4
301.352	530.2
301.742	540.4
302.133	531
302.524	531.2
302.915	526
303.307	525
303.698	539
304.089	537.6
304.48	531.6
304.872	529
305.263	525.6
305.655	523
306.046	537.4
306.438	532.2
306.829	521.8
307.221	543.2
307.613	534.6
308.005	536.6
308.397	537.4
308.789	553.6
309.181	549.4
309.573	547.2
309.965	541.6
310.357	522
310.749	545.6
311.142	531.6
311.534	526.4
311.926	537.2
312.319	533.6
312.711	526.4
313.104	540.6
313.497	529.4
313.889	563
314.282	548.4
314.675	549.6
315.068	537.6
315.461	536.2
315.854	558.8
316.247	546.4
316.64	536.6
317.033	539.4
317.405	534.6
317.798	539.6
318.192	535.6
318.585	525
318.979	541.8
319.372	529.2
319.766	532.6
320.16	537
320.553	544.6
320.947	549.6
321.341	530.6
321.735	530.2
322.129	515.2
322.523	553.4
322.917	525
323.311	545.8
323.705	532
324.099	526.6
324.494	534.2
324.888	536.4
325.282	531.6
325.677	538.6
326.071	539.4
326.466	537.4
326.861	528.2
327.255	539.2
327.65	543.2
328.045	537
328.44	531.8
328.835	529.4
329.23	525.2
329.625	544.4
330.02	525.4
330.415	543
330.81	531.2
331.206	528.4
331.601	529
331.996	542
332.37	546
332.766	519
333.161	551.6
333.557	530.6
333.953	530.2
334.348	747.6
334.744	527.8
335.14	531
335.536	523
335.932	537.6
336.328	533.6
336.724	533.6
337.12	529.4
337.516	524.8
337.913	537.4
338.309	546.4
338.705	532
339.102	533
339.498	525.2
339.895	539.2
340.291	525.2
340.688	538.4
341.085	521.4
341.481	534.6
341.878	535.2
342.275	545.4
342.672	534.6
343.069	523.2
343.466	524.8
343.842	531.8
344.239	519.4
344.636	539
345.033	522
345.431	525.6
345.828	532.2
346.225	526.2
346.623	557.2
347.02	532.8
347.418	540.8
347.816	547.4
348.213	521.2
348.611	536.6
349.009	527.8
349.407	540.8
349.805	520.8
350.203	521.2
350.601	537
350.999	521.8
351.397	580.2
351.795	530
352.193	542.4
352.57	533.8
352.969	538
353.367	520.8
353.766	518.2
354.164	528.2
354.563	535.6
354.961	529.2
355.36	529.6
355.759	531.6
356.158	519.2
356.557	522.4
356.956	518.2
357.355	525.6
357.754	533.4
358.153	532
358.552	551.4
358.951	524.8
359.35	536.4
359.75	524
360.149	518.2
360.527	514.4
360.926	521.6
361.326	529
361.726	531.4
362.125	522
362.525	534
362.925	521.2
363.325	531.6
363.724	519.6
364.124	517.8
364.524	516.4
364.924	520.8
365.324	533.6
365.725	514.8
366.125	528.2
366.525	530.6
366.904	519.4
367.304	510.2
367.705	533.8
368.105	532.6
368.506	531.6
368.906	523.6
369.307	525
369.708	528.6
370.108	513
370.509	531.8
370.91	527.4
371.311	525.6
371.712	529
372.113	530.4
372.514	519
372.894	525.4
373.295	519.4
373.696	541
374.097	532.4
374.499	546.6
374.9	525.4
375.301	521.4
375.703	536.6
376.105	522
376.506	534.2
376.908	530.4
377.309	521.6
377.711	531.6
378.113	518
378.493	521
378.895	519.4
379.297	532.2
379.699	522.6
380.102	532
380.504	529.6
380.906	516.6
381.308	546.2
381.71	522.8
382.113	525
382.515	524
382.918	524.6
383.299	523.6
383.701	528.8
384.104	522.8
384.507	513.2
384.909	516.6
385.312	519.6
385.715	516.8
386.118	527.6
386.521	510.6
386.924	530.8
387.327	520.4
387.709	521
388.112	515.2
388.515	518.8
388.918	515.4
389.322	533.4
389.725	522.4
390.129	540.6
390.532	533.6
390.936	514
391.339	516
391.743	526.8
392.125	516.2
392.529	534.2
392.933	534.8
393.337	523.2
393.74	524
394.144	520.6
394.548	518.4
394.953	523.4
395.357	533.2
395.761	514.2
396.144	523.6
396.548	524.4
396.952	523.6
397.357	521.4
397.761	523
398.166	515.6
398.57	523.2
398.975	515.2
399.379	528.8
399.763	564.8
400.168	525.8
400.572	523.2
400.977	527
401.382	534.8
401.787	531.8
402.192	534.2
402.597	531
403.002	513.8
403.386	534.2
403.791	540.2
404.197	515.6
404.602	525.8
405.007	522.2
405.413	525.2
405.818	525.2
406.224	520.8
406.608	524.6
407.014	507.8
407.42	535.6
407.825	521
408.231	531.4
408.637	524.4
409.043	538.8
409.449	522.4
409.834	514.2
410.24	525.6
410.646	539.8
411.052	520.2
411.458	533.4
411.865	532.8
412.271	534.6
412.677	523.6
413.062	525.2
413.469	513.4
413.875	538.8
414.282	531.2
414.689	526.4
415.095	530.2
415.502	520.4
415.888	527.6
416.294	510.4
416.701	552.8
417.108	509.8
417.515	535
417.923	525.6
418.33	539.8
418.715	534.6
419.123	521.2
419.53	521.6
419.937	527.2
420.345	531.4
420.752	520.4
421.16	539.6
421.546	520.4
421.953	536.4
422.361	520.8
422.769	517.2
423.177	518.4
423.585	542.8
423.992	544
424.379	532
424.787	527.4
425.195	542.2
425.603	518.2
426.011	535
426.419	533
426.806	528.2
427.214	530.2
427.623	538.8
428.031	540
428.44	537.2
428.848	553.2
429.235	557.2
429.644	547.8
430.053	560.8
430.461	576.6
430.87	592
431.279	592.6
431.666	597.4
432.075	608
432.484	633.8
432.893	633.4
433.302	657.4
433.711	692.4
434.099	683
434.508	708.2
434.918	730
435.327	767.6
435.737	765.2
436.125	793.8
436.534	813.4
436.944	840.6
437.353	863.8
437.763	894
438.173	893
438.561	933.2
438.971	926.4
439.381	963
439.791	982.8
440.201	992
440.589	1022
440.999	1050.4
441.409	1066
441.819	1052.6
442.23	1085.8
442.619	1108.8
443.029	1103.8
443.439	1125.4
443.85	1129.6
444.26	1154.6
444.649	1163.2
445.06	1176.4
445.471	1194
445.881	1202.6
446.292	1222.6
446.682	1225
447.092	1208.2
447.503	1268
447.914	1240.4
448.325	1248.8
448.715	1250.2
449.126	1245.4
449.537	1261.6
449.948	1275.8
450.338	1278.6
450.75	1284.2
451.161	1277.8
451.572	1299.2
451.984	1301.8
452.374	1282.2
452.786	1302.2
453.197	1296.4
453.609	1321.6
453.999	1311.2
454.411	1301.6
454.823	1315.8
455.235	1313.2
455.647	1314.6
456.037	1346
456.449	1306
456.862	1310.8
457.274	1328.4
457.665	1318.4
458.077	1335.2
458.489	1353
458.902	1304.4
459.293	1327.2
459.705	1313.8
460.118	1298.4
460.53	1313.4
460.921	1342.4
461.334	1348.8
461.747	1316.6
462.16	1355
462.551	1341.2
462.964	1330
463.377	1321.8
463.79	1323.6
464.182	1339
464.595	1327.2
465.008	1341.6
465.421	1335.4
465.813	1337.6
466.226	1330.6
466.64	1325.2
467.053	1386.4
467.445	1350.8
467.859	1362
468.272	1332.6
468.686	1346.4
469.078	1330.4
469.492	1319.8
469.906	1329.6
470.298	1334.4
470.712	1319.4
471.126	1347.2
471.54	1321.4
471.933	1319.6
472.347	1315.2
472.761	1311
473.175	1308.8
473.568	1321.6
473.982	1307.6
474.397	1318.6
474.79	1311
475.204	1318.8
475.619	1277.4
476.033	1300.4
476.426	1292.8
476.841	1280
477.256	1300
477.649	1266
478.064	1260
478.479	1268.2
478.872	1265.2
479.287	1271.8
479.702	1264.4
480.118	1265.8
480.511	1255
480.927	1254.2
481.342	1245.2
481.736	1242.4
482.151	1223.6
482.566	1235
482.96	1211.8
483.376	1226.8
483.792	1239.4
484.186	1219
484.602	1208.4
485.017	1201.4
485.412	1216
485.827	1203.4
486.243	1195.6
486.638	1212.8
487.054	1203
487.47	1198.6
487.865	1181.4
488.281	1166.8
488.697	1169.6
489.092	1164.6
489.508	1160.6
489.925	1159.8
490.32	1135.8
490.736	1157.2
491.153	1138
491.548	1122.4
491.964	1142
492.381	1111
492.776	1120.4
493.193	1119
493.61	1119.8
494.006	1109.8
494.422	1108
494.84	1102
495.235	1108.2
495.652	1094.2
496.069	1080
496.465	1074.6
496.883	1079
497.3	1092.2
497.696	1077.6
498.113	1057
498.509	1053.2
498.927	1029
499.344	1033.4
499.741	1040.8
500.158	1044.2
500.576	1041.6
500.973	1025.6
501.39	1004.6
501.787	1011.4
502.205	1014
502.623	993.2
503.02	983
503.438	986.6
503.856	985.6
504.253	995
504.671	986.8
505.068	970.2
505.486	971.8
505.905	982.2
506.302	954.6
506.72	959.2
507.118	945
507.536	951.8
507.955	944.6
508.352	945.4
508.771	939.6
509.169	939.4
509.587	915.6
510.006	911
510.404	912.2
510.823	909.8
511.221	905.8
511.64	907.8
512.038	916.2
512.457	900.6
512.877	897
513.275	883.4
513.694	888.6
514.092	876.2
514.512	878.4
514.91	877
515.33	867
515.749	862.6
516.148	868.4
516.568	855.2
516.966	855.8
517.386	855.8
517.785	845.2
518.205	835
518.603	831.6
519.024	828.2
519.444	830.2
519.843	832.6
520.263	827
520.662	821
521.082	821.2
521.481	821.6
521.902	801.2
522.301	814.6
522.722	798
523.121	785
523.542	793.2
523.963	790.2
524.362	789.8
524.783	784.2
525.183	782.6
525.604	793.4
526.003	775
526.425	769.8
526.824	772.8
527.246	778
527.646	780.4
528.067	775
528.467	769
528.888	770.8
529.289	754
529.71	749.2
530.11	750.6
530.532	738
530.932	731.4
531.354	734.4
531.755	768.6
532.176	744.6
532.577	730.6
532.999	735.6
533.4	730.2
533.822	733.6
534.223	727.6
534.645	722
535.046	718.8
535.468	717.2
535.869	730.6
536.292	712
536.693	735.4
537.115	711
537.516	706.8
537.939	701.4
538.34	716.6
538.742	717.6
539.165	699.4
539.566	697.4
539.989	691
540.391	691.2
540.814	703.8
541.216	702.6
541.639	698.4
542.041	690.2
542.464	678.4
542.866	678.8
543.268	679.4
543.691	686.6
544.093	688.6
544.517	693.4
544.919	661.6
545.343	688.6
545.745	668.8
546.147	673.8
546.571	670
546.974	658.2
547.398	664.8
547.8	681.6
548.224	653.2
548.627	645.6
549.03	657.6
549.454	650.2
549.857	646.6
550.281	650
550.684	645.8
551.087	662
551.512	653.4
551.915	646.2
552.34	640.8
552.743	628.8
553.146	631.8
553.571	636
553.975	651.4
554.399	626.4
554.803	668.4
555.207	625.4
555.632	612
556.036	630.6
556.461	624.6
556.865	619.8
557.268	617.4
557.694	623.6
558.098	617.4
558.502	622
558.927	620.6
559.332	617.2
559.736	611.6
560.162	619
560.566	613.6
560.992	617.8
561.396	606.6
561.801	609.4
562.227	605.6
562.631	606.2
563.036	615.6
563.462	611.8
563.867	609
564.272	593.8
564.698	607.4
565.103	588.4
565.508	608.4
565.935	595
566.34	593.4
566.745	610.2
567.172	592.8
567.577	606.4
567.982	604
568.409	600.8
568.815	584.4
569.22	595.4
569.626	605.4
570.053	580.2
570.459	594.4
570.865	588
571.292	599.2
571.698	588.4
572.104	573.4
572.531	575.4
572.937	588.4
573.343	584.8
573.75	585.4
574.177	576.8
574.583	588
574.99	580
575.396	584
575.824	569.2
576.231	577.4
576.637	575.8
577.065	594.6
577.472	564.6
577.879	573.6
578.286	579.4
578.714	565
579.121	570.6
579.528	570
579.935	570
580.364	563.4
580.771	562.4
581.178	564
581.585	577.2
582.014	564.6
582.421	566.8
582.829	561.4
583.236	565.6
583.644	552.4
584.073	562.2
584.481	562.6
584.889	555
585.296	566.2
585.726	561.6
586.134	557.8
586.542	543.8
586.95	574.6
587.358	555.6
587.787	554
588.196	548.2
588.604	559
589.012	558.2
589.421	545
589.851	545.2
590.259	555.4
590.668	553.2
591.076	576
591.485	540
591.894	545.2
592.324	566.8
592.733	557.6
593.142	538.6
593.551	546.6
593.96	546.6
594.369	531
594.8	534.4
595.209	538.6
595.618	535.8
596.028	532
596.437	535.6
596.847	537.2
597.256	541.6
597.687	541
598.097	539
598.507	526.4
598.917	530.8
599.327	545.6
599.736	531.6
600.146	542
600.556	539
600.988	547.4
601.398	535.4
601.808	540.4
602.219	519.6
602.629	533.6
603.039	537.8
603.45	555
603.86	532.2
604.271	534.4
604.703	537.4
605.114	523.6
605.525	534.6
605.935	534.8
606.346	560.6
606.757	533
607.168	530.6
607.579	520
607.99	541
608.402	523.4
608.813	534
609.224	522.8
609.636	515.2
610.047	524
610.48	524.6
610.892	530.6
611.303	536.4
611.715	523.8
612.127	513.6
612.539	521
612.95	533.8
613.362	519.8
613.774	517.2
614.186	520.2
614.599	520.4
615.011	526.6
615.423	524.4
615.835	523.6
616.248	513.8
616.66	519
617.073	523.8
617.485	527.4
617.898	530.4
618.311	525.6
618.723	524.4
619.136	548.2
619.549	538.4
619.962	539
620.375	520.8
620.788	525.8
621.201	519.8
621.614	529
622.028	524.4
622.441	529.2
622.854	541.4
623.268	518.4
623.681	518.6
624.095	527.8
624.509	528.4
624.922	526.2
625.336	517
625.728	526.4
626.142	533.6
626.556	533.2
626.97	529.6
627.384	520.8
627.799	524
628.213	526.6
628.627	523
629.041	532.4
629.456	522.4
629.87	526.2
630.285	527.6
630.699	533.4
631.093	517.8
631.507	523
631.922	532.4
632.337	537
632.752	506.6
633.167	527.8
633.582	521.2
633.997	520.4
634.412	524.2
634.806	512.8
635.221	509.4
635.637	521.4
636.052	507.2
636.468	517.8
636.883	530.8
637.299	510.2
637.715	506.4
638.109	518.8
638.525	512.4
638.941	522.2
639.357	523.2
639.773	525.6
640.189	506.6
640.584	518.8
641	519.2
641.416	502.4
641.832	514
642.249	511.8
642.665	513
643.06	512.6
643.477	521.8
643.894	509.6
644.31	512.2
644.727	514
645.123	513
645.54	517.2
645.957	521.2
646.374	521.8
646.77	512.2
647.187	534.6
647.604	513
648.021	504.2
648.439	509.6
648.835	511
649.252	513.4
649.67	514
650.088	509.8
650.484	510.2
650.902	516
651.32	516
651.738	511.4
652.134	514.2
652.552	523.2
652.971	521.6
653.389	512.2
653.786	525.8
654.204	510.4
654.622	506
655.019	514.6
655.438	515.6
655.857	507.8
656.275	512.6
656.673	501.8
657.091	512.4
657.51	514.4
657.908	526.2
658.327	518
658.746	502.6
659.144	511.6
659.563	523.4
659.982	510.6
660.38	495.8
660.8	511.6
661.219	523
661.617	521.2
662.037	509.6
662.457	516.8
662.855	503.4
663.275	536.2
663.695	510.6
664.094	506.8
664.514	515.4
664.934	502.8
665.333	507.2
665.753	513
666.152	503.4
666.572	506.6
666.993	516
667.392	502.6
667.812	498.6
668.212	505
668.632	517.6
669.053	510.6
669.453	512.4
669.874	517.8
670.273	519.4
670.694	505.2
671.116	514.4
671.515	508.2
671.937	502.6
672.337	509.6
672.758	514.6
673.158	512.6
673.58	495.6
673.98	515.4
674.402	513.8
674.824	503.2
675.224	503.8
675.646	501
676.047	513.4
676.469	502
676.869	511.2
677.292	506.8
677.693	504.6
678.115	506
678.516	512.2
678.939	507.8
679.34	510.6
679.762	511
680.164	502
680.586	507.6
680.988	509
681.411	525.2
681.812	501.8
682.236	497.8
682.637	497.2
683.061	492
683.462	509
683.864	505.4
684.288	514.2
684.69	502.6
685.114	510
685.516	515.6
685.94	499.6
686.342	512.4
686.766	504.8
687.168	505
687.571	521.8
687.995	499.8
688.398	499.4
688.822	502.4
689.225	519.4
689.628	523.4
690.052	505.4
690.456	508.8
690.88	498.4
691.284	484.8
691.687	510.6
692.112	490.6
692.515	497
692.919	503.4
693.344	509.4
693.747	491
694.173	498.4
694.577	505.2
694.98	508
695.406	497.8
695.81	502.4
696.214	505.4
696.64	505.4
697.044	506.8
697.448	508
697.874	501.8
698.279	500.4
698.684	493.2
699.11	492.6
699.514	498.8
699.919	505
700.324	499.6
700.75	502.8
701.156	504.8
701.561	514.8
701.987	507.4
702.393	509
702.798	513
703.203	500
703.63	502.4
704.036	502
704.442	501.2
704.847	495.8
705.274	497.2
705.68	502.6
706.086	511
706.492	497.4
706.92	496.6
707.326	507.6
707.732	501.4
708.139	504
708.545	490.4
708.973	491.6
709.38	502
709.786	502.4
710.193	510.4
710.6	503.6
711.028	496.4
711.435	499.6
711.842	494.6
712.249	486
712.656	498.6
713.064	495.4
713.492	487.2
713.9	496.2
714.307	496
714.715	495
715.123	499.6
715.53	499.2
715.938	505.2
716.367	495.4
716.775	491.8
717.184	493
717.592	493.4
718	505.8
718.408	529.8
718.816	533.6
719.225	502.8
719.633	505.2
720.042	496.2
720.472	506.8
720.881	516.6
721.29	507.8
721.699	496
722.108	506.8
722.517	509.4
722.926	504.2
723.335	508.8
723.744	504.6
724.154	503.4
724.563	497.8
724.973	501
725.382	494.6
725.792	504.6
726.202	501.4
726.612	509.2
727.022	503.8
727.432	494.2
779.813	491.6
780.223	533.4
780.634	505.4
781.044	497.4
781.454	495.6
781.865	506.4
782.276	493.6
782.686	504.4
783.097	496.4
783.508	491
783.919	500.6
784.33	512
784.741	503.8
785.152	494
785.563	489.2
785.974	501.2
786.386	507.6
786.776	489.2
787.188	497.2
787.599	488.6
788.011	503.4
788.423	499.6
788.835	491.4
789.247	494.2
789.659	488.6
790.071	499.6
790.483	532.8
790.874	503.8
791.286	503.2
791.699	496.2
792.111	508.2
792.524	507.2
792.937	501.8
793.349	493.8
793.741	496
794.154	498.8
794.567	512.8
794.98	495.2
795.393	489.4
795.785	507.6
796.198	495.2
796.612	490.4
797.026	498.6
797.439	484.8
797.831	494.8
798.245	491.6
798.659	488
799.073	494
799.487	492.6
799.88	497.6
800.294	505
800.708	496
801.123	501
801.516	519
801.93	487.6
802.345	492.6
802.76	494.6
803.153	502.2
803.568	502
803.983	501.6
804.377	500.2
804.792	489
805.207	485
805.601	498.4
806.016	526.2
806.432	489.2
806.826	518.6
807.242	511.8
807.658	505.2
808.052	497.8
808.468	489.6
808.884	494
809.279	499.6
809.695	501.2
810.111	517.8
810.506	499.8
810.922	517.8
811.339	502.4
811.734	506.6
812.151	498.4
812.546	496.8
812.963	493.8
813.38	498.6
813.776	503.2
814.193	521.2
814.589	492.4
815.006	496
815.402	490.6
815.82	492.4
816.237	500.6
816.633	489.6
817.051	494
817.448	504
817.866	486
818.262	515.6
818.68	498.6
819.077	498
819.495	491.6
819.892	531
820.311	496.4
820.708	493.4
821.127	492.4
821.524	501.4
821.943	495.6
822.34	512.6
822.759	498.6
823.157	495.6
823.576	510
823.974	496.8
824.393	555.4
824.791	494.2
825.189	494
825.609	496.4
826.007	495
826.427	495.2
826.826	498.6
827.246	495.2
827.644	484.8
828.043	506.8
828.463	496
828.862	510.6
829.261	507.6
829.682	484.2
830.081	498.4
830.502	494.4
830.901	501.4
831.301	492.6
831.722	496.8
832.121	499
832.521	500.2
832.943	502.4
833.342	493.4
833.742	498.6
834.164	494.6
834.564	495
834.965	504.8
835.386	497
835.787	495.8
836.188	490.2
836.588	493
837.01	492.4
837.411	501.6
837.812	507.4
838.213	500.2
838.636	484.8
839.037	552.8
839.438	502
839.84	498.4
840.263	493
840.664	499.2
841.066	491.2
841.468	496
841.891	487.6
842.293	502.6
842.695	494.4
843.098	507.6
843.5	486.2
843.902	496.8
844.326	501.4
844.729	489.2
845.131	508.6
845.534	501.8
845.937	499.8
846.34	504.8
846.764	494.6
847.167	500.8
847.571	488.2
847.974	495.4
848.377	491
848.781	532.6
849.184	501
849.588	495
849.992	499.6
850.396	501
850.821	512.6
851.225	501.6
851.63	490.2
