#lambda/nm	C1
208.295	468.4
208.67	434.6
209.045	395
209.419	395.8
209.794	536.2
210.169	523.2
210.544	610.8
210.919	535.4
211.295	525.6
211.67	536.2
212.045	530
212.421	535.2
212.796	559.2
213.172	526
213.547	523.6
213.923	520.8
214.299	533.8
214.675	530.4
215.051	535.4
215.427	541
215.803	546
216.179	538.2
216.555	519.6
216.932	538.6
217.308	536
217.684	531.4
218.061	542.6
218.438	533.2
218.814	530.2
219.191	549.8
219.568	534
219.945	530.8
220.322	538.6
220.699	530.6
221.076	540
221.453	536.2
221.83	530.4
222.208	526.6
222.585	534.4
222.962	533.4
223.34	537.2
223.717	533.2
224.095	530.8
224.473	535.2
224.851	523
225.229	527
225.607	546.2
225.985	532.8
226.363	528.8
226.741	532.8
227.119	529.6
227.497	550.2
227.876	522.6
228.254	545.4
228.633	538.2
229.011	536
229.39	537.6
229.769	541.8
230.148	541.6
230.527	550
230.905	532.6
231.284	535.6
231.664	536
232.043	533.6
232.422	539.4
232.801	529.2
233.181	536.4
233.56	535
233.94	531.6
234.319	523
234.699	529.6
235.079	562.8
235.458	574
235.838	547.2
236.218	532.8
236.598	523.2
236.978	533.4
237.358	529.4
237.738	527.4
238.119	537.6
238.499	523.6
238.88	531.8
239.26	545
239.641	527.4
240.021	532.4
240.402	536
240.783	532.2
241.163	531.8
241.544	537.6
241.925	534
242.306	542
242.687	527
243.069	531.2
243.45	539
243.831	528.2
244.212	532.6
244.594	556
244.975	535.2
245.357	536
245.739	532.4
246.12	541.2
246.502	536
246.884	531.8
247.266	527.2
247.648	537.4
248.03	548.8
248.412	540.2
248.794	534.2
249.176	534
249.559	541.2
249.941	525
250.323	520
250.706	527.2
251.089	535.4
251.471	538.8
251.854	525.4
252.237	534.4
252.62	543.4
253.002	526.8
253.385	530
253.769	543.8
254.152	531.2
254.535	526.6
254.918	523
255.301	531.4
255.685	526.8
256.068	521.2
256.452	543.4
256.835	528.6
257.219	534.6
257.603	536.8
257.986	520.8
258.37	532.6
258.754	522.4
259.138	530.2
259.522	533.4
259.906	524.2
260.29	526.2
260.675	527
261.059	534.4
261.443	517.6
261.828	537
262.212	530.2
262.597	530.2
262.981	524.6
263.366	540.6
263.751	527
264.136	523
264.521	529.2
264.906	524.2
265.291	541
265.676	523.8
266.061	532.8
266.446	538.2
266.831	532.8
267.217	541.2
267.602	531.2
267.987	536.4
268.373	524.6
268.759	544.2
269.144	530.8
269.53	534
269.916	535
270.302	527
270.688	536.2
271.074	531.4
271.46	535.4
271.846	556.6
272.232	535.4
272.618	524.2
273.004	528
273.391	541.8
273.777	540.6
274.164	538
274.55	540.6
274.937	540.4
275.324	526.4
275.71	541.6
276.097	541
276.484	534.4
276.871	539.2
277.258	543.4
277.645	521
278.032	531.2
278.419	521.6
278.807	528.6
279.194	525.4
279.581	522.6
279.969	531.8
280.356	535.6
280.744	531.4
281.131	553
281.519	545.6
281.907	529.6
282.295	533.8
282.682	545
283.07	534.4
283.458	537.8
283.846	541.2
284.235	529.4
284.623	537.6
285.011	526.6
285.399	538.2
285.788	532.2
286.176	522.4
286.565	541.6
286.953	531.4
287.342	532.2
287.731	523.6
288.119	524.8
288.508	530.8
288.897	532.2
289.286	527.6
289.675	531.2
290.064	541.4
290.453	525.8
290.821	533.6
291.21	545.6
291.599	528
291.989	523.6
292.378	535.2
292.768	545
293.157	534.8
293.547	537.4
293.936	528
294.326	526.2
294.716	532.6
295.106	528.8
295.496	537.2
295.886	548.8
296.276	539
296.666	531.2
297.056	528.8
297.446	526.6
297.836	548.4
298.227	530.2
298.617	531.2
299.008	541.6
299.398	519.8
299.789	522.6
300.179	535.4
300.57	549.6
300.961	524.2
301.352	529.8
301.742	547
302.133	530.4
302.524	529.4
302.915	531.8
303.307	530
303.698	538
304.089	536.2
304.48	533
304.872	536.8
305.263	535.8
305.655	525.4
306.046	534.6
306.438	539.6
306.829	526.8
307.221	539.2
307.613	540.4
308.005	537
308.397	541
308.789	549.6
309.181	551.8
309.573	542.6
309.965	545.8
310.357	536.6
310.749	542.4
311.142	521.2
311.534	527.6
311.926	538.4
312.319	536.2
312.711	526
313.104	544.6
313.497	530.6
313.889	566.4
314.282	549.4
314.675	548.6
315.068	541.6
315.461	542.4
315.854	564.6
316.247	539.4
316.64	531.8
317.033	537.2
317.405	535.6
317.798	537.6
318.192	535
318.585	527.6
318.979	542.2
319.372	519
319.766	525.8
320.16	538
320.553	549
320.947	543
321.341	528.8
321.735	531.4
322.129	522.4
322.523	551.4
322.917	528.8
323.311	537
323.705	525.8
324.099	541
324.494	542.4
324.888	540
325.282	527.4
325.677	539.4
326.071	540.4
326.466	538.8
326.861	538.4
327.255	542.2
327.65	545.4
328.045	543
328.44	533.4
328.835	532
329.23	529.2
329.625	546.8
330.02	528.4
330.415	544.4
330.81	536.2
331.206	535.8
331.601	526.2
331.996	540
332.37	551.8
332.766	525.2
333.161	557.4
333.557	529.2
333.953	526.4
334.348	859.4
334.744	536.2
335.14	524.8
335.536	527.6
335.932	536.8
336.328	538.2
336.724	534
337.12	526.6
337.516	530.2
337.913	527.8
338.309	544.4
338.705	529.4
339.102	540.2
339.498	532
339.895	534.2
340.291	530
340.688	541.4
341.085	527
341.481	529.8
341.878	530.8
342.275	546
342.672	530.6
343.069	531.4
343.466	519.4
343.842	541.4
344.239	529.4
344.636	528.8
345.033	524.4
345.431	523.2
345.828	530.8
346.225	525.2
346.623	559.6
347.02	530.8
347.418	532.8
347.816	539.2
348.213	528
348.611	538.8
349.009	528.6
349.407	545.2
349.805	523.8
350.203	526
350.601	539.2
350.999	525.6
351.397	576.6
351.795	530.4
352.193	535
352.57	530.2
352.969	533.8
353.367	514.8
353.766	511.2
354.164	513.8
354.563	531.2
354.961	525.6
355.36	514.2
355.759	518
356.158	506.4
356.557	514.4
356.956	510.8
357.355	513.4
357.754	519.2
358.153	525.2
358.552	537.4
358.951	516.8
359.35	528.4
359.75	513.4
360.149	511.4
360.527	512.8
360.926	518.2
361.326	528.2
361.726	524.4
362.125	519.4
362.525	537
362.925	532
363.325	522.8
363.724	530.8
364.124	522
364.524	519.6
364.924	524.8
365.324	532.2
365.725	517.8
366.125	530.6
366.525	522.6
366.904	519
367.304	506.2
367.705	542.4
368.105	540.2
368.506	525.6
368.906	528
369.307	528
369.708	531.4
370.108	520.2
370.509	534.2
370.91	522
371.311	525.4
371.712	520.6
372.113	521.6
372.514	525
372.894	523.8
373.295	520.2
373.696	530.6
374.097	534.6
374.499	545.6
374.9	520.8
375.301	518.4
375.703	530.6
376.105	519.6
376.506	523.8
376.908	527.2
377.309	526.8
377.711	530.4
378.113	519.8
378.493	525.8
378.895	521
379.297	535.4
379.699	510.6
380.102	535.6
380.504	525.4
380.906	522.2
381.308	554.6
381.71	519.6
382.113	542
382.515	523.4
382.918	532.6
383.299	525.2
383.701	535.2
384.104	530.6
384.507	508.6
384.909	519.6
385.312	519
385.715	520.2
386.118	521.2
386.521	519.4
386.924	522.6
387.327	522.2
387.709	517.4
388.112	512.4
388.515	521.6
388.918	525
389.322	526.4
389.725	521
390.129	547
390.532	526.8
390.936	518.6
391.339	514
391.743	531.2
392.125	523.6
392.529	527.4
392.933	541.8
393.337	527.2
393.74	516.4
394.144	522.8
394.548	521.6
394.953	528.4
395.357	528.8
395.761	518.8
396.144	532.6
396.548	524.8
396.952	524.4
397.357	528.8
397.761	515.2
398.166	520.6
398.57	525.2
398.975	518.6
399.379	534
399.763	570
400.168	529.4
400.572	527.4
400.977	525.4
401.382	538.4
401.787	532.4
402.192	532.8
402.597	531
403.002	516.6
403.386	536.8
403.791	534.6
404.197	518.6
404.602	530.4
405.007	525.8
405.413	521.8
405.818	525.8
406.224	523.2
406.608	525.4
407.014	513.4
407.42	535.2
407.825	522.8
408.231	530.6
408.637	533.8
409.043	534.4
409.449	526.6
409.834	519
410.24	525
410.646	538.6
411.052	539.6
411.458	530.2
411.865	526
412.271	533.4
412.677	524.4
413.062	535.6
413.469	515.6
413.875	544.2
414.282	535.6
414.689	524.6
415.095	530.8
415.502	522.4
415.888	527.2
416.294	516.6
416.701	558.6
417.108	520.6
417.515	535.2
417.923	519.6
418.33	540.8
418.715	527.6
419.123	517
419.53	517.6
419.937	526
420.345	538.4
420.752	519
421.16	536
421.546	525.4
421.953	529.4
422.361	523.2
422.769	521.2
423.177	510.4
423.585	546.2
423.992	537
424.379	530.4
424.787	533.8
425.195	544.2
425.603	524.8
426.011	537.8
426.419	535.6
426.806	534
427.214	534
427.623	544.6
428.031	554.8
428.44	550
428.848	553
429.235	571.2
429.644	566.2
430.053	577
430.461	589.6
430.87	603.2
431.279	619.8
431.666	618
432.075	635.6
432.484	656.4
432.893	665.2
433.302	694
433.711	739
434.099	738.4
434.508	752.6
434.918	765.6
435.327	800.4
435.737	826.4
436.125	842.8
436.534	873.4
436.944	905.6
437.353	925.2
437.763	965.4
438.173	959.8
438.561	999
438.971	1000.4
439.381	1027.8
439.791	1066.6
440.201	1079
440.589	1096.6
440.999	1132.2
441.409	1148.2
441.819	1147.8
442.23	1193.6
442.619	1208
443.029	1195.8
443.439	1234
443.85	1236.2
444.26	1256.6
444.649	1251.6
445.06	1265
445.471	1294.8
445.881	1305.2
446.292	1308.8
446.682	1343
447.092	1322.6
447.503	1365.8
447.914	1351.2
448.325	1338.8
448.715	1349.4
449.126	1346.8
449.537	1346.4
449.948	1350.6
450.338	1358.6
450.75	1381.6
451.161	1384.4
451.572	1395.2
451.984	1379
452.374	1374.6
452.786	1381.8
453.197	1400
453.609	1400.4
453.999	1386
454.411	1391.6
454.823	1407.8
455.235	1427.8
455.647	1415.8
456.037	1404.6
456.449	1404
456.862	1409.6
457.274	1416.4
457.665	1421.8
458.077	1436.4
458.489	1444.4
458.902	1429
459.293	1437.8
459.705	1441.8
460.118	1421
460.53	1444.4
460.921	1446
461.334	1458.8
461.747	1449.8
462.16	1449
462.551	1445.4
462.964	1450.2
463.377	1419.8
463.79	1428.8
464.182	1448.4
464.595	1436
465.008	1434.4
465.421	1432
465.813	1426.4
466.226	1441
466.64	1433.4
467.053	1470.4
467.445	1462
467.859	1472
468.272	1453
468.686	1461.8
469.078	1431.8
469.492	1427
469.906	1443.8
470.298	1454.8
470.712	1450.8
471.126	1463.4
471.54	1433.4
471.933	1421.8
472.347	1433.2
472.761	1425.4
473.175	1418.4
473.568	1430.8
473.982	1407
474.397	1406.8
474.79	1415.8
475.204	1415.2
475.619	1407
476.033	1390.4
476.426	1396.6
476.841	1389.2
477.256	1401.6
477.649	1361.6
478.064	1355.8
478.479	1339
478.872	1348.6
479.287	1352.6
479.702	1341.2
480.118	1343.2
480.511	1342
480.927	1335
481.342	1333.8
481.736	1325.4
482.151	1321.2
482.566	1318.4
482.96	1320
483.376	1318.4
483.792	1320.2
484.186	1317.6
484.602	1298
485.017	1308.2
485.412	1290.8
485.827	1288
486.243	1279.2
486.638	1296.2
487.054	1265
487.47	1272
487.865	1252.4
488.281	1250.4
488.697	1230.2
489.092	1242.4
489.508	1229.2
489.925	1243.2
490.32	1200
490.736	1234
491.153	1226.4
491.548	1205.6
491.964	1229.2
492.381	1198
492.776	1202.4
493.193	1203.6
493.61	1189.6
494.006	1187.8
494.422	1193.6
494.84	1163
495.235	1173.4
495.652	1151.6
496.069	1157.4
496.465	1153
496.883	1146.4
497.3	1149
497.696	1128.2
498.113	1130.2
498.509	1104.6
498.927	1100.8
499.344	1105.4
499.741	1088.8
500.158	1111.2
500.576	1099.4
500.973	1093.2
501.39	1075.4
501.787	1063.4
502.205	1068.6
502.623	1062
503.02	1054.2
503.438	1053
503.856	1037.8
504.253	1039
504.671	1046
505.068	1024.2
505.486	1033.2
505.905	1025.8
506.302	1019.4
506.72	1024.6
507.118	994.6
507.536	998
507.955	993.4
508.352	993.2
508.771	990.6
509.169	981.4
509.587	964
510.006	959.6
510.404	962.8
510.823	961.4
511.221	956.4
511.64	946
512.038	963
512.457	936.4
512.877	947.6
513.275	924.6
513.694	936
514.092	925.2
514.512	914.2
514.91	921
515.33	915.4
515.749	914.6
516.148	887.2
516.568	888.4
516.966	898
517.386	898.8
517.785	871.4
518.205	873
518.603	871.4
519.024	868.6
519.444	873.6
519.843	872.8
520.263	857
520.662	865.2
521.082	848
521.481	850.4
521.902	851.6
522.301	851.6
522.722	842.2
523.121	838.6
523.542	833.4
523.963	818.6
524.362	823.8
524.783	828
525.183	820
525.604	806.6
526.003	804.6
526.425	802.2
526.824	812.2
527.246	805.8
527.646	808.8
528.067	800.4
528.467	795
528.888	784.8
529.289	783.6
529.71	782
530.11	775.6
530.532	777
530.932	761
531.354	760.6
531.755	787.8
532.176	771.2
532.577	751.6
532.999	755.8
533.4	750
533.822	757.2
534.223	752.6
534.645	743.6
535.046	747.6
535.468	757.2
535.869	755.4
536.292	734.6
536.693	764.2
537.115	735.2
537.516	717.4
537.939	733
538.34	734.2
538.742	724.8
539.165	731.6
539.566	723.2
539.989	716.6
540.391	714
540.814	715.4
541.216	721.6
541.639	707.4
542.041	721
542.464	710.6
542.866	698
543.268	682.2
543.691	703.6
544.093	700.6
544.517	711.6
544.919	676.8
545.343	706.4
545.745	682.8
546.147	678
546.571	673.6
546.974	663.4
547.398	675.8
547.8	682.4
548.224	654.6
548.627	655.4
549.03	671.4
549.454	660.2
549.857	648
550.281	647
550.684	660
551.087	665.6
551.512	659
551.915	655.4
552.34	652.2
552.743	649.6
553.146	649.8
553.571	651.2
553.975	653.8
554.399	633.6
554.803	681.6
555.207	637.2
555.632	630.8
556.036	644.2
556.461	638
556.865	637.6
557.268	631.8
557.694	631.2
558.098	634
558.502	642.4
558.927	628.8
559.332	628.4
559.736	623.2
560.162	622.4
560.566	620
560.992	626.6
561.396	616.4
561.801	614
562.227	624
562.631	622
563.036	617.4
563.462	624.2
563.867	615.4
564.272	589.4
564.698	614.6
565.103	605.2
565.508	624.4
565.935	601.8
566.34	607.8
566.745	606.8
567.172	598.6
567.577	606.2
567.982	606.4
568.409	601
568.815	590.8
569.22	593.6
569.626	602.4
570.053	586.6
570.459	599
570.865	592.4
571.292	597.2
571.698	593.8
572.104	574.2
572.531	584
572.937	591.2
573.343	585.6
573.75	570
574.177	577.6
574.583	590.8
574.99	577
575.396	594.8
575.824	583.2
576.231	581.4
576.637	582.2
577.065	598.8
577.472	575.8
577.879	580.2
578.286	583.8
578.714	567.8
579.121	570.6
579.528	582.8
579.935	582.4
580.364	576.2
580.771	554.6
581.178	562.2
581.585	573
582.014	575.6
582.421	565.6
582.829	568.6
583.236	572
583.644	558.4
584.073	564.2
584.481	562.2
584.889	558.2
585.296	569.2
585.726	563.8
586.134	561.4
586.542	549.6
586.95	576.6
587.358	547
587.787	566.2
588.196	547.2
588.604	556.6
589.012	558.2
589.421	551.6
589.851	554.4
590.259	552
590.668	546.6
591.076	583
591.485	543.2
591.894	560.2
592.324	558.2
592.733	557.6
593.142	538.8
593.551	539.4
593.96	549.4
594.369	537.6
594.8	537.6
595.209	544.2
595.618	537
596.028	545.4
596.437	536.4
596.847	542
597.256	547.4
597.687	537.4
598.097	536.8
598.507	532.8
598.917	535.8
599.327	543.2
599.736	537.8
600.146	552.4
600.556	545
600.988	544.6
601.398	534.6
601.808	537.6
602.219	532.4
602.629	531.8
603.039	535.6
603.45	552
603.86	531.2
604.271	541.2
604.703	538.6
605.114	534.6
605.525	526.2
605.935	540.2
606.346	553
606.757	542.8
607.168	531.4
607.579	524.2
607.99	539
608.402	531.8
608.813	535.2
609.224	533.6
609.636	521.6
610.047	528.2
610.48	538.2
610.892	539.4
611.303	536.2
611.715	535.6
612.127	535.4
612.539	526.6
612.95	542.4
613.362	523.6
613.774	530.4
614.186	525.8
614.599	529
615.011	537.2
615.423	535.8
615.835	527.6
616.248	531
616.66	543.2
617.073	519.4
617.485	532.8
617.898	545
618.311	541.6
618.723	534.4
619.136	552.6
619.549	553.4
619.962	545.4
620.375	529.2
620.788	541.8
621.201	533.8
621.614	543.4
622.028	541.2
622.441	529
622.854	543
623.268	525.6
623.681	540.8
624.095	535.4
624.509	532
624.922	546.2
625.336	531.4
625.728	539.8
626.142	537.8
626.556	547.8
626.97	537.2
627.384	527
627.799	531.2
628.213	551.6
628.627	535.4
629.041	525.8
629.456	533.4
629.87	532.6
630.285	536.6
630.699	540.2
631.093	539.4
631.507	541.4
631.922	535.8
632.337	537.2
632.752	531
633.167	531.2
633.582	530
633.997	526.2
634.412	530
634.806	521.8
635.221	524.2
635.637	540.8
636.052	506.2
636.468	531.4
636.883	542.4
637.299	520
637.715	521.6
638.109	521.2
638.525	516.8
638.941	539.8
639.357	533.4
639.773	520.4
640.189	527.6
640.584	517.6
641	528.8
641.416	507.8
641.832	512
642.249	516.6
642.665	522.4
643.06	519
643.477	521
643.894	509.4
644.31	505
644.727	515
645.123	512.4
645.54	508.4
645.957	514
646.374	528.4
646.77	513
647.187	537.4
647.604	512.6
648.021	507.6
648.439	507.4
648.835	517.8
649.252	517
649.67	506.8
650.088	511.8
650.484	517.4
650.902	525.6
651.32	522.2
651.738	507.4
652.134	518.4
652.552	533.8
652.971	528.2
653.389	513.6
653.786	525.8
654.204	522.4
654.622	505.2
655.019	517
655.438	519
655.857	516.6
656.275	518.4
656.673	507.8
657.091	523
657.51	509.4
657.908	525.6
658.327	524.8
658.746	505.2
659.144	514
659.563	527
659.982	518.8
660.38	505.4
660.8	511.4
661.219	526
661.617	514.2
662.037	511.6
662.457	518.8
662.855	507.6
663.275	537.2
663.695	512.4
664.094	507.2
664.514	513.8
664.934	510.6
665.333	508
665.753	497
666.152	496.8
666.572	500.2
666.993	516.8
667.392	498.4
667.812	507.6
668.212	512.8
668.632	515.4
669.053	508.2
669.453	512.4
669.874	506
670.273	508.8
670.694	502.6
671.116	512.2
671.515	516
671.937	507.8
672.337	503
672.758	500.2
673.158	518.2
673.58	509
673.98	511.4
674.402	514
674.824	506.4
675.224	499.4
675.646	506.2
676.047	497
676.469	509.4
676.869	512.2
677.292	512.4
677.693	504.2
678.115	510
678.516	513.8
678.939	509.6
679.34	507.2
679.762	514.8
680.164	507.4
680.586	504.4
680.988	506.8
681.411	529.4
681.812	511.2
682.236	496.6
682.637	499.2
683.061	501.8
683.462	507.2
683.864	503
684.288	514.4
684.69	495.4
685.114	517.2
685.516	512
685.94	494.4
686.342	507.8
686.766	494
687.168	502.8
687.571	517.2
687.995	501
688.398	495
688.822	499.4
689.225	516
689.628	517.8
690.052	502.4
690.456	511
690.88	505.2
691.284	493.4
691.687	513.6
692.112	495.4
692.515	498
692.919	506.4
693.344	504.2
693.747	505
694.173	493.2
694.577	513.4
694.98	505
695.406	501.4
695.81	506.2
696.214	506
696.64	509.8
697.044	502.6
697.448	510.6
697.874	500.6
698.279	504.4
698.684	488.6
699.11	495.6
699.514	498
699.919	501.4
700.324	486.8
700.75	504
701.156	496.8
701.561	513.6
701.987	509.8
702.393	512.4
702.798	515.6
703.203	497.2
703.63	490.6
704.036	506.8
704.442	502.8
704.847	487.6
705.274	492.4
705.68	511
706.086	504.8
706.492	496.4
706.92	505.4
707.326	510.8
707.732	502.2
708.139	489.6
708.545	499.8
708.973	503.6
709.38	494
709.786	493.8
710.193	509.8
710.6	512.6
711.028	500.8
711.435	510.8
711.842	505.6
712.249	489.8
712.656	496.6
713.064	502
713.492	495.4
713.9	493
714.307	504
714.715	506
715.123	503.2
715.53	504.6
715.938	511
716.367	504
716.775	505.6
717.184	490.2
717.592	491.6
718	507
718.408	533.4
718.816	537.6
719.225	497.4
719.633	504.6
720.042	486
720.472	498
720.881	525
721.29	505.4
721.699	501.4
722.108	502.2
722.517	503.4
722.926	502.4
723.335	510
723.744	500.4
724.154	498.8
724.563	506.2
724.973	499.4
725.382	501.6
725.792	502
726.202	496
726.612	508.8
727.022	497.8
727.432	498
779.813	495.6
780.223	528.4
780.634	499
781.044	495.6
781.454	506.6
781.865	508
782.276	490
782.686	510.4
783.097	501.2
783.508	493.2
783.919	502.2
784.33	503
784.741	512.6
785.152	494.4
785.563	490
785.974	499.6
786.386	503
786.776	495.2
787.188	499.4
787.599	494.4
788.011	498.8
788.423	503.6
788.835	498.6
789.247	490.6
789.659	495.6
790.071	495.8
790.483	531.2
790.874	486.4
791.286	499.2
791.699	486.6
792.111	490.4
792.524	496.8
792.937	496
793.349	489.8
793.741	488.4
794.154	490.8
794.567	511.2
794.98	488.6
795.393	490.2
795.785	500.6
796.198	491
796.612	496.2
797.026	491.8
797.439	478.6
797.831	491.2
798.245	484.6
798.659	492.2
799.073	491.6
799.487	494.6
799.88	496
800.294	494.6
800.708	499.4
801.123	502.8
801.516	510.2
801.93	493
802.345	485.6
802.76	498
803.153	506.6
803.568	507
803.983	496.2
804.377	502.4
804.792	488.6
805.207	488.8
805.601	493
806.016	520.6
806.432	490.8
806.826	527
807.242	508.6
807.658	506
808.052	493.8
808.468	500.4
808.884	491
809.279	504.8
809.695	506.4
810.111	514.2
810.506	502
810.922	499.4
811.339	498
811.734	501.6
812.151	495.2
812.546	497.8
812.963	496.2
813.38	498
813.776	498
814.193	518.8
814.589	483.6
815.006	498.4
815.402	492.2
815.82	493.4
816.237	495
816.633	503.2
817.051	492.6
817.448	494
817.866	490.8
818.262	513.4
818.68	489.6
819.077	493.4
819.495	494.2
819.892	534.6
820.311	489.6
820.708	493.4
821.127	496
821.524	500.8
821.943	498.2
822.34	510.2
822.759	504.2
823.157	499.8
823.576	502
823.974	505.2
824.393	588.6
824.791	489
825.189	487
825.609	493.6
826.007	499
826.427	486.4
826.826	496
827.246	496
827.644	487.6
828.043	509.2
828.463	494.4
828.862	499.2
829.261	508.8
829.682	485.6
830.081	505.2
830.502	495.4
830.901	508.2
831.301	492.6
831.722	485.4
832.121	497.8
832.521	491.2
832.943	493
833.342	496.2
833.742	486.4
834.164	500.6
834.564	490.8
834.965	489.6
835.386	490
835.787	496.2
836.188	488.6
836.588	495.4
837.01	498.8
837.411	486
837.812	504.8
838.213	493.6
838.636	494.2
839.037	557.6
839.438	499.8
839.84	495.4
840.263	501.8
840.664	497.2
841.066	491.6
841.468	501.4
841.891	490.6
842.293	505
842.695	493.8
843.098	500
843.5	495
843.902	494.6
844.326	492
844.729	491.2
845.131	504.2
845.534	500.2
845.937	503
846.34	507.2
846.764	489
847.167	492
847.571	487
847.974	498.8
848.377	488.4
848.781	535
849.184	505.6
849.588	492.4
849.992	484.6
850.396	501.2
850.821	501.6
851.225	503.6
851.63	492.2
852.034	508.6
