#lambda/nm	C1
208.295	466.2
208.67	426.8
209.045	400
209.419	397.8
209.794	538.8
210.169	518.2
210.544	615.2
210.919	537.4
211.295	531.8
211.67	535.2
212.045	527.2
212.421	535
212.796	562.4
213.172	532.2
213.547	534.2
213.923	533.4
214.299	530
214.675	540.4
215.051	536.4
215.427	546.8
215.803	550.2
216.179	541.6
216.555	522.6
216.932	539.8
217.308	535.2
217.684	527
218.061	542.6
218.438	530.2
218.814	529
219.191	539.6
219.568	524.2
219.945	531.4
220.322	545.4
220.699	534
221.076	537
221.453	532
221.83	528.8
222.208	527.2
222.585	524.8
222.962	532.6
223.34	534.2
223.717	529.4
224.095	538
224.473	526.8
224.851	529
225.229	519.6
225.607	542.4
225.985	522.6
226.363	540.6
226.741	539
227.119	531.4
227.497	543.2
227.876	524.6
228.254	532.8
228.633	543.6
229.011	527
229.39	544.2
229.769	536
230.148	540.6
230.527	551
230.905	532
231.284	532.6
231.664	531.4
232.043	543.8
232.422	538.4
232.801	532.4
233.181	534.4
233.56	529.6
233.94	531.4
234.319	520.8
234.699	529.2
235.079	562
235.458	570.4
235.838	549
236.218	526.2
236.598	526.4
236.978	528.6
237.358	530.4
237.738	526.6
238.119	534.4
238.499	525.8
238.88	524.6
239.26	542
239.641	519.4
240.021	528
240.402	532.2
240.783	532.6
241.163	523.8
241.544	530.2
241.925	528.8
242.306	543
242.687	520.8
243.069	536.6
243.45	537.8
243.831	528.4
244.212	527
244.594	562.8
244.975	536.6
245.357	542.2
245.739	525.4
246.12	536.6
246.502	545
246.884	533
247.266	525.4
247.648	540
248.03	556
248.412	532.6
248.794	539
249.176	530.4
249.559	543
249.941	520.2
250.323	519.2
250.706	522.8
251.089	532.4
251.471	532.4
251.854	531.6
252.237	528.4
252.62	533.6
253.002	534.4
253.385	531.4
253.769	545.2
254.152	532.2
254.535	537.2
254.918	522.4
255.301	534.4
255.685	528.6
256.068	528.8
256.452	549.6
256.835	538.8
257.219	535.6
257.603	538.6
257.986	522.4
258.37	530.8
258.754	523.8
259.138	537.6
259.522	544.2
259.906	524.2
260.29	540.8
260.675	536.8
261.059	538.8
261.443	532.4
261.828	534
262.212	542.4
262.597	534
262.981	525
263.366	535.4
263.751	533
264.136	528.2
264.521	532.4
264.906	528.6
265.291	543.4
265.676	531
266.061	531.8
266.446	544.2
266.831	529
267.217	545.8
267.602	536.6
267.987	536
268.373	531.6
268.759	542
269.144	537.8
269.53	536
269.916	532.4
270.302	531.4
270.688	534
271.074	533.2
271.46	541.4
271.846	557.4
272.232	526.8
272.618	526.8
273.004	529.6
273.391	537
273.777	542.4
274.164	540.2
274.55	548
274.937	532.8
275.324	538.2
275.71	543.4
276.097	546
276.484	525.6
276.871	529
277.258	533.4
277.645	527.2
278.032	530
278.419	533.4
278.807	539.6
279.194	529.8
279.581	529.6
279.969	538
280.356	532.8
280.744	527.2
281.131	549.6
281.519	533.4
281.907	530.6
282.295	531.6
282.682	541
283.07	536.2
283.458	543.6
283.846	544
284.235	544.4
284.623	538.4
285.011	522.6
285.399	535
285.788	532.6
286.176	529
286.565	546
286.953	532.2
287.342	531.2
287.731	524.2
288.119	530.2
288.508	529.2
288.897	533
289.286	527
289.675	536
290.064	545.4
290.453	531.2
290.821	529.6
291.21	542.2
291.599	528.2
291.989	529.6
292.378	528.2
292.768	544.2
293.157	525
293.547	528.8
293.936	526.2
294.326	518.6
294.716	520.8
295.106	528.2
295.496	530
295.886	535.8
296.276	533.8
296.666	518
297.056	525
297.446	520.4
297.836	541.6
298.227	531.2
298.617	532
299.008	532
299.398	528.6
299.789	530.2
300.179	532.2
300.57	548.4
300.961	531.4
301.352	525.4
301.742	533.6
302.133	531.6
302.524	531.6
302.915	526.6
303.307	527.2
303.698	537.4
304.089	532
304.48	531.4
304.872	531
305.263	531.8
305.655	536.8
306.046	537.6
306.438	535
306.829	527.2
307.221	548
307.613	533.4
308.005	537.6
308.397	543
308.789	553.4
309.181	551.2
309.573	543.8
309.965	541.6
310.357	531
310.749	546.4
311.142	520.4
311.534	529.4
311.926	542.2
312.319	530.8
312.711	524.8
313.104	538
313.497	532.8
313.889	561.2
314.282	537.6
314.675	552.4
315.068	526.8
315.461	541
315.854	557.6
316.247	537
316.64	542.2
317.033	528.8
317.405	544.4
317.798	530.8
318.192	537.6
318.585	533.2
318.979	546
319.372	524
319.766	530.6
320.16	536.2
320.553	545.8
320.947	550
321.341	526.4
321.735	525
322.129	523.2
322.523	547.6
322.917	522
323.311	539.4
323.705	543.2
324.099	540.8
324.494	546.6
324.888	541.6
325.282	538.4
325.677	539.8
326.071	541.4
326.466	535.4
326.861	532.2
327.255	546.2
327.65	547.8
328.045	547.2
328.44	534
328.835	533.8
329.23	524
329.625	556.2
330.02	531.4
330.415	546.4
330.81	533.4
331.206	533.2
331.601	529
331.996	540.6
332.37	545.4
332.766	530
333.161	550
333.557	535.6
333.953	534.2
334.348	751
334.744	536
335.14	528.6
335.536	532.2
335.932	546.2
336.328	531
336.724	539.2
337.12	530.4
337.516	528
337.913	532.8
338.309	537.4
338.705	526.8
339.102	534.4
339.498	527
339.895	545.2
340.291	528
340.688	536.2
341.085	519
341.481	527
341.878	532
342.275	549.4
342.672	526.2
343.069	528.6
343.466	525.6
343.842	543.8
344.239	528.6
344.636	537
345.033	527.6
345.431	522.8
345.828	533
346.225	524.8
346.623	551.2
347.02	530.8
347.418	535.8
347.816	541.8
348.213	520.8
348.611	532.6
349.009	521.8
349.407	542.4
349.805	521.4
350.203	515.8
350.601	533.6
350.999	528.2
351.397	581.2
351.795	523.2
352.193	528.8
352.57	540
352.969	537.2
353.367	516.2
353.766	529.4
354.164	526.6
354.563	539
354.961	535.6
355.36	530.4
355.759	533.2
356.158	529.2
356.557	519.2
356.956	522.6
357.355	525.2
357.754	529.6
358.153	530.8
358.552	549.8
358.951	531.8
359.35	534.6
359.75	525.8
360.149	515.6
360.527	523
360.926	516.6
361.326	529.6
361.726	528.2
362.125	522.2
362.525	530.8
362.925	527.2
363.325	526.4
363.724	524.6
364.124	521.4
364.524	521
364.924	517.2
365.324	531.2
365.725	515.2
366.125	535.8
366.525	523.4
366.904	520
367.304	516.4
367.705	543.2
368.105	534.4
368.506	527
368.906	521.8
369.307	519.2
369.708	527.6
370.108	521.6
370.509	533.8
370.91	520.4
371.311	536.4
371.712	529.6
372.113	520.8
372.514	524.4
372.894	521.2
373.295	522.4
373.696	537.6
374.097	531.2
374.499	554.2
374.9	534.4
375.301	519.8
375.703	527.6
376.105	519.8
376.506	522
376.908	532
377.309	525.2
377.711	521.6
378.113	521.2
378.493	524
378.895	525.8
379.297	532.4
379.699	522
380.102	540.2
380.504	528.6
380.906	520.8
381.308	549.2
381.71	523.6
382.113	533
382.515	527.2
382.918	518
383.299	523.8
383.701	533
384.104	528.8
384.507	511.4
384.909	521.8
385.312	514.2
385.715	523.2
386.118	522
386.521	512.8
386.924	535.2
387.327	516
387.709	515
388.112	514.8
388.515	515.8
388.918	521.2
389.322	523
389.725	514
390.129	542.2
390.532	524.8
390.936	523.6
391.339	515
391.743	525.6
392.125	513.6
392.529	524.4
392.933	531
393.337	524.6
393.74	519
394.144	517.8
394.548	510.6
394.953	524.2
395.357	528
395.761	519.4
396.144	523.2
396.548	512.8
396.952	526.2
397.357	529.4
397.761	516.4
398.166	523
398.57	517.4
398.975	515.2
399.379	528.8
399.763	562.6
400.168	516.4
400.572	519
400.977	525.6
401.382	535.2
401.787	539.4
402.192	547
402.597	530.8
403.002	515.4
403.386	534.8
403.791	537.8
404.197	517.2
404.602	520.2
405.007	521.8
405.413	513.2
405.818	518.6
406.224	517.4
406.608	513.2
407.014	508.6
407.42	533.2
407.825	518.6
408.231	532.8
408.637	521
409.043	536
409.449	519.2
409.834	523.8
410.24	520.6
410.646	530
411.052	528.4
411.458	527.6
411.865	528.4
412.271	542
412.677	524
413.062	530.2
413.469	519.2
413.875	548.6
414.282	537.2
414.689	525.6
415.095	526.8
415.502	524.6
415.888	528
416.294	517.4
416.701	556.4
417.108	520
417.515	532
417.923	526.4
418.33	543.2
418.715	527.4
419.123	521.4
419.53	519.8
419.937	528.4
420.345	534.8
420.752	521
421.16	533.4
421.546	537.2
421.953	533.6
422.361	513.8
422.769	527.6
423.177	522.2
423.585	543.4
423.992	540.2
424.379	532.8
424.787	537
425.195	551
425.603	526.4
426.011	538.6
426.419	546.4
426.806	533
427.214	526.6
427.623	538.2
428.031	546.6
428.44	528
428.848	546.2
429.235	550.4
429.644	548.6
430.053	549.8
430.461	558.8
430.87	570.6
431.279	561.2
431.666	567
432.075	575.4
432.484	581
432.893	591.2
433.302	612.6
433.711	635.8
434.099	621.6
434.508	620.4
434.918	630.2
435.327	652
435.737	665.2
436.125	674.8
436.534	695.2
436.944	696.8
437.353	703.6
437.763	747.8
438.173	720.6
438.561	756.8
438.971	740.8
439.381	773.6
439.791	778.4
440.201	780
440.589	806.6
440.999	820.2
441.409	823.2
441.819	834.4
442.23	852.6
442.619	850.6
443.029	854
443.439	858
443.85	880.8
444.26	889.4
444.649	915.8
445.06	893.6
445.471	896
445.881	910.6
446.292	918.2
446.682	931
447.092	912
447.503	963.2
447.914	925.6
448.325	934
448.715	933.6
449.126	931.8
449.537	938.4
449.948	956.4
450.338	947.4
450.75	951.6
451.161	960.4
451.572	957.6
451.984	960
452.374	936
452.786	961.8
453.197	977.8
453.609	971.6
453.999	960.4
454.411	969.2
454.823	978.2
455.235	982.6
455.647	976.8
456.037	985.4
456.449	962
456.862	977.8
457.274	983.8
457.665	965.2
458.077	991
458.489	1005
458.902	979.8
459.293	997
459.705	977.2
460.118	986.2
460.53	986.4
460.921	978.6
461.334	978.4
461.747	972.2
462.16	999.8
462.551	983.2
462.964	982
463.377	974.4
463.79	977.4
464.182	987
464.595	980
465.008	989.6
465.421	994.8
465.813	964.2
466.226	991.4
466.64	985.2
467.053	1026.6
467.445	984
467.859	1007.2
468.272	1001.2
468.686	1004.8
469.078	986.6
469.492	980.6
469.906	984.4
470.298	989.6
470.712	978.2
471.126	1002.2
471.54	978.8
471.933	968.2
472.347	968.4
472.761	971.8
473.175	959.2
473.568	977
473.982	971
474.397	969.4
474.79	974
475.204	977
475.619	961.2
476.033	966.4
476.426	966.8
476.841	956.4
477.256	976.4
477.649	948
478.064	946.4
478.479	956.2
478.872	953.8
479.287	926.8
479.702	935
480.118	941.2
480.511	936.6
480.927	947
481.342	935.4
481.736	918.8
482.151	911.8
482.566	940.6
482.96	934.2
483.376	937.6
483.792	914.4
484.186	914.2
484.602	916.6
485.017	906.6
485.412	908.6
485.827	918.8
486.243	902.8
486.638	917.6
487.054	899.2
487.47	910.2
487.865	890
488.281	894.8
488.697	888
489.092	888.2
489.508	870.6
489.925	890.2
490.32	864
490.736	881.4
491.153	881.8
491.548	857.2
491.964	882.6
492.381	859.6
492.776	867.4
493.193	867.2
493.61	868
494.006	864.8
494.422	851
494.84	836.4
495.235	862.6
495.652	850
496.069	841.8
496.465	829.2
496.883	830.2
497.3	841.2
497.696	829
498.113	843
498.509	815.8
498.927	820.8
499.344	816.2
499.741	803.6
500.158	817.6
500.576	821.8
500.973	808.6
501.39	793.8
501.787	792.2
502.205	803.8
502.623	792
503.02	778.6
503.438	786.8
503.856	793.4
504.253	782.4
504.671	787.4
505.068	768.2
505.486	775.2
505.905	794.8
506.302	769.8
506.72	787.2
507.118	757.4
507.536	763.2
507.955	767
508.352	760
508.771	754.6
509.169	760
509.587	753.4
510.006	754.6
510.404	743.2
510.823	732.6
511.221	736.8
511.64	739
512.038	748.8
512.457	732
512.877	732.2
513.275	728.8
513.694	723.4
514.092	727.2
514.512	733
514.91	728.2
515.33	718.2
515.749	716.2
516.148	709
516.568	715.6
516.966	706.4
517.386	710.4
517.785	708.6
518.205	693.4
518.603	701.2
519.024	691.8
519.444	704.6
519.843	711.4
520.263	703.8
520.662	689.8
521.082	691.2
521.481	691.4
521.902	682.6
522.301	687.4
522.722	688.4
523.121	687.8
523.542	682.2
523.963	681.4
524.362	678.4
524.783	668.4
525.183	677.2
525.604	670.4
526.003	664.6
526.425	667.2
526.824	671.6
527.246	672.4
527.646	663.8
528.067	669.2
528.467	648.4
528.888	663.8
529.289	657.8
529.71	656.8
530.11	647.6
530.532	646
530.932	641.8
531.354	632.2
531.755	671.4
532.176	651.8
532.577	640
532.999	639.4
533.4	644.4
533.822	643.4
534.223	643.4
534.645	635.8
535.046	634.2
535.468	629.4
535.869	644.2
536.292	637.8
536.693	654.2
537.115	633.4
537.516	622.6
537.939	623
538.34	643.6
538.742	631.4
539.165	622.2
539.566	619.4
539.989	609.6
540.391	604
540.814	612.6
541.216	619.2
541.639	625.4
542.041	622.6
542.464	611.8
542.866	615.8
543.268	609
543.691	614
544.093	613.4
544.517	622
544.919	606.4
545.343	630
545.745	600.6
546.147	606
546.571	603.8
546.974	597.4
547.398	598.2
547.8	611.6
548.224	591.6
548.627	596.6
549.03	604
549.454	597.8
549.857	590
550.281	601.8
550.684	581.4
551.087	602.6
551.512	584.8
551.915	584.2
552.34	582.4
552.743	584.6
553.146	581.2
553.571	593.2
553.975	602
554.399	575.2
554.803	626.4
555.207	569
555.632	580.8
556.036	587.8
556.461	570.8
556.865	579
557.268	572.4
557.694	571.4
558.098	579.2
558.502	582.8
558.927	565.6
559.332	570.2
559.736	574.8
560.162	574.2
560.566	567.6
560.992	579.8
561.396	570
561.801	569.2
562.227	575
562.631	563.6
563.036	568.8
563.462	563.6
563.867	567.2
564.272	557.6
564.698	571.4
565.103	556.6
565.508	582.6
565.935	562.8
566.34	558.4
566.745	582.6
567.172	560.2
567.577	578.2
567.982	568
568.409	554.4
568.815	553.2
569.22	560.4
569.626	559
570.053	543.8
570.459	567.4
570.865	567.8
571.292	558.8
571.698	556.2
572.104	544.2
572.531	563.2
572.937	559.4
573.343	553
573.75	546.2
574.177	557.6
574.583	550.4
574.99	549.8
575.396	551.4
575.824	543.4
576.231	544.8
576.637	542.4
577.065	568.8
577.472	540.4
577.879	551.8
578.286	552.8
578.714	543.4
579.121	549
579.528	538.8
579.935	552
580.364	544
580.771	539.4
581.178	537.4
581.585	546.4
582.014	547
582.421	533.4
582.829	530
583.236	548.6
583.644	530.2
584.073	529.2
584.481	532.4
584.889	537.2
585.296	535.2
585.726	531.6
586.134	526
586.542	528.2
586.95	552.6
587.358	525.8
587.787	536.6
588.196	526.8
588.604	530.2
589.012	530.4
589.421	519
589.851	529.2
590.259	530.4
590.668	528.6
591.076	564.2
591.485	522.4
591.894	535.6
592.324	542.2
592.733	544.6
593.142	513.8
593.551	529.4
593.96	533.8
594.369	522.8
594.8	516
595.209	518.8
595.618	516.4
596.028	521.8
596.437	517.2
596.847	521
597.256	523.2
597.687	524.6
598.097	520.2
598.507	514.6
598.917	531.4
599.327	532
599.736	525.6
600.146	536.2
600.556	535
600.988	532.6
601.398	518.8
601.808	531
602.219	512.8
602.629	519
603.039	525.2
603.45	542.8
603.86	526.4
604.271	528.6
604.703	517.8
605.114	517.4
605.525	520.2
605.935	527
606.346	541.6
606.757	525
607.168	517.6
607.579	516.4
607.99	521.8
608.402	517.8
608.813	528.8
609.224	517.6
609.636	512.6
610.047	508.2
610.48	530.2
610.892	519.8
611.303	525.6
611.715	519.8
612.127	519.6
612.539	517.6
612.95	521.4
613.362	517.4
613.774	506.2
614.186	512
614.599	512.4
615.011	525.8
615.423	516.4
615.835	516.2
616.248	511
616.66	520.8
617.073	510.8
617.485	516.4
617.898	522.8
618.311	519
618.723	516.4
619.136	531.2
619.549	519.8
619.962	536.6
620.375	519
620.788	521.6
621.201	510.4
621.614	523.2
622.028	521
622.441	523.4
622.854	531.6
623.268	514
623.681	520.8
624.095	517
624.509	530
624.922	514.2
625.336	513.8
625.728	513.6
626.142	519.4
626.556	525.6
626.97	517
627.384	514.6
627.799	512.2
628.213	524.8
628.627	513.4
629.041	512.4
629.456	513
629.87	510
630.285	527.8
630.699	520.2
631.093	512.4
631.507	509.4
631.922	516.4
632.337	529.2
632.752	509.6
633.167	508.4
633.582	508.8
633.997	509.8
634.412	503.8
634.806	516
635.221	506.4
635.637	517.4
636.052	501.8
636.468	517.8
636.883	530.6
637.299	511
637.715	500
638.109	503.8
638.525	504.4
638.941	512
639.357	503.6
639.773	521.4
640.189	504.6
640.584	497.6
641	515.4
641.416	506.6
641.832	506.8
642.249	509.6
642.665	506.2
643.06	512.8
643.477	512.4
643.894	495
644.31	511.6
644.727	516.8
645.123	507.2
645.54	504
645.957	509.8
646.374	518.6
646.77	513.4
647.187	538.2
647.604	510.8
648.021	493.2
648.439	510
648.835	514.2
649.252	507.4
649.67	511.2
650.088	499.6
650.484	509.8
650.902	522.6
651.32	514
651.738	505
652.134	515.8
652.552	527.4
652.971	519.2
653.389	507.8
653.786	524.4
654.204	520.4
654.622	509.2
655.019	506.2
655.438	520
655.857	511.2
656.275	506.8
656.673	507.2
657.091	510.4
657.51	512.6
657.908	512.6
658.327	524.8
658.746	498.6
659.144	506
659.563	517.2
659.982	513.8
660.38	496.4
660.8	508.4
661.219	512.6
661.617	514.6
662.037	509.2
662.457	529.2
662.855	496.8
663.275	529.4
663.695	502.6
664.094	511.2
664.514	511.8
664.934	500.4
665.333	510.2
665.753	500.4
666.152	508.2
666.572	499.6
666.993	514
667.392	510.4
667.812	513.6
668.212	502.2
668.632	514.8
669.053	505.4
669.453	508.2
669.874	498
670.273	512.4
670.694	502.2
671.116	514.8
671.515	510.6
671.937	503.6
672.337	501.8
672.758	500
673.158	515
673.58	501.8
673.98	509.4
674.402	515.2
674.824	505.6
675.224	499
675.646	498.4
676.047	502.4
676.469	502.8
676.869	513
677.292	508.8
677.693	498.8
678.115	498.4
678.516	508.4
678.939	510
679.34	494.8
679.762	506.6
680.164	504.2
680.586	492.2
680.988	499.4
681.411	517.4
681.812	496
682.236	492.2
682.637	490.8
683.061	485.2
683.462	496.2
683.864	496
684.288	509
684.69	494.4
685.114	506.2
685.516	502.2
685.94	496.2
686.342	506
686.766	494.8
687.168	494.2
687.571	516.4
687.995	494
688.398	495.8
688.822	503
689.225	510
689.628	514
690.052	495.4
690.456	494.4
690.88	499.6
691.284	498
691.687	512.8
692.112	488.4
692.515	495.8
692.919	495.6
693.344	501.4
693.747	494.2
694.173	500.2
694.577	509.4
694.98	502.2
695.406	499
695.81	503.8
696.214	504
696.64	506.8
697.044	505
697.448	504.2
697.874	507
698.279	500.8
698.684	501.2
699.11	497
699.514	509.6
699.919	494
700.324	502.4
700.75	506.8
701.156	514.2
701.561	516.4
701.987	506.8
702.393	505.4
702.798	512.8
703.203	502.8
703.63	500.4
704.036	498
704.442	501
704.847	498.6
705.274	495.6
705.68	506
706.086	508.4
706.492	497.2
706.92	502.6
707.326	511.8
707.732	503.8
708.139	495.8
708.545	497.8
708.973	503.4
709.38	501.4
709.786	496.4
710.193	514.4
710.6	503.2
711.028	492.8
711.435	503.8
711.842	509.2
712.249	499.6
712.656	505.4
713.064	505.2
713.492	496.2
713.9	499.2
714.307	503.8
714.715	506.6
715.123	503
715.53	506
715.938	503.2
716.367	498.4
716.775	500.8
717.184	496.2
717.592	496.4
718	509.8
718.408	538.2
718.816	531.4
719.225	506.8
719.633	503.8
720.042	498
720.472	501
720.881	511.8
721.29	504.6
721.699	498.6
722.108	497.4
722.517	500.8
722.926	495.8
723.335	509.4
723.744	497.8
724.154	502.6
724.563	502.4
724.973	501.2
725.382	498.4
725.792	502.2
726.202	494
726.612	505.2
727.022	497.4
727.432	500.2
779.813	490.6
780.223	533.6
780.634	503.8
781.044	494.2
781.454	500.4
781.865	510.2
782.276	493.6
782.686	504.4
783.097	499.6
783.508	494.8
783.919	504.2
784.33	508.6
784.741	506
785.152	496.8
785.563	487.6
785.974	494.2
786.386	513
786.776	489.8
787.188	495
787.599	489
788.011	505
788.423	509
788.835	496
789.247	498.2
789.659	491.6
790.071	492
790.483	530.6
790.874	490.6
791.286	500.8
791.699	501
792.111	501.8
792.524	499.6
792.937	505.2
793.349	490.4
793.741	497.6
794.154	491.8
794.567	515.2
794.98	496.4
795.393	482.4
795.785	509
796.198	490.8
796.612	506.4
797.026	498.4
797.439	484.6
797.831	499.2
798.245	494
798.659	493.4
799.073	502.8
799.487	489.8
799.88	503
800.294	497
800.708	501
801.123	502.2
801.516	513
801.93	489.4
802.345	491.4
802.76	495.4
803.153	510
803.568	508.8
803.983	510.6
804.377	494
804.792	488.4
805.207	487.8
805.601	495.4
806.016	524.6
806.432	490.8
806.826	526.6
807.242	514.2
807.658	502.2
808.052	499.6
808.468	493
808.884	489.2
809.279	501.2
809.695	503.4
810.111	524.4
810.506	493.4
810.922	512
811.339	488.6
811.734	509.2
812.151	489
812.546	495.8
812.963	503.8
813.38	498.2
813.776	493.8
814.193	516.6
814.589	501.6
815.006	497.8
815.402	505.6
815.82	489.8
816.237	498.8
816.633	499.4
817.051	494.2
817.448	499.2
817.866	488.8
818.262	512.4
818.68	499.2
819.077	495.2
819.495	496.8
819.892	527
820.311	499.4
820.708	500
821.127	485.6
821.524	514.8
821.943	497.2
822.34	508
822.759	496.8
823.157	501
823.576	506.4
823.974	502.4
824.393	580.6
824.791	488.6
825.189	497.4
825.609	491.4
826.007	496.6
826.427	486.6
826.826	493.8
827.246	498.6
827.644	484
828.043	506.8
828.463	491.8
828.862	493.8
829.261	495.6
829.682	489.6
830.081	494.8
830.502	488.6
830.901	492.2
831.301	486
831.722	480.6
832.121	496.2
832.521	489
832.943	496.6
833.342	490.2
833.742	485.6
834.164	496.8
834.564	489.8
834.965	490.8
835.386	488.4
835.787	489.4
836.188	492.6
836.588	497.2
837.01	493.2
837.411	494.4
837.812	500.2
838.213	497.2
838.636	493.6
839.037	549.6
839.438	496.6
839.84	499.4
840.263	497.8
840.664	501.4
841.066	502.8
841.468	496
841.891	495.6
842.293	500.4
842.695	507
843.098	500.8
843.5	490.6
843.902	507
844.326	501.6
844.729	492.4
845.131	503.6
845.534	493.6
845.937	501.4
846.34	511
846.764	488.4
847.167	503
847.571	488
847.974	497.8
848.377	495
848.781	531
849.184	509.6
849.588	492.2
849.992	497.6
850.396	501.8
850.821	509.4
851.225	505
851.63	495
852.034	507.2
852.438	497.2
852.843	555.2
853.247	493.4
853.652	493.8
854.057	502.2
854.462	502.2
854.867	499
855.272	519.8
855.677	502.2
856.082	498
856.487	489.8
