#lambda/nm	C1
208.295	466.4
208.67	429.6
209.045	388.4
209.419	390
209.794	534.4
210.169	517.8
210.544	621.6
210.919	530.2
211.295	521.4
211.67	531.4
212.045	527
212.421	529.4
212.796	556.8
213.172	527.6
213.547	534.6
213.923	531.8
214.299	520
214.675	526.8
215.051	534.8
215.427	545.2
215.803	549
216.179	538.8
216.555	525
216.932	541
217.308	533.2
217.684	523
218.061	533.6
218.438	536
218.814	520.4
219.191	543
219.568	526.6
219.945	529
220.322	541.2
220.699	532.2
221.076	536
221.453	535
221.83	523.6
222.208	531.6
222.585	518.2
222.962	531.8
223.34	532.6
223.717	534.2
224.095	523.6
224.473	526.6
224.851	524
225.229	531.8
225.607	549.4
225.985	528.2
226.363	535.4
226.741	534.4
227.119	537.8
227.497	549.8
227.876	521.8
228.254	532.6
228.633	530.4
229.011	540.4
229.39	537.4
229.769	532.2
230.148	537.8
230.527	551.6
230.905	529
231.284	531.4
231.664	528.8
232.043	536.2
232.422	541.4
232.801	531.2
233.181	526.6
233.56	530
233.94	532.6
234.319	518.8
234.699	532.4
235.079	561.6
235.458	557.4
235.838	540.6
236.218	527.8
236.598	530.6
236.978	524.4
237.358	525
237.738	533
238.119	529.4
238.499	522.6
238.88	536.4
239.26	547.4
239.641	518.6
240.021	526.6
240.402	531
240.783	529.8
241.163	527
241.544	538.4
241.925	532.8
242.306	546.8
242.687	530
243.069	530.4
243.45	536.2
243.831	527.8
244.212	533.4
244.594	563.2
244.975	537.4
245.357	536.6
245.739	537.4
246.12	538.8
246.502	545.6
246.884	539.8
247.266	535.6
247.648	534.8
248.03	549.6
248.412	541.4
248.794	532.6
249.176	530.4
249.559	542
249.941	532.4
250.323	522
250.706	528.4
251.089	530.8
251.471	535.2
251.854	538
252.237	530.2
252.62	543.6
253.002	535.4
253.385	536.8
253.769	543.4
254.152	529.4
254.535	541
254.918	523
255.301	527.4
255.685	532.4
256.068	521.6
256.452	552.4
256.835	543
257.219	543.6
257.603	537.4
257.986	518.8
258.37	533
258.754	531.8
259.138	549.8
259.522	541.6
259.906	526.6
260.29	536
260.675	533
261.059	536.2
261.443	518.2
261.828	536
262.212	539.8
262.597	520.4
262.981	531.6
263.366	536.8
263.751	533.6
264.136	532.8
264.521	529.2
264.906	525.8
265.291	544.4
265.676	526
266.061	539
266.446	546
266.831	539
267.217	546.6
267.602	537.4
267.987	539.8
268.373	529.8
268.759	538
269.144	540.4
269.53	535.2
269.916	536.6
270.302	528.2
270.688	535
271.074	535.6
271.46	540
271.846	558.2
272.232	534
272.618	535.4
273.004	531.4
273.391	539.2
273.777	546.8
274.164	539.2
274.55	539.8
274.937	540.6
275.324	536
275.71	541.6
276.097	541
276.484	525.6
276.871	537.8
277.258	525.6
277.645	523.4
278.032	534.6
278.419	526.8
278.807	537.2
279.194	525
279.581	529.8
279.969	543.6
280.356	533.8
280.744	534.6
281.131	551.4
281.519	540
281.907	529.2
282.295	528.6
282.682	536.2
283.07	527.2
283.458	530.2
283.846	546.6
284.235	531.8
284.623	531.8
285.011	519.2
285.399	535.4
285.788	529
286.176	525
286.565	537.8
286.953	527.2
287.342	527
287.731	525.4
288.119	526.8
288.508	524.6
288.897	530.6
289.286	525.4
289.675	534.4
290.064	542.6
290.453	529.2
290.821	528
291.21	546.8
291.599	528.2
291.989	538.4
292.378	536.8
292.768	553.2
293.157	533.8
293.547	542
293.936	533.8
294.326	524.2
294.716	534.6
295.106	528.4
295.496	537.4
295.886	538.6
296.276	530.8
296.666	527.2
297.056	535
297.446	521.6
297.836	544.4
298.227	528.2
298.617	534.6
299.008	542
299.398	528.2
299.789	532
300.179	529.2
300.57	546.8
300.961	529.2
301.352	528.6
301.742	535.6
302.133	542.8
302.524	535
302.915	532.4
303.307	520.8
303.698	542
304.089	529.8
304.48	523.2
304.872	535.6
305.263	532.6
305.655	523.4
306.046	535.4
306.438	532.4
306.829	526.6
307.221	536.8
307.613	530
308.005	535.4
308.397	542
308.789	548
309.181	553.6
309.573	545.6
309.965	536.4
310.357	529.4
310.749	538.8
311.142	524
311.534	528.2
311.926	539.6
312.319	525
312.711	532
313.104	540.8
313.497	535.8
313.889	560.8
314.282	543.6
314.675	551.4
315.068	531.2
315.461	532.4
315.854	551.4
316.247	534.6
316.64	527.2
317.033	528.6
317.405	539.2
317.798	530.4
318.192	533.2
318.585	523.2
318.979	539
319.372	523.8
319.766	531.2
320.16	530.4
320.553	545
320.947	549.6
321.341	533.2
321.735	532.8
322.129	518.4
322.523	556.2
322.917	521
323.311	544.2
323.705	534.8
324.099	540.4
324.494	552.2
324.888	534.2
325.282	519.2
325.677	538.8
326.071	535.4
326.466	539.8
326.861	536.2
327.255	544.4
327.65	546
328.045	545
328.44	527
328.835	535.8
329.23	527
329.625	546.2
330.02	526
330.415	542.8
330.81	538.2
331.206	534.8
331.601	524.4
331.996	540
332.37	543.6
332.766	519.2
333.161	543.6
333.557	531
333.953	536.2
334.348	748.2
334.744	525.6
335.14	526.6
335.536	530.4
335.932	541.6
336.328	532.2
336.724	540.2
337.12	526
337.516	535.2
337.913	533.8
338.309	546.8
338.705	540.8
339.102	544.6
339.498	530.2
339.895	545.4
340.291	523.2
340.688	540.2
341.085	527.4
341.481	526.8
341.878	533.6
342.275	541.8
342.672	534.4
343.069	532.4
343.466	523.4
343.842	539.4
344.239	528.4
344.636	533.4
345.033	524
345.431	521
345.828	528.8
346.225	516
346.623	562.4
347.02	531.2
347.418	536.6
347.816	540
348.213	527.8
348.611	535.4
349.009	524.6
349.407	544.8
349.805	516.4
350.203	523
350.601	538
350.999	528
351.397	571
351.795	517.8
352.193	537.6
352.57	539
352.969	538.4
353.367	519.2
353.766	521.2
354.164	523.4
354.563	539.6
354.961	527.6
355.36	524
355.759	527.4
356.158	529.4
356.557	519.6
356.956	524.2
357.355	521.8
357.754	525.2
358.153	537.6
358.552	540.8
358.951	521.8
359.35	531
359.75	531.4
360.149	518.4
360.527	512.4
360.926	523.4
361.326	528
361.726	520
362.125	526
362.525	528.4
362.925	531.6
363.325	527
363.724	528.8
364.124	521.4
364.524	526.8
364.924	521.2
365.324	541.8
365.725	516.4
366.125	526.6
366.525	524
366.904	528.6
367.304	504.2
367.705	541
368.105	534.6
368.506	523.8
368.906	517.4
369.307	531.2
369.708	527.8
370.108	516.4
370.509	532
370.91	523.4
371.311	523.8
371.712	528.8
372.113	525.4
372.514	515
372.894	528.4
373.295	518.2
373.696	534
374.097	529.8
374.499	540.8
374.9	526.6
375.301	520
375.703	527
376.105	519
376.506	523.4
376.908	528.6
377.309	531.2
377.711	526.6
378.113	522
378.493	531.6
378.895	522.2
379.297	527
379.699	516.8
380.102	532.2
380.504	525.6
380.906	517.4
381.308	544.2
381.71	515.4
382.113	533
382.515	524
382.918	524.4
383.299	523
383.701	536.8
384.104	524
384.507	509.2
384.909	516.6
385.312	516.2
385.715	518.2
386.118	528.8
386.521	514.4
386.924	535.6
387.327	515.2
387.709	519.2
388.112	512.4
388.515	525.4
388.918	523.8
389.322	532
389.725	524.4
390.129	538.2
390.532	522
390.936	520.2
391.339	517.2
391.743	527.2
392.125	520.8
392.529	534.8
392.933	537.8
393.337	520.4
393.74	527.6
394.144	527.2
394.548	519.8
394.953	520.6
395.357	530.2
395.761	515.8
396.144	519
396.548	529.4
396.952	525.2
397.357	526.4
397.761	514.6
398.166	524.2
398.57	519.6
398.975	505.6
399.379	520.6
399.763	570.8
400.168	519.8
400.572	521
400.977	514.8
401.382	536.4
401.787	531.6
402.192	530.2
402.597	530.2
403.002	519.2
403.386	530.8
403.791	534
404.197	517
404.602	526
405.007	523.6
405.413	517
405.818	528
406.224	521.8
406.608	521.4
407.014	513.2
407.42	534.6
407.825	518.4
408.231	534.2
408.637	517.6
409.043	534.2
409.449	518.8
409.834	519
410.24	518.6
410.646	535.2
411.052	529.2
411.458	523.8
411.865	528.6
412.271	530.6
412.677	523.8
413.062	521.6
413.469	514
413.875	537.8
414.282	540.2
414.689	522.2
415.095	536.2
415.502	521.6
415.888	524
416.294	513
416.701	560.4
417.108	515
417.515	533.4
417.923	518.6
418.33	539.8
418.715	533.4
419.123	526.2
419.53	523.8
419.937	524.2
420.345	536.2
420.752	517.6
421.16	535.8
421.546	527.6
421.953	529.8
422.361	523.4
422.769	521.6
423.177	509.4
423.585	545
423.992	545.8
424.379	539.6
424.787	532.8
425.195	536.8
425.603	523.8
426.011	544.4
426.419	536.6
426.806	516
427.214	525.4
427.623	537.8
428.031	551
428.44	545.6
428.848	547.8
429.235	567
429.644	560.2
430.053	560.8
430.461	578
430.87	596.6
431.279	589
431.666	600
432.075	617.2
432.484	637
432.893	640.2
433.302	669.2
433.711	719
434.099	699.8
434.508	717.8
434.918	733.6
435.327	765.4
435.737	788.2
436.125	804.8
436.534	835.4
436.944	859.4
437.353	864.2
437.763	907
438.173	910.6
438.561	950.4
438.971	965.2
439.381	974.6
439.791	1005.2
440.201	1006.2
440.589	1052
440.999	1054.4
441.409	1082
441.819	1081
442.23	1109
442.619	1126.8
443.029	1160.6
443.439	1134.4
443.85	1146.6
444.26	1173.4
444.649	1160.8
445.06	1177.4
445.471	1198.2
445.881	1207.6
446.292	1224.6
446.682	1251.2
447.092	1232.8
447.503	1278.2
447.914	1257.4
448.325	1241.4
448.715	1257.2
449.126	1260.4
449.537	1273
449.948	1269.8
450.338	1297.8
450.75	1293.2
451.161	1293.6
451.572	1312
451.984	1307.8
452.374	1283
452.786	1316.8
453.197	1312
453.609	1332.8
453.999	1320
454.411	1300.6
454.823	1334.2
455.235	1325.8
455.647	1322.8
456.037	1331
456.449	1322.8
456.862	1330.6
457.274	1343.8
457.665	1328
458.077	1348.6
458.489	1367.8
458.902	1334.6
459.293	1348
459.705	1329
460.118	1335.4
460.53	1344
460.921	1340.4
461.334	1335.6
461.747	1361
462.16	1349.8
462.551	1358.6
462.964	1349.2
463.377	1336.4
463.79	1348.2
464.182	1336.2
464.595	1333.2
465.008	1345
465.421	1347.8
465.813	1342.2
466.226	1347
466.64	1337.6
467.053	1384.6
467.445	1358.2
467.859	1364.2
468.272	1364.6
468.686	1355
469.078	1346.4
469.492	1342.4
469.906	1354.2
470.298	1362.2
470.712	1344.2
471.126	1348.4
471.54	1330.2
471.933	1351.2
472.347	1329
472.761	1327.4
473.175	1327.4
473.568	1330.2
473.982	1317.6
474.397	1320
474.79	1318
475.204	1310.8
475.619	1305.8
476.033	1304.8
476.426	1291
476.841	1290.4
477.256	1306.8
477.649	1269.6
478.064	1269.8
478.479	1275.8
478.872	1271.2
479.287	1249.4
479.702	1266.8
480.118	1267.8
480.511	1261.8
480.927	1261.6
481.342	1259.6
481.736	1243
482.151	1234.8
482.566	1244.8
482.96	1252.8
483.376	1247.6
483.792	1229
484.186	1237.2
484.602	1224.2
485.017	1218.8
485.412	1216.8
485.827	1205.8
486.243	1205
486.638	1225.6
487.054	1215.8
487.47	1215
487.865	1178.6
488.281	1186
488.697	1163.4
489.092	1172.4
489.508	1169
489.925	1172.2
490.32	1169.6
490.736	1162.4
491.153	1146.4
491.548	1144
491.964	1145.2
492.381	1113.8
492.776	1138.2
493.193	1120.4
493.61	1129.2
494.006	1112.2
494.422	1108
494.84	1105.2
495.235	1109.6
495.652	1094.6
496.069	1086.4
496.465	1078.6
496.883	1080.8
497.3	1095.6
497.696	1065.4
498.113	1078.8
498.509	1051
498.927	1056.8
499.344	1042.2
499.741	1040.2
500.158	1042.2
500.576	1039.8
500.973	1034.2
501.39	1015
501.787	1009.6
502.205	1011.4
502.623	1011.6
503.02	1003.8
503.438	997.2
503.856	1000
504.253	998.4
504.671	978.6
505.068	986.2
505.486	978.8
505.905	984.8
506.302	950
506.72	962
507.118	949.6
507.536	951.2
507.955	941.2
508.352	947
508.771	945
509.169	940.2
509.587	925
510.006	933.2
510.404	923.6
510.823	912.2
511.221	912.4
511.64	906.8
512.038	913.4
512.457	904.8
512.877	889.6
513.275	884.8
513.694	888.6
514.092	885.8
514.512	885.6
514.91	886.4
515.33	874.6
515.749	868.2
516.148	867.8
516.568	874.2
516.966	858.2
517.386	847
517.785	855.8
518.205	844.4
518.603	835.2
519.024	830.4
519.444	850.6
519.843	843.4
520.263	838.8
520.662	824.2
521.082	838.6
521.481	822.8
521.902	815.6
522.301	824.4
522.722	817
523.121	804.4
523.542	798.6
523.963	786.6
524.362	788.4
524.783	776.4
525.183	786.4
525.604	786.6
526.003	783.6
526.425	779
526.824	788.2
527.246	788.4
527.646	779.8
528.067	768.8
528.467	760.6
528.888	768.4
529.289	762.2
529.71	758.8
530.11	745.6
530.532	747.8
530.932	743.2
531.354	739.8
531.755	760.8
532.176	749.4
532.577	740.2
532.999	737
533.4	725.6
533.822	739
534.223	730.8
534.645	728
535.046	715
535.468	718.2
535.869	732.8
536.292	715
536.693	736.4
537.115	721.8
537.516	709.4
537.939	703.2
538.34	721.4
538.742	715.6
539.165	707
539.566	709
539.989	699.2
540.391	692.2
540.814	697
541.216	696.2
541.639	695.2
542.041	690.6
542.464	689.4
542.866	682.6
543.268	684.4
543.691	686.8
544.093	691.8
544.517	696.4
544.919	673.4
545.343	697.4
545.745	671.6
546.147	668.8
546.571	661
546.974	664.4
547.398	655
547.8	671
548.224	660.4
548.627	649.4
549.03	668.8
549.454	655
549.857	647
550.281	654
550.684	641
551.087	655.4
551.512	649
551.915	644.8
552.34	641.6
552.743	635.2
553.146	639.4
553.571	643.2
553.975	649
554.399	633.8
554.803	670
555.207	637.8
555.632	628
556.036	624.8
556.461	628.6
556.865	624.2
557.268	618.2
557.694	624.2
558.098	629
558.502	616.6
558.927	621.4
559.332	628.8
559.736	618
560.162	626.2
560.566	601.8
560.992	621.8
561.396	609.4
561.801	609.4
562.227	612
562.631	615.6
563.036	604.2
563.462	606.2
563.867	617
564.272	593
564.698	609.8
565.103	592
565.508	618.8
565.935	600
566.34	602.8
566.745	602
567.172	596.4
567.577	610.6
567.982	609.2
568.409	593.2
568.815	575.2
569.22	588
569.626	596.6
570.053	572.8
570.459	587.8
570.865	576.4
571.292	589.4
571.698	589.2
572.104	570.8
572.531	578
572.937	577.4
573.343	581.8
573.75	569.8
574.177	571.2
574.583	584.2
574.99	570.6
575.396	574.8
575.824	574.4
576.231	572.2
576.637	570
577.065	591.4
577.472	576.8
577.879	570.2
578.286	586.4
578.714	562.4
579.121	575.4
579.528	566.2
579.935	569.4
580.364	566.4
580.771	549.8
581.178	555.6
581.585	572.8
582.014	575.4
582.421	558.4
582.829	562.2
583.236	572.2
583.644	560.6
584.073	565
584.481	564.2
584.889	552.2
585.296	561.2
585.726	554.6
586.134	549
586.542	550
586.95	574.6
587.358	542.2
587.787	556.6
588.196	549.4
588.604	550.6
589.012	552
589.421	544
589.851	543.2
590.259	558
590.668	544
591.076	577.4
591.485	543
591.894	546.4
592.324	558.2
592.733	553.8
593.142	531.6
593.551	544.8
593.96	536.4
594.369	535.6
594.8	536.2
595.209	538.6
595.618	529.2
596.028	543.2
596.437	536.6
596.847	540.8
597.256	534.4
597.687	538.2
598.097	534.6
598.507	535.4
598.917	537.2
599.327	538.4
599.736	538.8
600.146	536.6
600.556	529.8
600.988	545
601.398	534.4
601.808	538
602.219	523.6
602.629	529.6
603.039	522
603.45	555
603.86	526
604.271	543.6
604.703	538.6
605.114	536.6
605.525	529.8
605.935	545.6
606.346	539.8
606.757	533.4
607.168	522.4
607.579	520.8
607.99	537
608.402	526
608.813	534.2
609.224	525.2
609.636	520
610.047	529.4
610.48	535
610.892	530.2
611.303	531.4
611.715	524.4
612.127	517.8
612.539	520.8
612.95	527.8
613.362	523.2
613.774	518.8
614.186	524.6
614.599	524.2
615.011	535.4
615.423	524.8
615.835	530.6
616.248	521
616.66	532
617.073	520.6
617.485	527.2
617.898	534
618.311	524.8
618.723	531.6
619.136	548.4
619.549	539
619.962	543.6
620.375	525.8
620.788	527.6
621.201	524.2
621.614	533
622.028	528
622.441	527.6
622.854	539.2
623.268	527.2
623.681	529.2
624.095	525.2
624.509	533.6
624.922	533.2
625.336	520.2
625.728	525.4
626.142	531.4
626.556	539.2
626.97	527.2
627.384	525.4
627.799	536
628.213	535.6
628.627	519
629.041	526.2
629.456	526.8
629.87	527.2
630.285	530.4
630.699	533.6
631.093	531
631.507	524.6
631.922	527.4
632.337	532.4
632.752	517.4
633.167	531.8
633.582	521.8
633.997	517.4
634.412	521.6
634.806	524.8
635.221	516.6
635.637	523.6
636.052	514.4
636.468	527.2
636.883	530.6
637.299	527.8
637.715	522.2
638.109	520.4
638.525	508.2
638.941	532.2
639.357	522.8
639.773	528
640.189	520.4
640.584	520.4
641	519.4
641.416	510.8
641.832	518.2
642.249	517.4
642.665	512
643.06	529.8
643.477	523.6
643.894	510.2
644.31	523
644.727	517.6
645.123	521.6
645.54	515.8
645.957	514.6
646.374	518.8
646.77	516.4
647.187	536.4
647.604	517.6
648.021	506
648.439	508.8
648.835	518
649.252	513.6
649.67	510.4
650.088	516.6
650.484	513.2
650.902	520.2
651.32	516.6
651.738	513
652.134	519.8
652.552	523
652.971	518.2
653.389	516.6
653.786	525
654.204	516.2
654.622	506.4
655.019	512.4
655.438	514.4
655.857	518.4
656.275	512.8
656.673	513.4
657.091	518.6
657.51	509.8
657.908	515.4
658.327	524.6
658.746	501.8
659.144	508.2
659.563	520
659.982	514.8
660.38	506
660.8	513
661.219	520.8
661.617	511.8
662.037	512.8
662.457	527
662.855	499.8
663.275	539
663.695	514.4
664.094	509
664.514	512
664.934	508.8
665.333	519.8
665.753	516.2
666.152	504.4
666.572	502.2
666.993	517.6
667.392	505.2
667.812	510
668.212	510
668.632	515.8
669.053	506.4
669.453	512.8
669.874	511.6
670.273	506.2
670.694	504.8
671.116	513
671.515	513
671.937	503.8
672.337	504.8
672.758	507.2
673.158	521.4
673.58	503.4
673.98	515.8
674.402	519.6
674.824	503.4
675.224	510.6
675.646	494.2
676.047	504.8
676.469	504.8
676.869	504
677.292	507.4
677.693	500.4
678.115	505.4
678.516	509
678.939	506.8
679.34	504
679.762	508.2
680.164	512.2
680.586	499.6
680.988	511
681.411	528.2
681.812	502.6
682.236	499.8
682.637	496.6
683.061	499
683.462	511.4
683.864	495.4
684.288	513.8
684.69	501
685.114	507.8
685.516	509.8
685.94	494.6
686.342	505.6
686.766	500
687.168	499
687.571	516.8
687.995	504.4
688.398	496
688.822	505.4
689.225	516.4
689.628	514.8
690.052	505.6
690.456	506.8
690.88	503
691.284	498.8
691.687	512
692.112	490
692.515	498
692.919	503.6
693.344	503
693.747	500.2
694.173	503.8
694.577	520
694.98	501.8
695.406	492.2
695.81	502.2
696.214	497.6
696.64	502.8
697.044	507.8
697.448	502.2
697.874	490.2
698.279	499
698.684	493.6
699.11	490.2
699.514	502.2
699.919	494.8
700.324	497.4
700.75	503.6
701.156	495.2
701.561	510.2
701.987	511.4
702.393	508.4
702.798	513.2
703.203	499.2
703.63	506
704.036	490.2
704.442	492.6
704.847	493.8
705.274	501.6
705.68	508.2
706.086	505.2
706.492	502
706.92	494.2
707.326	504.8
707.732	498.8
708.139	501.6
708.545	492.2
708.973	500
709.38	488
709.786	484.4
710.193	507.6
710.6	505.4
711.028	491.6
711.435	499.8
711.842	497.4
712.249	500.4
712.656	501
713.064	505.4
713.492	494
713.9	503.2
714.307	503.6
714.715	501.8
715.123	503.8
715.53	507.4
715.938	508.4
716.367	494.2
716.775	494
717.184	494.6
717.592	501.6
718	510.6
718.408	528.4
718.816	533.4
719.225	504.6
719.633	504.4
720.042	492.8
720.472	503.6
720.881	510.8
721.29	502.8
721.699	494.8
722.108	504.8
722.517	501.2
722.926	503.2
723.335	510.2
723.744	501
724.154	491.2
724.563	494.8
724.973	511.8
725.382	498.8
725.792	497.4
726.202	490.2
726.612	517.8
727.022	504.2
727.432	498.2
779.813	501.6
780.223	535.6
780.634	501.8
781.044	499.4
781.454	501
781.865	509.2
782.276	491.6
782.686	502.4
783.097	498
783.508	494.8
783.919	503.4
784.33	506.4
784.741	516.6
785.152	502.8
785.563	491.8
785.974	490.4
786.386	504.4
786.776	492.4
787.188	494.4
787.599	493.8
788.011	502
788.423	508.6
788.835	492.4
789.247	491.8
789.659	493.2
790.071	501.8
790.483	528
790.874	499.8
791.286	500.4
791.699	503.2
792.111	505
792.524	501.4
792.937	493.8
793.349	491.2
793.741	494.8
794.154	498.8
794.567	512.4
794.98	498.6
795.393	488.8
795.785	508.6
796.198	488
796.612	497.8
797.026	493.8
797.439	491.8
797.831	499.2
798.245	485.6
798.659	494.8
799.073	491.6
799.487	497.2
799.88	496.6
800.294	489.2
800.708	499.8
801.123	492.2
801.516	509
801.93	483.6
802.345	485.2
802.76	497.6
803.153	505
803.568	510.6
803.983	510.4
804.377	498.4
804.792	485.2
805.207	488.2
805.601	498.8
806.016	524.8
806.432	495.2
806.826	519.6
807.242	505.2
807.658	494
808.052	503
808.468	493.8
808.884	500.4
809.279	506
809.695	505.4
810.111	514.8
810.506	491.6
810.922	511.2
811.339	486.6
811.734	504.8
812.151	491.6
812.546	496.2
812.963	497.6
813.38	509.2
813.776	499.6
814.193	512
814.589	496.8
815.006	486.6
815.402	492.6
815.82	487.2
816.237	496.6
816.633	497.8
817.051	495
817.448	495.8
817.866	490.6
818.262	509
818.68	491.4
819.077	495.6
819.495	497.2
819.892	531.6
820.311	493.2
820.708	500.4
821.127	485.8
821.524	502.4
821.943	507
822.34	517.4
822.759	499
823.157	499.6
823.576	504.4
823.974	502
824.393	588.6
824.791	495.6
825.189	489.4
825.609	494.4
826.007	501.6
826.427	491.4
826.826	497.4
827.246	505.6
827.644	485.6
828.043	503.8
828.463	493.2
828.862	496
829.261	499
829.682	489
830.081	496.8
830.502	497.8
830.901	498.2
831.301	496.4
831.722	484.6
832.121	502.4
832.521	491.8
832.943	506.2
833.342	499.8
833.742	493
834.164	497.8
834.564	487.8
834.965	496
835.386	498
835.787	494.2
836.188	503.8
836.588	498
837.01	493.2
837.411	490.2
837.812	500.6
838.213	501.2
838.636	485.6
839.037	551
839.438	497
839.84	492.8
840.263	499.6
840.664	499
841.066	492
841.468	496.4
841.891	494
842.293	494.2
842.695	505
843.098	507.4
843.5	494.8
843.902	496
844.326	499.4
844.729	500.6
845.131	501.4
845.534	498.8
845.937	507.2
846.34	511.6
846.764	489.8
847.167	497
847.571	487
847.974	492.4
848.377	496
848.781	531.8
849.184	500
849.588	498.6
849.992	492.6
850.396	497.6
850.821	514
851.225	499
851.63	488.8
852.034	501.4
852.438	497.6
