#lambda/nm	C1
208.295	464.8
208.67	434.6
209.045	390.2
209.419	398.6
209.794	540.6
210.169	521.8
210.544	615.8
210.919	532.4
211.295	529
211.67	530.2
212.045	521
212.421	530.4
212.796	562.2
213.172	526.4
213.547	530.8
213.923	531.4
214.299	528.8
214.675	531.8
215.051	536.8
215.427	539.8
215.803	550
216.179	540.2
216.555	519.6
216.932	538.6
217.308	533.4
217.684	538.4
218.061	541.2
218.438	534.2
218.814	531
219.191	542
219.568	520.2
219.945	529.6
220.322	539.8
220.699	538.2
221.076	538
221.453	534.4
221.83	526.4
222.208	525.6
222.585	519.8
222.962	536.4
223.34	538.4
223.717	529.2
224.095	528.4
224.473	533.6
224.851	522.2
225.229	522.2
225.607	541
225.985	521.2
226.363	532.8
226.741	531.8
227.119	526.6
227.497	537.8
227.876	523.2
228.254	530.2
228.633	532.4
229.011	528.2
229.39	543.6
229.769	533.6
230.148	538.2
230.527	550.6
230.905	531.4
231.284	531.6
231.664	531.2
232.043	540
232.422	540.2
232.801	535.6
233.181	537.6
233.56	528
233.94	529.6
234.319	522.4
234.699	525.8
235.079	561.2
235.458	550
235.838	540.4
236.218	523
236.598	522.2
236.978	527
237.358	521.8
237.738	528
238.119	540.8
238.499	527.6
238.88	526
239.26	539.6
239.641	521.2
240.021	534
240.402	529.4
240.783	532.8
241.163	534.8
241.544	535.4
241.925	538.2
242.306	548
242.687	530.2
243.069	532.6
243.45	548.2
243.831	525.4
244.212	525
244.594	560.2
244.975	539.8
245.357	533.8
245.739	523.6
246.12	529.8
246.502	540.8
246.884	536
247.266	530
247.648	534.2
248.03	545.2
248.412	534.4
248.794	527.6
249.176	529.8
249.559	531.8
249.941	523
250.323	519.8
250.706	526.8
251.089	526.2
251.471	529.2
251.854	528.4
252.237	539.8
252.62	537.4
253.002	537.8
253.385	535.2
253.769	538.6
254.152	537.6
254.535	546.4
254.918	526.8
255.301	528.8
255.685	533.6
256.068	533
256.452	551
256.835	537.4
257.219	529.8
257.603	541.6
257.986	530
258.37	537.4
258.754	526.8
259.138	541.8
259.522	538.6
259.906	520.6
260.29	531.2
260.675	528.8
261.059	538.4
261.443	523
261.828	539.4
262.212	537.4
262.597	523
262.981	526.4
263.366	542.4
263.751	536.8
264.136	525.4
264.521	521
264.906	525.6
265.291	544.4
265.676	533.2
266.061	539
266.446	547.8
266.831	532.8
267.217	545.4
267.602	539
267.987	532.6
268.373	525.4
268.759	535.6
269.144	535.6
269.53	523
269.916	526.8
270.302	531.4
270.688	537.4
271.074	536.2
271.46	531.2
271.846	559.4
272.232	528.6
272.618	523.4
273.004	528
273.391	533.4
273.777	548
274.164	532.2
274.55	538.4
274.937	529.2
275.324	530.6
275.71	535.6
276.097	533.2
276.484	528.8
276.871	532
277.258	532.2
277.645	521.2
278.032	526.8
278.419	531.6
278.807	541.4
279.194	521.8
279.581	526.4
279.969	541.4
280.356	528.6
280.744	537
281.131	552.2
281.519	536
281.907	523
282.295	526
282.682	539.8
283.07	532
283.458	538
283.846	544.8
284.235	534.2
284.623	535.4
285.011	524
285.399	527
285.788	526.2
286.176	529.4
286.565	551.4
286.953	521.8
287.342	528.8
287.731	522
288.119	524
288.508	530.4
288.897	529.4
289.286	522.8
289.675	531.6
290.064	545.6
290.453	529.2
290.821	525.6
291.21	543.6
291.599	529.2
291.989	541.6
292.378	537
292.768	548.2
293.157	532.8
293.547	539.4
293.936	536.4
294.326	528.6
294.716	534
295.106	530.6
295.496	534.8
295.886	539.4
296.276	529.8
296.666	527.8
297.056	524.6
297.446	521.2
297.836	544.4
298.227	532.2
298.617	539.8
299.008	543.8
299.398	524.4
299.789	536.4
300.179	535.6
300.57	547
300.961	526.8
301.352	536.4
301.742	538.6
302.133	524.8
302.524	530
302.915	533
303.307	530.2
303.698	550.6
304.089	536.6
304.48	529.4
304.872	536.8
305.263	524.8
305.655	530.4
306.046	542.8
306.438	532
306.829	528.4
307.221	546
307.613	538.6
308.005	540.2
308.397	542.6
308.789	540.2
309.181	552.4
309.573	547.8
309.965	547.4
310.357	533.2
310.749	543.8
311.142	521.8
311.534	527.8
311.926	536
312.319	536.2
312.711	526.4
313.104	548.2
313.497	533.4
313.889	560
314.282	548
314.675	553.6
315.068	533.2
315.461	538.8
315.854	554.2
316.247	535.2
316.64	532
317.033	535.4
317.405	540.8
317.798	531.8
318.192	533.4
318.585	529.8
318.979	534.2
319.372	527.8
319.766	526.2
320.16	545.6
320.553	546
320.947	551.8
321.341	532.2
321.735	532.2
322.129	518
322.523	554.6
322.917	529.6
323.311	541
323.705	528.6
324.099	536.8
324.494	543.6
324.888	536.6
325.282	527.6
325.677	538.4
326.071	533.8
326.466	549.6
326.861	538.6
327.255	536.2
327.65	538.2
328.045	539.2
328.44	532
328.835	531.2
329.23	527.8
329.625	547.6
330.02	532.6
330.415	555
330.81	527.6
331.206	534.6
331.601	523.6
331.996	539.2
332.37	545.6
332.766	522.2
333.161	550
333.557	521
333.953	527.8
334.348	781.2
334.744	530.8
335.14	522.2
335.536	528.6
335.932	541.6
336.328	527.6
336.724	541.4
337.12	528.4
337.516	534
337.913	535.6
338.309	545.8
338.705	532
339.102	537.4
339.498	537.6
339.895	540.2
340.291	532
340.688	538.6
341.085	528.4
341.481	530
341.878	530.2
342.275	547.2
342.672	525.8
343.069	521
343.466	514.6
343.842	534.2
344.239	526.4
344.636	533
345.033	523.8
345.431	523.2
345.828	531
346.225	517.6
346.623	553.2
347.02	532.8
347.418	535.8
347.816	535
348.213	523.2
348.611	537.6
349.009	524.4
349.407	533.4
349.805	523.6
350.203	510.4
350.601	535.6
350.999	527.6
351.397	582.2
351.795	524.2
352.193	534.6
352.57	537.8
352.969	539.6
353.367	529.8
353.766	526.8
354.164	523.8
354.563	542.8
354.961	533.6
355.36	522.6
355.759	529
356.158	520.6
356.557	522.8
356.956	525.4
357.355	520.4
357.754	531.4
358.153	538.6
358.552	544
358.951	526.4
359.35	534.2
359.75	522.6
360.149	523
360.527	523.2
360.926	521
361.326	522
361.726	532.8
362.125	527.2
362.525	537.4
362.925	517.6
363.325	530
363.724	529.6
364.124	519.8
364.524	522
364.924	531.8
365.324	536.2
365.725	510.8
366.125	528
366.525	526.4
366.904	526.6
367.304	512.4
367.705	542.2
368.105	540.8
368.506	523.4
368.906	523
369.307	529.6
369.708	526.4
370.108	511.6
370.509	529.8
370.91	513.2
371.311	527.8
371.712	522.6
372.113	518.6
372.514	515.4
372.894	524.6
373.295	520.6
373.696	527.8
374.097	530.6
374.499	553
374.9	529.6
375.301	520.4
375.703	526.8
376.105	521.6
376.506	524.8
376.908	525.2
377.309	523.6
377.711	526.2
378.113	511.6
378.493	527.4
378.895	519.8
379.297	530.2
379.699	506
380.102	521.6
380.504	523.2
380.906	525
381.308	545.2
381.71	524.4
382.113	534.6
382.515	520.2
382.918	527.4
383.299	515.8
383.701	527.6
384.104	532.8
384.507	508
384.909	523.4
385.312	514.8
385.715	512.6
386.118	521.2
386.521	515.4
386.924	536.8
387.327	515.2
387.709	507
388.112	524.8
388.515	526.8
388.918	523.6
389.322	526.2
389.725	523.4
390.129	544.8
390.532	529
390.936	525.6
391.339	520.2
391.743	523.2
392.125	519.6
392.529	526.8
392.933	536.4
393.337	523.8
393.74	523
394.144	522.4
394.548	527
394.953	528
395.357	528.6
395.761	516.8
396.144	524
396.548	525
396.952	532.8
397.357	520.8
397.761	519.8
398.166	523.2
398.57	517.8
398.975	521
399.379	530.2
399.763	570
400.168	521.6
400.572	519.4
400.977	528
401.382	540.8
401.787	537.2
402.192	535.4
402.597	532.4
403.002	514.6
403.386	533.6
403.791	538
404.197	514.2
404.602	521.4
405.007	521.6
405.413	524.2
405.818	523.6
406.224	522.8
406.608	524.8
407.014	519.2
407.42	538.2
407.825	524.4
408.231	533.4
408.637	527.2
409.043	536.8
409.449	520.4
409.834	522.8
410.24	526.8
410.646	533.2
411.052	534.8
411.458	524.2
411.865	534.8
412.271	535.4
412.677	525.4
413.062	532.8
413.469	524
413.875	553.6
414.282	535.8
414.689	535.2
415.095	531
415.502	524
415.888	526
416.294	516.8
416.701	550.6
417.108	519.4
417.515	536
417.923	528.8
418.33	543.6
418.715	531.2
419.123	521.6
419.53	520.8
419.937	520.2
420.345	537.8
420.752	525.6
421.16	534.2
421.546	526.4
421.953	525.8
422.361	519
422.769	525
423.177	523.6
423.585	543
423.992	542.6
424.379	534.4
424.787	532.8
425.195	536.8
425.603	524
426.011	533.8
426.419	537.2
426.806	524.6
427.214	534.6
427.623	538.8
428.031	546.2
428.44	536.4
428.848	553.6
429.235	555.8
429.644	555.2
430.053	559.4
430.461	582.2
430.87	603.8
431.279	590.8
431.666	586.8
432.075	610.8
432.484	624.8
432.893	647.8
433.302	654.4
433.711	714.8
434.099	691
434.508	703.4
434.918	717.6
435.327	759.8
435.737	777.4
436.125	794.4
436.534	811
436.944	838.2
437.353	863.6
437.763	891.4
438.173	888.6
438.561	918.8
438.971	936.2
439.381	963.4
439.791	992.6
440.201	997.6
440.589	1016.2
440.999	1045
441.409	1069.4
441.819	1068.8
442.23	1088
442.619	1098.6
443.029	1117.2
443.439	1124.2
443.85	1116.8
444.26	1153.6
444.649	1157.6
445.06	1165.6
445.471	1175.6
445.881	1202.6
446.292	1226.4
446.682	1223.2
447.092	1212.8
447.503	1262.4
447.914	1230
448.325	1232.4
448.715	1240.8
449.126	1233.8
449.537	1244.8
449.948	1251.6
450.338	1282
450.75	1279.4
451.161	1293
451.572	1294.4
451.984	1296.8
452.374	1282.6
452.786	1307
453.197	1318.2
453.609	1310
453.999	1303.8
454.411	1309.6
454.823	1323.4
455.235	1322.2
455.647	1324.4
456.037	1325.4
456.449	1312.2
456.862	1331
457.274	1327
457.665	1322.6
458.077	1321.6
458.489	1352.2
458.902	1340
459.293	1332.8
459.705	1331
460.118	1324.8
460.53	1325.4
460.921	1325.8
461.334	1338.6
461.747	1334.6
462.16	1349
462.551	1336.2
462.964	1341.8
463.377	1325
463.79	1323.4
464.182	1336.8
464.595	1323.2
465.008	1342.6
465.421	1322.4
465.813	1325
466.226	1329.4
466.64	1338.2
467.053	1370.8
467.445	1364.8
467.859	1353.6
468.272	1354
468.686	1358.2
469.078	1350.8
469.492	1333
469.906	1343.2
470.298	1343.4
470.712	1343.8
471.126	1352.2
471.54	1315.4
471.933	1327
472.347	1315.2
472.761	1334.8
473.175	1318
473.568	1312.6
473.982	1308.6
474.397	1313
474.79	1314.2
475.204	1310.8
475.619	1294.4
476.033	1283.8
476.426	1277.4
476.841	1281.2
477.256	1300.6
477.649	1265.4
478.064	1275.2
478.479	1262
478.872	1266.8
479.287	1265.2
479.702	1268
480.118	1253.8
480.511	1260.4
480.927	1250.6
481.342	1244.8
481.736	1238.6
482.151	1237.2
482.566	1247.4
482.96	1245
483.376	1235.4
483.792	1232.4
484.186	1223.6
484.602	1216
485.017	1210.8
485.412	1215.6
485.827	1214.2
486.243	1205.4
486.638	1202.4
487.054	1197.2
487.47	1199.2
487.865	1178
488.281	1160.8
488.697	1160.4
489.092	1174.6
489.508	1155.4
489.925	1178.4
490.32	1147
490.736	1161.8
491.153	1149
491.548	1162.4
491.964	1137.4
492.381	1115.2
492.776	1121.4
493.193	1121.6
493.61	1118.8
494.006	1118.4
494.422	1109.4
494.84	1097.2
495.235	1103.8
495.652	1084.8
496.069	1095.8
496.465	1090.2
496.883	1086.2
497.3	1080
497.696	1056.2
498.113	1058.4
498.509	1043.4
498.927	1051
499.344	1051.4
499.741	1036.2
500.158	1053.6
500.576	1049.6
500.973	1033.4
501.39	1016.4
501.787	1008.8
502.205	1016.6
502.623	999.6
503.02	998
503.438	989.6
503.856	979.2
504.253	986
504.671	984.6
505.068	976.6
505.486	975.2
505.905	996.4
506.302	956.8
506.72	974
507.118	956.8
507.536	946
507.955	954.6
508.352	952.8
508.771	935.4
509.169	943.2
509.587	935.8
510.006	932.8
510.404	913
510.823	921.4
511.221	913.6
511.64	910.2
512.038	917.2
512.457	898.2
512.877	902.4
513.275	892.6
513.694	895
514.092	883.6
514.512	889.4
514.91	882
515.33	875.8
515.749	870.2
516.148	881
516.568	865.4
516.966	852.8
517.386	846.6
517.785	852.6
518.205	852.6
518.603	827
519.024	845.2
519.444	843.6
519.843	838.6
520.263	829
520.662	826.6
521.082	819.6
521.481	814
521.902	813.6
522.301	805.2
522.722	809.4
523.121	802
523.542	802.6
523.963	802.2
524.362	791.2
524.783	790.2
525.183	794.6
525.604	787.4
526.003	783.2
526.425	772.6
526.824	778
527.246	782.2
527.646	779.6
528.067	773.6
528.467	760.6
528.888	762.4
529.289	754.8
529.71	757.2
530.11	752.8
530.532	743.8
530.932	740
531.354	734.4
531.755	768.6
532.176	738.6
532.577	729.2
532.999	731.4
533.4	730.2
533.822	743
534.223	723.6
534.645	709.4
535.046	720.2
535.468	718.8
535.869	729
536.292	706.2
536.693	746.8
537.115	710.6
537.516	708
537.939	697.4
538.34	715
538.742	712.4
539.165	707.6
539.566	695
539.989	687.4
540.391	690.4
540.814	695
541.216	699.4
541.639	697.6
542.041	689.8
542.464	685
542.866	675.8
543.268	685.6
543.691	690.4
544.093	683.4
544.517	686
544.919	681.4
545.343	693.6
545.745	671.6
546.147	671
546.571	665
546.974	653.8
547.398	663.6
547.8	673.6
548.224	658.4
548.627	646
549.03	666.6
549.454	651
549.857	645.2
550.281	652.4
550.684	653.6
551.087	656.2
551.512	648.8
551.915	650.2
552.34	643.6
552.743	643
553.146	641.4
553.571	633.6
553.975	650.8
554.399	625.6
554.803	673
555.207	623.2
555.632	623.6
556.036	626.2
556.461	626.4
556.865	622.2
557.268	621.8
557.694	623
558.098	632.6
558.502	618.6
558.927	611.4
559.332	615.2
559.736	611
560.162	615.4
560.566	609.4
560.992	626.4
561.396	605.6
561.801	595.8
562.227	614.6
562.631	605.4
563.036	602.8
563.462	616
563.867	601.2
564.272	598.8
564.698	605.4
565.103	588
565.508	608
565.935	600.4
566.34	597.8
566.745	602.6
567.172	590
567.577	603.8
567.982	605.4
568.409	595.8
568.815	579.2
569.22	585.2
569.626	602
570.053	581.2
570.459	599.2
570.865	594.6
571.292	590.4
571.698	589.2
572.104	564.8
572.531	569.6
572.937	590.6
573.343	586.8
573.75	570.2
574.177	577.2
574.583	576.8
574.99	571.4
575.396	577.6
575.824	566.2
576.231	575.8
576.637	565.4
577.065	594
577.472	568.6
577.879	574.6
578.286	576.2
578.714	567.4
579.121	575
579.528	574.4
579.935	577.2
580.364	568
580.771	560.2
581.178	562.8
581.585	563.6
582.014	564.2
582.421	569
582.829	555.2
583.236	563.4
583.644	551.6
584.073	558.4
584.481	562.6
584.889	551.6
585.296	559.4
585.726	561
586.134	556.4
586.542	551.8
586.95	563.8
587.358	551.8
587.787	554.8
588.196	557
588.604	549.2
589.012	554.6
589.421	541.6
589.851	540.8
590.259	551.4
590.668	544.6
591.076	588.4
591.485	541.2
591.894	547.4
592.324	556.4
592.733	555
593.142	541.4
593.551	548.4
593.96	546.6
594.369	543.2
594.8	542.2
595.209	539.6
595.618	530.6
596.028	543.4
596.437	543.6
596.847	546.6
597.256	544.6
597.687	544.4
598.097	541.4
598.507	532.2
598.917	544
599.327	539.2
599.736	545
600.146	541.6
600.556	544.4
600.988	547.6
601.398	535.6
601.808	539.8
602.219	525
602.629	537.4
603.039	537
603.45	550.8
603.86	525.8
604.271	542
604.703	530.8
605.114	528.4
605.525	537.4
605.935	532.2
606.346	550.6
606.757	535.4
607.168	526.8
607.579	526.4
607.99	531.8
608.402	527.4
608.813	536
609.224	523.4
609.636	525.2
610.047	519.4
610.48	537.2
610.892	529.4
611.303	531.8
611.715	533.4
612.127	513.4
612.539	530.2
612.95	531
613.362	511.2
613.774	519
614.186	519
614.599	520.2
615.011	532.8
615.423	520.6
615.835	529.6
616.248	522.6
616.66	530.4
617.073	515
617.485	531.2
617.898	531.4
618.311	524
618.723	526.2
619.136	546
619.549	532.8
619.962	542.8
620.375	518.8
620.788	526.6
621.201	523.2
621.614	533.4
622.028	532.6
622.441	532.4
622.854	542
623.268	525
623.681	532.6
624.095	522.2
624.509	537.6
624.922	528
625.336	518.4
625.728	524.8
626.142	530.2
626.556	544.6
626.97	532.4
627.384	520
627.799	516.8
628.213	524.6
628.627	519.2
629.041	519.2
629.456	513.6
629.87	520.8
630.285	529.4
630.699	528.4
631.093	518.8
631.507	529.6
631.922	525
632.337	531.4
632.752	514.2
633.167	526.2
633.582	512.2
633.997	511.8
634.412	514
634.806	531.4
635.221	505.4
635.637	531
636.052	519.4
636.468	514
636.883	532.2
637.299	522.4
637.715	510.2
638.109	523.2
638.525	512.2
638.941	529.8
639.357	530.8
639.773	535.8
640.189	514.2
640.584	517.8
641	519
641.416	504.4
641.832	516
642.249	518.4
642.665	521.6
643.06	523.6
643.477	522.8
643.894	501.4
644.31	519.2
644.727	513.8
645.123	515.2
645.54	504
645.957	523.4
646.374	530
646.77	513.8
647.187	537.2
647.604	516.2
648.021	506.4
648.439	511
648.835	517.8
649.252	517.2
649.67	515.4
650.088	513.8
650.484	512.6
650.902	517
651.32	523
651.738	507.6
652.134	518.4
652.552	533.8
652.971	520.8
653.389	516.4
653.786	525.4
654.204	509.2
654.622	505
655.019	512.2
655.438	510.6
655.857	510.4
656.275	520
656.673	505
657.091	513.2
657.51	503.8
657.908	518.8
658.327	514.6
658.746	505.8
659.144	503.6
659.563	519.6
659.982	513.4
660.38	503.4
660.8	508.2
661.219	513.4
661.617	518
662.037	510.8
662.457	521.4
662.855	499
663.275	533
663.695	509.8
664.094	499.6
664.514	510.2
664.934	498.8
665.333	513.6
665.753	503.8
666.152	512
666.572	500.8
666.993	522.8
667.392	501.6
667.812	509.8
668.212	503.6
668.632	517.6
669.053	506
669.453	514
669.874	518
670.273	507.6
670.694	500.6
671.116	513.6
671.515	518
671.937	503.6
672.337	504
672.758	504
673.158	507.8
673.58	510
673.98	514
674.402	521.4
674.824	502
675.224	504
675.646	503.6
676.047	499.6
676.469	505.6
676.869	519
677.292	510
677.693	502
678.115	500.8
678.516	513.6
678.939	506.2
679.34	503.4
679.762	518.6
680.164	510.2
680.586	503.6
680.988	508
681.411	529.2
681.812	502.4
682.236	504
682.637	494.4
683.061	498.4
683.462	505.8
683.864	506.4
684.288	505.6
684.69	494.4
685.114	515.6
685.516	509
685.94	494.6
686.342	506.8
686.766	500.6
687.168	501.6
687.571	517
687.995	509.2
688.398	494.8
688.822	499.2
689.225	521.8
689.628	513.4
690.052	506
690.456	509.2
690.88	503.6
691.284	497
691.687	507.4
692.112	498.4
692.515	496.2
692.919	504.4
693.344	502.8
693.747	506.8
694.173	504.2
694.577	509.6
694.98	506.4
695.406	502.8
695.81	514
696.214	505.4
696.64	508.4
697.044	515.4
697.448	505.8
697.874	504.4
698.279	501.8
698.684	499.6
699.11	510.4
699.514	502.8
699.919	504.4
700.324	495.4
700.75	502.6
701.156	506.6
701.561	509.4
701.987	505
702.393	514.4
702.798	516.6
703.203	504.6
703.63	498
704.036	502.2
704.442	501
704.847	496.2
705.274	500.2
705.68	509.2
706.086	517
706.492	497.8
706.92	502.6
707.326	512.4
707.732	494
708.139	494.6
708.545	487.4
708.973	494.8
709.38	501.6
709.786	493.6
710.193	513.6
710.6	504.4
711.028	491.8
711.435	498.4
711.842	495.8
712.249	494.8
712.656	497
713.064	506.8
713.492	503.8
713.9	502.6
714.307	502
714.715	495
715.123	512.2
715.53	504.6
715.938	507.2
716.367	499.8
716.775	493
717.184	491.4
717.592	497
718	509
718.408	531.4
718.816	537.2
719.225	512.6
719.633	498.8
720.042	489.8
720.472	495.6
720.881	520.2
721.29	499.2
721.699	491.8
722.108	506.8
722.517	496.4
722.926	501
723.335	504
723.744	501
724.154	497.6
724.563	500.8
724.973	504.4
725.382	505.4
725.792	495
726.202	482.8
726.612	504.6
727.022	496.4
727.432	498.8
779.813	492.8
780.223	529
780.634	495.8
781.044	486.4
781.454	491.6
781.865	508.6
782.276	487.4
782.686	498.4
783.097	496.6
783.508	497.4
783.919	501.6
784.33	513
784.741	518.2
785.152	491.8
785.563	489
785.974	491.6
786.386	508
786.776	498.8
787.188	493
787.599	491
788.011	504.6
788.423	505
788.835	496
789.247	496.2
789.659	493.4
790.071	501.2
790.483	530.6
790.874	492.2
791.286	498.2
791.699	493.4
792.111	495.8
792.524	505.4
792.937	495.4
793.349	496.6
793.741	492.2
794.154	492.2
794.567	515
794.98	496.8
795.393	493.8
795.785	507.2
796.198	497.8
796.612	497.6
797.026	502.6
797.439	489.2
797.831	504.2
798.245	497.4
798.659	490
799.073	498
799.487	487.6
799.88	498.8
800.294	493.4
800.708	501.4
801.123	495.4
801.516	515
801.93	486.4
802.345	490.4
802.76	495.6
803.153	502.6
803.568	509
803.983	507.6
804.377	497.4
804.792	483.4
805.207	490
805.601	503.4
806.016	524.4
806.432	489.6
806.826	519
807.242	499.6
807.658	491.6
808.052	494.6
808.468	489.4
808.884	496
809.279	495
809.695	504.2
810.111	508.2
810.506	497.2
810.922	511
811.339	497
811.734	502
812.151	489
812.546	499.6
812.963	497.2
813.38	496
813.776	499
814.193	512.6
814.589	498.4
815.006	494.6
815.402	488.4
815.82	492.2
816.237	495.8
816.633	503
817.051	493
817.448	490.6
817.866	480.8
818.262	518.6
818.68	493.8
819.077	488.2
819.495	490
819.892	527.2
820.311	496.8
820.708	484.6
821.127	491.2
821.524	496.2
821.943	495.8
822.34	506.6
822.759	496.4
823.157	497
823.576	507.2
823.974	493.4
824.393	553.8
824.791	498.2
825.189	497
825.609	498.2
826.007	503.8
826.427	489.8
826.826	495.4
827.246	501.6
827.644	487.8
828.043	500.4
828.463	494.2
828.862	498.8
829.261	507.2
829.682	488.6
830.081	501.2
830.502	491.2
830.901	499.8
831.301	490.6
831.722	491
832.121	495.8
832.521	499.8
832.943	498.2
833.342	502
833.742	484.4
834.164	492
834.564	491.2
834.965	495.8
835.386	492.8
835.787	492.6
836.188	499.2
836.588	497.8
837.01	495.2
837.411	496.2
837.812	504.4
838.213	498.2
838.636	489.8
839.037	553.8
839.438	493.2
839.84	501
840.263	510.4
840.664	501.4
841.066	492.6
841.468	503.6
841.891	490.8
842.293	507.2
842.695	501.8
843.098	505
843.5	486
843.902	499.4
844.326	497.4
844.729	498.2
845.131	507.2
845.534	495.2
845.937	506.8
846.34	510.4
846.764	492.2
847.167	500.4
847.571	496.8
847.974	499.4
848.377	492.4
848.781	542.2
849.184	502.2
849.588	494.6
849.992	492.6
850.396	496.4
850.821	510
851.225	500.6
