#lambda/nm	C1
208.295	463
208.67	431.6
209.045	391.4
209.419	396.2
209.794	540
210.169	514.4
210.544	621.6
210.919	530
211.295	530.4
211.67	527
212.045	526.4
212.421	532.2
212.796	554
213.172	524.6
213.547	532.2
213.923	529.8
214.299	528
214.675	530.8
215.051	532.6
215.427	537.2
215.803	544.4
216.179	539.4
216.555	526
216.932	530.8
217.308	532.2
217.684	523.2
218.061	531.6
218.438	529
218.814	527.2
219.191	527.8
219.568	522.6
219.945	525.6
220.322	535.6
220.699	532.8
221.076	536.2
221.453	527.2
221.83	525.4
222.208	531.4
222.585	519.6
222.962	527.8
223.34	530.8
223.717	531.8
224.095	523.8
224.473	532.2
224.851	526
225.229	521
225.607	539.4
225.985	523.6
226.363	536.2
226.741	530
227.119	521.6
227.497	543.4
227.876	516.4
228.254	536
228.633	538.4
229.011	528.4
229.39	535.2
229.769	533.2
230.148	536
230.527	548.6
230.905	535.6
231.284	535.6
231.664	522.6
232.043	541.8
232.422	541.8
232.801	533.2
233.181	535
233.56	530
233.94	531.6
234.319	519.2
234.699	530.8
235.079	561.4
235.458	560
235.838	554.6
236.218	529
236.598	522.2
236.978	523.6
237.358	521.2
237.738	524.8
238.119	531.6
238.499	524.4
238.88	529.6
239.26	541.2
239.641	518.6
240.021	532.6
240.402	531.4
240.783	530
241.163	532.4
241.544	535.8
241.925	539
242.306	548.8
242.687	529.6
243.069	537
243.45	531
243.831	524.8
244.212	539.4
244.594	562.2
244.975	537
245.357	536.8
245.739	530
246.12	536.2
246.502	545.2
246.884	528.2
247.266	521.6
247.648	526.8
248.03	545.8
248.412	529.4
248.794	541
249.176	525.6
249.559	540.4
249.941	529.8
250.323	526.8
250.706	527.4
251.089	530.4
251.471	528
251.854	524.2
252.237	535
252.62	536.2
253.002	529.2
253.385	529.6
253.769	541.4
254.152	528.2
254.535	534.2
254.918	515.8
255.301	528.2
255.685	527.8
256.068	524.6
256.452	546.6
256.835	537.4
257.219	533
257.603	536.4
257.986	522.6
258.37	534.6
258.754	522.2
259.138	531.2
259.522	545
259.906	528.4
260.29	536.4
260.675	536.4
261.059	530.2
261.443	518.6
261.828	537.4
262.212	529.4
262.597	527.6
262.981	528.2
263.366	533.6
263.751	527.8
264.136	524.4
264.521	531
264.906	522.6
265.291	546.2
265.676	532.4
266.061	536.6
266.446	545.6
266.831	530.4
267.217	547.6
267.602	533.8
267.987	536.4
268.373	527
268.759	543
269.144	541.2
269.53	532.8
269.916	528.2
270.302	530
270.688	529.2
271.074	533.8
271.46	545.2
271.846	561.6
272.232	535.4
272.618	529.2
273.004	530.8
273.391	545.8
273.777	537.4
274.164	535.2
274.55	536.6
274.937	531.4
275.324	522.8
275.71	530.2
276.097	534
276.484	527.8
276.871	528.2
277.258	532.4
277.645	523.2
278.032	524.6
278.419	532
278.807	530.4
279.194	519.8
279.581	522.8
279.969	531.6
280.356	531.6
280.744	530.4
281.131	552.4
281.519	538.4
281.907	526.6
282.295	529.8
282.682	533.6
283.07	540.4
283.458	537.6
283.846	534.2
284.235	530.8
284.623	540.2
285.011	523.6
285.399	529.4
285.788	522.8
286.176	519.8
286.565	543.6
286.953	522.2
287.342	525.8
287.731	527
288.119	521
288.508	531.6
288.897	529.2
289.286	522.4
289.675	527.6
290.064	544.2
290.453	525.2
290.821	525.6
291.21	542.6
291.599	521
291.989	532.8
292.378	535.2
292.768	543.4
293.157	534.2
293.547	542
293.936	531.6
294.326	531.4
294.716	535.8
295.106	523.2
295.496	535.6
295.886	533.2
296.276	528.8
296.666	521.6
297.056	524.6
297.446	519.8
297.836	537
298.227	527.4
298.617	536.2
299.008	538.2
299.398	527.4
299.789	522.2
300.179	529.2
300.57	540.6
300.961	534.6
301.352	531
301.742	535.8
302.133	537.6
302.524	529
302.915	535
303.307	525.4
303.698	538
304.089	534.2
304.48	532.2
304.872	535.2
305.263	538
305.655	533.6
306.046	534
306.438	529.2
306.829	525.4
307.221	539.4
307.613	536.4
308.005	547.8
308.397	545.4
308.789	542.4
309.181	550.4
309.573	548.2
309.965	536.4
310.357	526.8
310.749	538.6
311.142	521
311.534	524.8
311.926	529
312.319	525.8
312.711	528.8
313.104	537
313.497	527.8
313.889	570.2
314.282	540
314.675	546.6
315.068	526.4
315.461	531.4
315.854	555.8
316.247	536.6
316.64	533.2
317.033	530.6
317.405	537.2
317.798	522.2
318.192	533
318.585	511.8
318.979	531
319.372	521.4
319.766	522
320.16	539.8
320.553	537.6
320.947	541.6
321.341	529
321.735	530.4
322.129	519.8
322.523	547
322.917	525
323.311	536.8
323.705	526.8
324.099	534.8
324.494	545
324.888	534.6
325.282	527.4
325.677	544.2
326.071	537.2
326.466	539.8
326.861	541.8
327.255	548.4
327.65	546.2
328.045	547.4
328.44	535.8
328.835	535.4
329.23	524.8
329.625	546.2
330.02	533.8
330.415	547.6
330.81	530
331.206	536.2
331.601	529.4
331.996	535.2
332.37	551.4
332.766	516.8
333.161	550.2
333.557	534.2
333.953	539.4
334.348	820.2
334.744	533
335.14	526.6
335.536	534
335.932	538
336.328	534.2
336.724	535.8
337.12	531.2
337.516	536.8
337.913	535.4
338.309	542.8
338.705	535.4
339.102	539.8
339.498	527.8
339.895	540.6
340.291	525
340.688	539
341.085	528.8
341.481	525.8
341.878	530.2
342.275	553.2
342.672	517.8
343.069	522.4
343.466	523.8
343.842	536
344.239	519.8
344.636	534.8
345.033	530.4
345.431	526.8
345.828	529.2
346.225	529.4
346.623	552
347.02	535
347.418	535.8
347.816	539.6
348.213	522
348.611	533.4
349.009	526
349.407	532.8
349.805	518
350.203	519.4
350.601	533.6
350.999	522.8
351.397	560
351.795	527.6
352.193	535
352.57	538.4
352.969	531
353.367	518
353.766	522.6
354.164	523.4
354.563	534.8
354.961	531.2
355.36	517
355.759	520
356.158	527
356.557	518.8
356.956	522.8
357.355	521.6
357.754	531.4
358.153	526.2
358.552	545.8
358.951	522.6
359.35	533.8
359.75	520.8
360.149	516.8
360.527	515.6
360.926	514.4
361.326	533.8
361.726	526.8
362.125	517.6
362.525	530.6
362.925	522.8
363.325	524
363.724	526.2
364.124	523.6
364.524	519.4
364.924	525.8
365.324	539.4
365.725	520.6
366.125	533
366.525	523.8
366.904	522
367.304	505.8
367.705	531.2
368.105	539.8
368.506	521.8
368.906	524.6
369.307	531.6
369.708	529.4
370.108	519.8
370.509	525
370.91	525
371.311	525.6
371.712	522.4
372.113	524.4
372.514	513.8
372.894	526
373.295	509.2
373.696	528.4
374.097	526.8
374.499	544.4
374.9	520
375.301	521.2
375.703	529.4
376.105	513.8
376.506	525.6
376.908	538
377.309	527.4
377.711	520.8
378.113	520.8
378.493	524.8
378.895	514.6
379.297	527.2
379.699	521.6
380.102	529.8
380.504	521
380.906	522.8
381.308	547.4
381.71	520.2
382.113	535
382.515	519.8
382.918	527
383.299	517.8
383.701	532.2
384.104	527.8
384.507	515
384.909	527.4
385.312	513.8
385.715	518.4
386.118	524.6
386.521	512.4
386.924	527.8
387.327	517
387.709	511
388.112	506.6
388.515	519.6
388.918	518.6
389.322	524.6
389.725	524.8
390.129	540.4
390.532	533
390.936	522
391.339	510.4
391.743	523.8
392.125	513
392.529	533.8
392.933	531.4
393.337	522
393.74	517.4
394.144	520.6
394.548	521.2
394.953	525.6
395.357	524.2
395.761	515
396.144	520.8
396.548	522.8
396.952	522.6
397.357	527.8
397.761	524.8
398.166	516.6
398.57	524.6
398.975	519.6
399.379	520.4
399.763	564.6
400.168	519.8
400.572	514.2
400.977	516.2
401.382	541.4
401.787	529.4
402.192	529.6
402.597	531.2
403.002	521
403.386	533.2
403.791	535.4
404.197	518
404.602	525
405.007	520.4
405.413	513.2
405.818	520.2
406.224	517
406.608	521
407.014	509.4
407.42	530.2
407.825	517.8
408.231	525.6
408.637	526.6
409.043	528
409.449	517.4
409.834	522.2
410.24	524
410.646	533.4
411.052	531.4
411.458	523.4
411.865	530.6
412.271	530.4
412.677	529.6
413.062	519.4
413.469	519.6
413.875	540
414.282	527.4
414.689	516.6
415.095	527.4
415.502	514.6
415.888	519.4
416.294	503.2
416.701	552.4
417.108	517.4
417.515	523.2
417.923	518.2
418.33	542.2
418.715	529.4
419.123	513.8
419.53	510.4
419.937	519.4
420.345	532.4
420.752	522.2
421.16	540.6
421.546	530.6
421.953	529.4
422.361	515
422.769	524.6
423.177	515
423.585	539.4
423.992	541
424.379	529
424.787	538.4
425.195	543.4
425.603	527.2
426.011	527.2
426.419	536
426.806	525.6
427.214	527.4
427.623	528.8
428.031	536
428.44	524.6
428.848	533.2
429.235	531.4
429.644	519.4
430.053	528.8
430.461	536.2
430.87	542
431.279	527.4
431.666	525
432.075	523
432.484	529
432.893	523.8
433.302	535.6
433.711	559.4
434.099	525.4
434.508	524.6
434.918	512.8
435.327	523
435.737	524.8
436.125	523.2
436.534	524.8
436.944	520.8
437.353	526.4
437.763	539.8
438.173	512.8
438.561	529.4
438.971	511.2
439.381	512.4
439.791	525.2
440.201	516
440.589	519.4
440.999	527.8
441.409	519.8
441.819	512.6
442.23	526.4
442.619	525.8
443.029	527.6
443.439	521
443.85	528.6
444.26	524.8
444.649	530
445.06	526
445.471	512
445.881	531
446.292	533
446.682	545
447.092	509.4
447.503	566.2
447.914	523
448.325	520
448.715	521.6
449.126	519.4
449.537	519
449.948	524.4
450.338	523.2
450.75	522.2
451.161	519.4
451.572	529.6
451.984	518.6
452.374	504.8
452.786	517.6
453.197	520.6
453.609	525.2
453.999	515.4
454.411	512
454.823	528.8
455.235	522
455.647	520
456.037	521.2
456.449	511.8
456.862	524.4
457.274	524.4
457.665	515
458.077	526.2
458.489	546.4
458.902	520.2
459.293	526.8
459.705	519.2
460.118	519.2
460.53	525
460.921	514.4
461.334	520
461.747	520.6
462.16	530.8
462.551	532
462.964	529.4
463.377	510.4
463.79	521.2
464.182	537.4
464.595	511.8
465.008	520.2
465.421	520
465.813	516
466.226	529
466.64	513.8
467.053	548.6
467.445	529
467.859	531.8
468.272	525.8
468.686	520
469.078	517
469.492	512.6
469.906	519.6
470.298	520.8
470.712	505.2
471.126	531.6
471.54	512.2
471.933	512.2
472.347	512.4
472.761	512.6
473.175	507.2
473.568	515.8
473.982	507.4
474.397	518.8
474.79	515
475.204	516
475.619	519.8
476.033	515
476.426	518.6
476.841	513.6
477.256	538.2
477.649	505.2
478.064	509
478.479	507.8
478.872	509.4
479.287	506.8
479.702	509.6
480.118	514.6
480.511	508.2
480.927	518
481.342	513
481.736	517.2
482.151	512.4
482.566	525.2
482.96	508.6
483.376	521.4
483.792	507
484.186	524.6
484.602	513
485.017	517.4
485.412	523
485.827	513.6
486.243	510.6
486.638	530
487.054	515.8
487.47	528.4
487.865	509.4
488.281	508.2
488.697	501.8
489.092	511.2
489.508	512.8
489.925	516.4
490.32	509.6
490.736	520.2
491.153	519.4
491.548	513.6
491.964	520.6
492.381	498.6
492.776	523.2
493.193	511.6
493.61	516
494.006	513.8
494.422	519.4
494.84	507.4
495.235	517.2
495.652	513.6
496.069	512.2
496.465	510.2
496.883	514
497.3	535
497.696	511
498.113	519.8
498.509	510.4
498.927	508
499.344	510.2
499.741	509.4
500.158	516.2
500.576	524.2
500.973	516
501.39	505.8
501.787	501
502.205	512.4
502.623	508
503.02	499.2
503.438	509.6
503.856	509.8
504.253	514
504.671	511
505.068	503.6
505.486	508
505.905	523.4
506.302	508.2
506.72	516.6
507.118	497.6
507.536	511
507.955	504.2
508.352	510.2
508.771	526
509.169	518.2
509.587	505.8
510.006	505.8
510.404	497.4
510.823	507.2
511.221	504.2
511.64	508.8
512.038	512.4
512.457	505
512.877	511
513.275	501.4
513.694	509
514.092	507.4
514.512	508.2
514.91	510.6
515.33	513.6
515.749	508
516.148	518.8
516.568	510.4
516.966	512.2
517.386	507.4
517.785	517.6
518.205	516.4
518.603	500.8
519.024	503.8
519.444	516
519.843	517.4
520.263	519.6
520.662	521.2
521.082	513
521.481	513.8
521.902	509.4
522.301	512.8
522.722	509.2
523.121	515.8
523.542	510.6
523.963	510.2
524.362	511
524.783	516.6
525.183	514
525.604	512.6
526.003	505.2
526.425	513.4
526.824	512.8
527.246	517.6
527.646	515
528.067	518.6
528.467	515
528.888	517.8
529.289	517.8
529.71	513.4
530.11	517.8
530.532	505.4
530.932	501.8
531.354	508.2
531.755	542.8
532.176	516.4
532.577	510
532.999	514.6
533.4	510.8
533.822	510.4
534.223	514
534.645	513.4
535.046	503.4
535.468	509
535.869	519.4
536.292	507.6
536.693	538.2
537.115	508
537.516	509.6
537.939	501.6
538.34	530.2
538.742	516.8
539.165	508.4
539.566	513
539.989	505.4
540.391	512
540.814	508.6
541.216	502.2
541.639	503.6
542.041	515
542.464	507.6
542.866	497.6
543.268	503.4
543.691	509.6
544.093	506.8
544.517	525.6
544.919	497.6
545.343	525.6
545.745	501.8
546.147	511.8
546.571	501.2
546.974	499.8
547.398	495.2
547.8	517
548.224	508
548.627	506
549.03	513.6
549.454	496.8
549.857	504.6
550.281	498.2
550.684	510.8
551.087	514.6
551.512	512.2
551.915	515.6
552.34	509.8
552.743	510
553.146	514.4
553.571	513.6
553.975	523.6
554.399	504.8
554.803	551.8
555.207	508.8
555.632	502.4
556.036	516.2
556.461	506.4
556.865	507.6
557.268	506.6
557.694	505.8
558.098	521.6
558.502	516.6
558.927	507.8
559.332	513.8
559.736	512
560.162	512
560.566	505.8
560.992	516
561.396	515.2
561.801	509
562.227	503.6
562.631	505.6
563.036	506.8
563.462	517.6
563.867	509.6
564.272	502.2
564.698	513.8
565.103	511.6
565.508	520.6
565.935	514.2
566.34	502.6
566.745	520.2
567.172	507
567.577	521.4
567.982	513
568.409	513.8
568.815	508.4
569.22	503.8
569.626	519.6
570.053	501.8
570.459	506.2
570.865	509.2
571.292	510.2
571.698	509.8
572.104	506.6
572.531	510.4
572.937	517
573.343	506.2
573.75	515.6
574.177	506.4
574.583	520.2
574.99	509
575.396	513.4
575.824	510
576.231	507.4
576.637	504
577.065	535.6
577.472	500.2
577.879	507.2
578.286	521.6
578.714	502.8
579.121	512.8
579.528	505.6
579.935	515
580.364	514.2
580.771	493.4
581.178	503.4
581.585	510.2
582.014	507.4
582.421	507.2
582.829	501.4
583.236	517.6
583.644	501.6
584.073	508.8
584.481	511.4
584.889	506.4
585.296	512
585.726	511.6
586.134	496.8
586.542	513
586.95	526.2
587.358	497.6
587.787	506
588.196	495.8
588.604	510.6
589.012	500.4
589.421	500.2
589.851	498
590.259	509.4
590.668	506.8
591.076	539.4
591.485	500.2
591.894	513.8
592.324	528
592.733	516.4
593.142	501.4
593.551	500.6
593.96	497.8
594.369	499.6
594.8	501.6
595.209	505
595.618	497
596.028	501.8
596.437	504.2
596.847	506.4
597.256	503
597.687	508.6
598.097	509.2
598.507	499.4
598.917	501.8
599.327	504.4
599.736	503.6
600.146	510.8
600.556	507.6
600.988	508
601.398	500.6
601.808	513.6
602.219	495.8
602.629	504
603.039	506.8
603.45	522.4
603.86	506
604.271	510.6
604.703	502.4
605.114	504.4
605.525	505.6
605.935	506.4
606.346	520.8
606.757	511.8
607.168	498.4
607.579	492.6
607.99	513.2
608.402	502.2
608.813	505.8
609.224	497.4
609.636	494.8
610.047	499.6
610.48	504.4
610.892	508.4
611.303	501.6
611.715	508.8
612.127	498.2
612.539	496.4
612.95	501.8
613.362	489.8
613.774	497.4
614.186	499
614.599	500
615.011	508.8
615.423	503.8
615.835	495.4
616.248	499
616.66	503.8
617.073	496.8
617.485	501.6
617.898	507.4
618.311	497.2
618.723	504.4
619.136	528.6
619.549	516.4
619.962	522.8
620.375	499
620.788	510.6
621.201	500
621.614	516
622.028	503.6
622.441	499.4
622.854	521
623.268	495
623.681	510.2
624.095	504.6
624.509	514.6
624.922	510.6
625.336	495.2
625.728	502.2
626.142	510.6
626.556	514.4
626.97	506.8
627.384	501.2
627.799	507
628.213	513.8
628.627	498
629.041	500.2
629.456	509
629.87	511
630.285	505
630.699	514.2
631.093	501.2
631.507	506.4
631.922	494.4
632.337	511.6
632.752	497.6
633.167	506
633.582	502.6
633.997	499.2
634.412	497.2
634.806	503
635.221	495.2
635.637	514.4
636.052	492.6
636.468	502.8
636.883	521
637.299	500.8
637.715	494.6
638.109	505.2
638.525	491
638.941	514.6
639.357	513.8
639.773	509.2
640.189	497.6
640.584	505.8
641	503.2
641.416	496.2
641.832	509.6
642.249	493.4
642.665	497.8
643.06	506.6
643.477	510.8
643.894	487.2
644.31	495.8
644.727	500
645.123	507.6
645.54	504.8
645.957	510.6
646.374	516
646.77	504.4
647.187	533.2
647.604	514
648.021	499.4
648.439	505.6
648.835	503
649.252	500.2
649.67	503
650.088	500.6
650.484	507.8
650.902	509.6
651.32	512.8
651.738	500.6
652.134	505.2
652.552	518.4
652.971	506.8
653.389	513.2
653.786	507.8
654.204	510.4
654.622	502.6
655.019	503.6
655.438	516.4
655.857	512.2
656.275	507
656.673	498.2
657.091	514.8
657.51	498.6
657.908	513.2
658.327	512.8
658.746	495.4
659.144	511.6
659.563	515.4
659.982	503.6
660.38	489.4
660.8	502.6
661.219	508.2
661.617	513
662.037	507.8
662.457	509.2
662.855	487.4
663.275	523.4
663.695	501.6
664.094	507.6
664.514	503.2
664.934	500.6
665.333	508.8
665.753	497.2
666.152	495.4
666.572	498.2
666.993	507
667.392	504.2
667.812	499.6
668.212	496.6
668.632	511.2
669.053	499.6
669.453	506.6
669.874	506.6
670.273	502.4
670.694	497.4
671.116	509.4
671.515	505.6
671.937	503.2
672.337	500.6
672.758	498
673.158	509.8
673.58	496
673.98	503.2
674.402	510.8
674.824	499.6
675.224	497.6
675.646	493
676.047	496
676.469	501.6
676.869	505.2
677.292	503.2
677.693	497
678.115	500.2
678.516	505
678.939	503.2
679.34	506.2
679.762	510.2
680.164	510.6
680.586	497.6
680.988	500.2
681.411	521.4
681.812	494.8
682.236	488.4
682.637	493.4
683.061	491.8
683.462	503.4
683.864	496.2
684.288	512.6
684.69	487.2
685.114	506
685.516	510.8
685.94	495.8
686.342	505
686.766	490.8
687.168	499.4
687.571	515.4
687.995	506
688.398	492.4
688.822	501.4
689.225	516.2
689.628	527.8
690.052	501.8
690.456	503.2
690.88	505.6
691.284	489.4
691.687	504.4
692.112	497.6
692.515	498.6
692.919	504.8
693.344	498
693.747	495.2
694.173	499.4
694.577	507.2
694.98	499.4
695.406	495.4
695.81	506.2
696.214	502.6
696.64	504.6
697.044	496.6
697.448	508.8
697.874	490.6
698.279	495
698.684	483.6
699.11	490.2
699.514	487.4
699.919	487.6
700.324	492.4
700.75	496.6
701.156	495.2
701.561	498.2
701.987	507.2
702.393	504.4
702.798	507.8
703.203	494.8
703.63	494.6
704.036	496
704.442	500.6
704.847	485
705.274	498.2
705.68	499.2
706.086	504
706.492	494
706.92	493.6
707.326	502.6
707.732	492.4
708.139	490.6
708.545	480.2
708.973	488.2
709.38	496
709.786	486
710.193	514
710.6	505.4
711.028	495.4
711.435	502.6
711.842	494.8
712.249	492.4
712.656	495.6
713.064	501
713.492	491.4
713.9	498.4
714.307	490.8
714.715	492.4
715.123	503
715.53	500.6
715.938	499.6
716.367	494.4
716.775	494
717.184	489.8
717.592	501
718	502.8
718.408	518
718.816	531.6
719.225	496.4
719.633	498.8
720.042	489.2
720.472	494.6
720.881	518
721.29	502.2
721.699	493.4
722.108	502.6
722.517	502
722.926	492.6
723.335	507
723.744	501.8
724.154	499.8
724.563	503
724.973	506.2
725.382	500.2
725.792	496.8
726.202	494
726.612	509
727.022	504.8
727.432	497.4
779.813	492.4
780.223	534.4
780.634	493.8
781.044	488.2
781.454	498.4
781.865	506.6
782.276	494.4
782.686	505.6
783.097	490
783.508	489.6
783.919	495.4
784.33	504.8
784.741	507.2
785.152	491
785.563	494.8
785.974	498
786.386	511.2
786.776	488.4
787.188	492.2
787.599	488
788.011	500.4
788.423	504.4
788.835	490.6
789.247	500.2
789.659	493.4
790.071	498
790.483	532.6
790.874	494.8
791.286	504.2
791.699	496
792.111	495.4
792.524	501.8
792.937	494.2
793.349	489.2
793.741	492.2
794.154	499.8
794.567	509.2
794.98	499.8
795.393	489.4
795.785	513
796.198	488.4
796.612	498
797.026	492.4
797.439	480.6
797.831	500.8
798.245	488.6
798.659	493
799.073	496.4
799.487	502
799.88	496
800.294	498.8
800.708	503.6
801.123	499.8
801.516	512.2
801.93	491.4
802.345	488.2
802.76	500.6
803.153	509.2
803.568	506.4
803.983	512.4
804.377	500.8
804.792	489.8
805.207	484.4
805.601	499.8
806.016	524
806.432	497.8
806.826	519.6
807.242	511.6
807.658	501
808.052	494.8
808.468	488.2
808.884	495.4
809.279	498.6
809.695	510.6
810.111	514
810.506	502.6
810.922	505.4
811.339	496.2
811.734	500.6
812.151	491.6
812.546	496
812.963	495
813.38	497.4
813.776	499
814.193	512
814.589	491.6
815.006	496.2
815.402	482
815.82	493.8
816.237	498.6
816.633	509.2
817.051	488.6
817.448	503
817.866	488.2
818.262	508.4
818.68	488.2
819.077	493.4
819.495	494.8
819.892	522
820.311	501.8
820.708	494.8
821.127	485.8
821.524	507
821.943	494.6
822.34	509.4
822.759	493.6
823.157	498.8
823.576	507.6
823.974	502.4
824.393	579.2
824.791	496.6
825.189	487.2
825.609	493.6
826.007	496
826.427	487.8
826.826	490.6
827.246	496.4
827.644	486
828.043	498.8
828.463	492.8
828.862	503
829.261	501
829.682	488.4
830.081	499.2
830.502	493.2
830.901	506.2
831.301	495
831.722	484.6
832.121	493.6
832.521	486
832.943	493.8
833.342	491.4
833.742	491.2
834.164	487.8
834.564	486.4
834.965	494.2
835.386	495
835.787	489.2
836.188	494
836.588	498.4
837.01	492.8
837.411	488.6
837.812	499.2
838.213	494.8
838.636	488.8
839.037	549.6
839.438	500
839.84	506.6
840.263	495.2
840.664	500.4
841.066	493.2
841.468	487.4
841.891	491.6
842.293	494.8
842.695	492.8
843.098	505
843.5	488.6
843.902	493.4
844.326	491.6
844.729	493.6
845.131	501
845.534	493.6
845.937	500
846.34	498.8
846.764	480
847.167	496.2
847.571	488.4
847.974	497.8
848.377	486.2
848.781	537.2
849.184	505.6
849.588	483.6
849.992	486
850.396	496.6
850.821	505
851.225	495.8
851.63	481.4
852.034	500.2
852.438	490
852.843	518.6
853.247	479.8
853.652	483.4
854.057	497
854.462	485.2
854.867	495.8
855.272	510.2
855.677	492.6
856.082	483.6
856.487	476.8
