#lambda/nm	C1
208.295	469.6
208.67	430.6
209.045	395
209.419	400.2
209.794	536.4
210.169	512.2
210.544	621.4
210.919	537.2
211.295	529
211.67	536.6
212.045	530.6
212.421	529.4
212.796	556
213.172	530.4
213.547	523.6
213.923	529.8
214.299	527.4
214.675	535.4
215.051	540.8
215.427	536.4
215.803	548.6
216.179	533.6
216.555	529.6
216.932	536
217.308	543
217.684	533.6
218.061	538.8
218.438	536.2
218.814	533
219.191	535.2
219.568	526
219.945	532.8
220.322	532.6
220.699	532.6
221.076	540.2
221.453	545.4
221.83	519.4
222.208	530.8
222.585	531
222.962	533.4
223.34	533
223.717	525.8
224.095	530.8
224.473	528.4
224.851	523.4
225.229	521.2
225.607	541.6
225.985	521
226.363	538
226.741	533.4
227.119	533
227.497	538.4
227.876	520.4
228.254	532.2
228.633	531.4
229.011	531.4
229.39	536.4
229.769	538.6
230.148	547.2
230.527	556.8
230.905	541
231.284	534.6
231.664	531.2
232.043	542.6
232.422	537.8
232.801	522.8
233.181	526.8
233.56	525.8
233.94	537.4
234.319	520.6
234.699	530.6
235.079	573.8
235.458	565.4
235.838	546.8
236.218	521
236.598	521
236.978	533
237.358	529.8
237.738	531.6
238.119	543.8
238.499	526.2
238.88	533.8
239.26	544
239.641	525.2
240.021	524.8
240.402	531.8
240.783	527.4
241.163	536.6
241.544	530
241.925	535.2
242.306	546.2
242.687	532
243.069	542.6
243.45	536.8
243.831	527.8
244.212	531.6
244.594	564
244.975	542.4
245.357	528.6
245.739	528.6
246.12	532.6
246.502	544.2
246.884	529.6
247.266	527.4
247.648	536
248.03	546.4
248.412	537.2
248.794	537.8
249.176	531.8
249.559	546.4
249.941	530.4
250.323	526
250.706	530
251.089	537.6
251.471	539.8
251.854	532.4
252.237	526.4
252.62	534.2
253.002	529.4
253.385	535.2
253.769	540.8
254.152	536.6
254.535	542.8
254.918	522.8
255.301	525
255.685	529.8
256.068	528.6
256.452	554.4
256.835	542.2
257.219	537.8
257.603	539.2
257.986	526.8
258.37	537
258.754	524
259.138	530.4
259.522	540.4
259.906	530.8
260.29	531.8
260.675	526.2
261.059	533.2
261.443	521.8
261.828	538.2
262.212	536.6
262.597	520.4
262.981	537.4
263.366	540
263.751	528.2
264.136	529.4
264.521	533.8
264.906	532.2
265.291	542.2
265.676	529.8
266.061	536.6
266.446	548.2
266.831	527
267.217	544.2
267.602	533
267.987	538.6
268.373	524.4
268.759	540.6
269.144	537
269.53	526.8
269.916	533.8
270.302	529
270.688	533.6
271.074	529.8
271.46	542.6
271.846	557.6
272.232	531.6
272.618	524.6
273.004	527.4
273.391	542.6
273.777	537
274.164	534.2
274.55	542.6
274.937	538.8
275.324	523.8
275.71	543.4
276.097	541.4
276.484	524
276.871	543.4
277.258	542
277.645	527.8
278.032	540.6
278.419	531
278.807	539.8
279.194	528.8
279.581	529.2
279.969	534
280.356	534.8
280.744	539
281.131	552
281.519	540.6
281.907	531.2
282.295	532.6
282.682	549
283.07	534.2
283.458	535.8
283.846	540.8
284.235	539.6
284.623	537.4
285.011	531
285.399	544.4
285.788	534
286.176	522.2
286.565	542.8
286.953	539.6
287.342	528.8
287.731	523.8
288.119	530
288.508	529.2
288.897	530.2
289.286	523.8
289.675	534.6
290.064	539.6
290.453	527.4
290.821	529.4
291.21	531.8
291.599	524.8
291.989	528
292.378	542.2
292.768	545.6
293.157	527.6
293.547	542.4
293.936	526.2
294.326	527.4
294.716	530.6
295.106	525.6
295.496	531.2
295.886	537.2
296.276	527.2
296.666	517.2
297.056	521
297.446	525.6
297.836	545.4
298.227	525
298.617	530.8
299.008	541.6
299.398	526.8
299.789	526.2
300.179	527
300.57	542
300.961	534.2
301.352	525.2
301.742	544.4
302.133	527.4
302.524	531.4
302.915	525.8
303.307	512
303.698	536.2
304.089	538.4
304.48	531.6
304.872	536
305.263	531.2
305.655	529.8
306.046	540.8
306.438	539.6
306.829	526.2
307.221	541.4
307.613	531.6
308.005	537.4
308.397	540.2
308.789	554.4
309.181	549.4
309.573	539.4
309.965	542
310.357	529.8
310.749	540.6
311.142	522.2
311.534	533.2
311.926	538.2
312.319	530.6
312.711	515.2
313.104	537
313.497	522.8
313.889	551.8
314.282	544
314.675	547.4
315.068	529.2
315.461	531.2
315.854	554.2
316.247	532.8
316.64	537
317.033	536.8
317.405	542.8
317.798	533.8
318.192	538.6
318.585	524.2
318.979	539
319.372	536
319.766	533
320.16	541.8
320.553	544
320.947	550.2
321.341	532.2
321.735	526.8
322.129	524.2
322.523	552
322.917	526.2
323.311	544.2
323.705	530.6
324.099	536.4
324.494	539.4
324.888	538.2
325.282	531.2
325.677	545.8
326.071	542.8
326.466	542.4
326.861	532
327.255	535.8
327.65	543.2
328.045	543.6
328.44	534
328.835	524
329.23	524.6
329.625	555.2
330.02	530.6
330.415	545.8
330.81	532.4
331.206	536.6
331.601	523
331.996	531.4
332.37	546.6
332.766	527
333.161	552.6
333.557	529.8
333.953	533
334.348	751.8
334.744	537.8
335.14	525.8
335.536	526.2
335.932	547.6
336.328	540.2
336.724	540.4
337.12	535.2
337.516	537.8
337.913	529.8
338.309	543.6
338.705	528.6
339.102	537.4
339.498	526.6
339.895	549.2
340.291	531.8
340.688	536.2
341.085	524
341.481	528.4
341.878	527.8
342.275	549.6
342.672	524
343.069	526
343.466	522
343.842	537.4
344.239	526.6
344.636	534.4
345.033	518.6
345.431	526.8
345.828	530.8
346.225	524.6
346.623	552.6
347.02	531.8
347.418	539.2
347.816	546
348.213	524.6
348.611	535
349.009	525.4
349.407	542
349.805	522
350.203	509.4
350.601	540.6
350.999	528.4
351.397	581.2
351.795	528.2
352.193	532.2
352.57	523.6
352.969	538.6
353.367	519.6
353.766	526.4
354.164	522.6
354.563	535
354.961	521.8
355.36	523.4
355.759	523.2
356.158	517.4
356.557	523.6
356.956	518.6
357.355	511.8
357.754	531.8
358.153	530.8
358.552	544.6
358.951	525.8
359.35	535.4
359.75	517.4
360.149	526.4
360.527	514.6
360.926	515.8
361.326	525.6
361.726	531.4
362.125	521.2
362.525	527.8
362.925	519
363.325	529.2
363.724	532.6
364.124	520
364.524	523.2
364.924	529
365.324	541.2
365.725	507.6
366.125	524.2
366.525	524.6
366.904	518.8
367.304	508.4
367.705	542
368.105	536.6
368.506	526.8
368.906	527.8
369.307	529.4
369.708	529.8
370.108	520.8
370.509	541.6
370.91	509.4
371.311	527.4
371.712	525.2
372.113	524.8
372.514	513.2
372.894	518
373.295	526.2
373.696	535.2
374.097	536.4
374.499	549.8
374.9	524.8
375.301	520
375.703	533.2
376.105	517.6
376.506	528.8
376.908	534.2
377.309	531.2
377.711	527.2
378.113	521
378.493	532
378.895	525.6
379.297	536
379.699	516.2
380.102	528
380.504	529.2
380.906	518.4
381.308	542
381.71	522.4
382.113	533.6
382.515	526
382.918	523.6
383.299	518.8
383.701	525.2
384.104	525.2
384.507	513.8
384.909	515.4
385.312	512.4
385.715	522
386.118	525.2
386.521	514.2
386.924	535.4
387.327	520.6
387.709	510.6
388.112	514.4
388.515	520.6
388.918	513
389.322	522.6
389.725	514.8
390.129	530
390.532	521
390.936	517
391.339	505.4
391.743	526
392.125	514.8
392.529	523.8
392.933	529
393.337	523.4
393.74	517
394.144	515.2
394.548	517
394.953	522.6
395.357	527.6
395.761	517.4
396.144	529
396.548	519.4
396.952	518.2
397.357	530.6
397.761	519.8
398.166	524.8
398.57	521.4
398.975	519.6
399.379	529.8
399.763	569.8
400.168	516.6
400.572	518
400.977	518.2
401.382	537.2
401.787	527.2
402.192	533.6
402.597	532.6
403.002	518.2
403.386	534.6
403.791	539
404.197	524
404.602	521.4
405.007	522
405.413	514.8
405.818	528.2
406.224	514
406.608	515
407.014	521.4
407.42	532.8
407.825	522
408.231	531.8
408.637	522.6
409.043	537
409.449	518.4
409.834	511.6
410.24	515.8
410.646	530.6
411.052	533.8
411.458	525.6
411.865	528.6
412.271	531.8
412.677	524
413.062	533
413.469	507.2
413.875	544.4
414.282	531.2
414.689	526.2
415.095	527.4
415.502	511.6
415.888	513.6
416.294	509.8
416.701	550.6
417.108	514.4
417.515	527.6
417.923	519.2
418.33	537.6
418.715	526.8
419.123	526.4
419.53	521.2
419.937	521.6
420.345	532.4
420.752	516.4
421.16	533.8
421.546	520.2
421.953	531
422.361	518.6
422.769	521.4
423.177	516.6
423.585	543.8
423.992	545
424.379	534.2
424.787	533.8
425.195	545.8
425.603	528
426.011	540.6
426.419	535.6
426.806	526.4
427.214	525.4
427.623	535.8
428.031	544.2
428.44	529.4
428.848	534
429.235	539.2
429.644	526.4
430.053	527.2
430.461	540.4
430.87	543
431.279	540.4
431.666	519.6
432.075	528
432.484	533.6
432.893	528
433.302	529
433.711	560.8
434.099	525
434.508	528
434.918	522.6
435.327	532.8
435.737	530.4
436.125	523.6
436.534	530.2
436.944	532.6
437.353	528.2
437.763	549.2
438.173	519.8
438.561	531.4
438.971	518.2
439.381	531.2
439.791	527.8
440.201	509.2
440.589	527.2
440.999	532
441.409	530
441.819	513.4
442.23	531.8
442.619	528.6
443.029	526
443.439	532.6
443.85	529.4
444.26	542.8
444.649	533
445.06	531.2
445.471	525.8
445.881	525.4
446.292	529.6
446.682	542.2
447.092	514
447.503	559.6
447.914	525
448.325	525.8
448.715	528
449.126	512.4
449.537	518.2
449.948	518.8
450.338	516.4
450.75	526.8
451.161	523.2
451.572	523.8
451.984	518.8
452.374	520.4
452.786	525.8
453.197	528.6
453.609	531.2
453.999	519.8
454.411	522.2
454.823	542.2
455.235	527.8
455.647	520.2
456.037	525.2
456.449	516.2
456.862	523.8
457.274	527.6
457.665	523.6
458.077	524.2
458.489	546.4
458.902	527.6
459.293	523
459.705	527.4
460.118	521
460.53	526.6
460.921	520.2
461.334	529.6
461.747	528.8
462.16	533.6
462.551	540.8
462.964	533
463.377	510.6
463.79	522
464.182	525
464.595	516.2
465.008	531.8
465.421	532
465.813	519.8
466.226	525.2
466.64	529
467.053	562.2
467.445	523.6
467.859	535.6
468.272	531
468.686	529
469.078	518.6
469.492	517.6
469.906	525.6
470.298	532.2
470.712	522.2
471.126	546.8
471.54	513.2
471.933	515.4
472.347	521.2
472.761	513
473.175	517.4
473.568	527.4
473.982	518.2
474.397	525.4
474.79	517.2
475.204	534.6
475.619	518
476.033	522.4
476.426	518.8
476.841	517
477.256	540.2
477.649	515.4
478.064	518.4
478.479	514.8
478.872	515.4
479.287	504.6
479.702	512
480.118	515.6
480.511	518.8
480.927	511.6
481.342	510.2
481.736	521
482.151	509.6
482.566	525.4
482.96	520.8
483.376	522.6
483.792	507.8
484.186	522.4
484.602	514
485.017	514.6
485.412	510.6
485.827	518.6
486.243	517.4
486.638	537
487.054	515.2
487.47	528.8
487.865	509
488.281	514.2
488.697	512.6
489.092	512.4
489.508	510.6
489.925	522.4
490.32	509.8
490.736	520.8
491.153	524.4
491.548	520
491.964	515.4
492.381	510.6
492.776	520
493.193	517.4
493.61	525.8
494.006	516.6
494.422	517
494.84	514.8
495.235	524.2
495.652	515.6
496.069	515.4
496.465	502.6
496.883	518.6
497.3	541.8
497.696	510.8
498.113	528.8
498.509	509.2
498.927	505.2
499.344	515
499.741	513.2
500.158	517.2
500.576	522
500.973	510
501.39	510.6
501.787	501.2
502.205	517.2
502.623	509.8
503.02	505.6
503.438	508.8
503.856	507.2
504.253	508.8
504.671	511.6
505.068	515
505.486	511.4
505.905	525.8
506.302	514.2
506.72	520.4
507.118	505.2
507.536	515
507.955	516.8
508.352	521.2
508.771	516.8
509.169	523.4
509.587	512.6
510.006	509.4
510.404	501.2
510.823	509
511.221	512
511.64	512.8
512.038	524.8
512.457	518
512.877	521
513.275	520.4
513.694	512.2
514.092	510.8
514.512	518.8
514.91	519.2
515.33	509.4
515.749	511.6
516.148	508.2
516.568	515.2
516.966	514.2
517.386	510.8
517.785	518.4
518.205	510.8
518.603	514.8
519.024	506.4
519.444	516.8
519.843	519
520.263	519
520.662	523
521.082	513.2
521.481	514.6
521.902	509.4
522.301	510.4
522.722	513.6
523.121	511
523.542	511
523.963	517.4
524.362	511.4
524.783	510.8
525.183	517.2
525.604	520.6
526.003	507.4
526.425	513.2
526.824	526
527.246	522.6
527.646	521
528.067	517.6
528.467	521
528.888	522.8
529.289	514.4
529.71	521.2
530.11	508.2
530.532	510.6
530.932	509.8
531.354	518.2
531.755	544.4
532.176	518
532.577	508.4
532.999	520.6
533.4	516.6
533.822	522
534.223	516.4
534.645	520.6
535.046	515.4
535.468	514.6
535.869	519.8
536.292	515.2
536.693	545.2
537.115	516.6
537.516	514.6
537.939	506.6
538.34	525.4
538.742	529
539.165	513.8
539.566	520.6
539.989	517.2
540.391	506
540.814	512
541.216	516.6
541.639	519.2
542.041	527
542.464	515
542.866	507.4
543.268	509.6
543.691	514.4
544.093	520.6
544.517	531.2
544.919	506.8
545.343	532
545.745	502
546.147	511.8
546.571	506.2
546.974	502.6
547.398	503
547.8	525.2
548.224	506.6
548.627	503
549.03	519.6
549.454	503.2
549.857	496.4
550.281	508.4
550.684	505.8
551.087	526.4
551.512	514.2
551.915	520
552.34	513.4
552.743	500.2
553.146	519
553.571	506.4
553.975	525.8
554.399	507.2
554.803	548.4
555.207	511
555.632	505.2
556.036	524.8
556.461	507.8
556.865	523.8
557.268	511.4
557.694	506.4
558.098	519.2
558.502	519.2
558.927	513
559.332	512.2
559.736	512.2
560.162	514.8
560.566	510.2
560.992	517.6
561.396	514
561.801	515.4
562.227	520.8
562.631	518.8
563.036	513
563.462	517.8
563.867	515.8
564.272	506.8
564.698	515.6
565.103	511
565.508	519.8
565.935	514.8
566.34	508.8
566.745	525
567.172	506
567.577	532
567.982	524.2
568.409	515
568.815	503.8
569.22	519.2
569.626	518.2
570.053	498.8
570.459	516
570.865	519.4
571.292	518
571.698	518.6
572.104	505.4
572.531	502.8
572.937	518.6
573.343	515
573.75	507.8
574.177	512.2
574.583	519.2
574.99	505.8
575.396	514.4
575.824	514.2
576.231	518.4
576.637	515.8
577.065	534.4
577.472	512.2
577.879	522.4
578.286	528
578.714	506.8
579.121	508
579.528	512
579.935	511.8
580.364	507.2
580.771	494.6
581.178	512.2
581.585	511
582.014	522.2
582.421	504.2
582.829	504.8
583.236	521.2
583.644	507.6
584.073	502.2
584.481	505.6
584.889	510.4
585.296	509.8
585.726	508.6
586.134	501.2
586.542	505.2
586.95	526.4
587.358	504
587.787	508.2
588.196	503.6
588.604	507.4
589.012	511.8
589.421	500.8
589.851	507.4
590.259	513
590.668	510.6
591.076	540.6
591.485	503.6
591.894	516.6
592.324	518.6
592.733	515.8
593.142	504
593.551	507.8
593.96	546.2
594.369	501
594.8	508.2
595.209	511.4
595.618	496.2
596.028	510.8
596.437	509.6
596.847	510.6
597.256	513.8
597.687	513.4
598.097	509
598.507	507.4
598.917	511.6
599.327	516
599.736	514
600.146	522.6
600.556	514.4
600.988	515.8
601.398	506.2
601.808	524
602.219	493.4
602.629	512.4
603.039	507.2
603.45	528.2
603.86	511.6
604.271	517.8
604.703	507.2
605.114	509.8
605.525	520.6
605.935	513.2
606.346	528.6
606.757	509.8
607.168	511.2
607.579	506
607.99	517
608.402	502.6
608.813	515
609.224	512
609.636	513.8
610.047	503
610.48	511.8
610.892	511.4
611.303	507.4
611.715	503
612.127	501
612.539	507
612.95	510.8
613.362	496
613.774	499.6
614.186	495
614.599	504
615.011	519.2
615.423	506.2
615.835	507.6
616.248	498.8
616.66	514
617.073	502
617.485	501.4
617.898	512.8
618.311	506.2
618.723	504.4
619.136	533
619.549	521
619.962	527.6
620.375	504
620.788	515
621.201	507.2
621.614	514.8
622.028	508.8
622.441	509.2
622.854	521.8
623.268	501.2
623.681	508.2
624.095	511
624.509	517.2
624.922	511.6
625.336	500
625.728	511
626.142	515.6
626.556	522.4
626.97	514.8
627.384	503.4
627.799	508.2
628.213	518
628.627	506.2
629.041	505.8
629.456	502
629.87	513
630.285	518.2
630.699	513.6
631.093	501.6
631.507	513.6
631.922	504
632.337	511
632.752	501
633.167	506.2
633.582	509
633.997	502.6
634.412	510.2
634.806	510.4
635.221	505.4
635.637	514.8
636.052	501.4
636.468	506.4
636.883	517
637.299	508.4
637.715	503
638.109	501.6
638.525	499.4
638.941	520
639.357	516.2
639.773	515.8
640.189	510.6
640.584	508.2
641	512.2
641.416	490.4
641.832	499.8
642.249	505
642.665	504.8
643.06	502.2
643.477	510
643.894	497.6
644.31	492.6
644.727	505
645.123	499.6
645.54	493.8
645.957	505.2
646.374	510.8
646.77	504.4
647.187	522
647.604	506.2
648.021	488.2
648.439	499
648.835	505.2
649.252	506.2
649.67	501.4
650.088	511.8
650.484	505.2
650.902	508.6
651.32	506.2
651.738	498.8
652.134	513.6
652.552	526.4
652.971	513.6
653.389	507.2
653.786	520
654.204	516
654.622	491.8
655.019	507.2
655.438	506.2
655.857	512
656.275	507.2
656.673	496.4
657.091	518
657.51	501.6
657.908	510.2
658.327	511.2
658.746	493.8
659.144	509.6
659.563	518.6
659.982	517.8
660.38	497.2
660.8	506.2
661.219	513
661.617	510.6
662.037	498.6
662.457	511.2
662.855	498.4
663.275	526.6
663.695	504.6
664.094	501.8
664.514	507.4
664.934	500
665.333	508.2
665.753	501.4
666.152	492
666.572	504.4
666.993	515
667.392	503.6
667.812	497.4
668.212	500.2
668.632	511.2
669.053	499
669.453	502.4
669.874	502
670.273	507
670.694	502.8
671.116	504.8
671.515	514
671.937	500.8
672.337	500.4
672.758	502.4
673.158	510.4
673.58	495
673.98	502.4
674.402	514.2
674.824	499
675.224	502.6
675.646	494.2
676.047	498.4
676.469	499
676.869	503.4
677.292	504.4
677.693	486.4
678.115	491.2
678.516	500.4
678.939	508.2
679.34	498
679.762	504.6
680.164	503.4
680.586	495.4
680.988	498.4
681.411	519.8
681.812	498.8
682.236	492.6
682.637	494.6
683.061	488.2
683.462	498.2
683.864	496
684.288	504
684.69	496.4
685.114	507.6
685.516	509.4
685.94	491
686.342	508.4
686.766	494.8
687.168	490.2
687.571	515.6
687.995	499
688.398	498.8
688.822	504.8
689.225	522.8
689.628	511.4
690.052	504.6
690.456	503.4
690.88	497
691.284	497.2
691.687	507.8
692.112	488
692.515	496.8
692.919	507.2
693.344	509
693.747	505.4
694.173	496.4
694.577	511
694.98	499
695.406	500
695.81	498.8
696.214	512.4
696.64	505.8
697.044	501.8
697.448	509.6
697.874	503.6
698.279	500
698.684	490.6
699.11	501.4
699.514	502.6
699.919	497.2
700.324	493.8
700.75	497
701.156	497.2
701.561	511.8
701.987	503.8
702.393	505.2
702.798	500.4
703.203	497
703.63	502.8
704.036	500.4
704.442	507
704.847	495
705.274	501.2
705.68	502
706.086	502
706.492	500.4
706.92	494.8
707.326	508.8
707.732	495.6
708.139	500.6
708.545	496.4
708.973	496.2
709.38	491.6
709.786	496.2
710.193	509.6
710.6	496.6
711.028	499
711.435	500.4
711.842	500.8
712.249	497.8
712.656	486.2
713.064	506.6
713.492	496.6
713.9	503.8
714.307	501.4
714.715	502.2
715.123	500
715.53	499.4
715.938	502.2
716.367	504.2
716.775	490
717.184	495.6
717.592	502.6
718	510.2
718.408	527.6
718.816	538.8
719.225	501.2
719.633	499
720.042	492.4
720.472	499.4
720.881	508
721.29	505.2
721.699	494.6
722.108	503.6
722.517	496.6
722.926	493.4
723.335	513.8
723.744	506.2
724.154	508.2
724.563	496.8
724.973	505.2
725.382	499.6
725.792	499.2
726.202	496.4
726.612	509.6
727.022	500.4
727.432	503.6
779.813	497.4
780.223	534.4
780.634	495.8
781.044	491.6
781.454	494.8
781.865	509
782.276	496.6
782.686	510
783.097	502.6
783.508	491
783.919	509
784.33	512.2
784.741	510.6
785.152	497.8
785.563	492.6
785.974	491.8
786.386	506.8
786.776	498.2
787.188	505
787.599	489.8
788.011	505.4
788.423	503
788.835	496.8
789.247	496.8
789.659	499.8
790.071	492.6
790.483	539.8
790.874	490.8
791.286	507.4
791.699	489
792.111	499.8
792.524	501.4
792.937	493.8
793.349	488.6
793.741	489.6
794.154	491.4
794.567	504
794.98	494
795.393	488.2
795.785	514.4
796.198	491.8
796.612	498.8
797.026	493.2
797.439	484.8
797.831	495
798.245	493
798.659	489.6
799.073	492.6
799.487	487.2
799.88	498.4
800.294	493.6
800.708	499.2
801.123	497.4
801.516	512.8
801.93	487.8
802.345	491.4
802.76	502.4
803.153	505.6
803.568	505.6
803.983	503.6
804.377	501.4
804.792	485.4
805.207	489.6
805.601	497.8
806.016	514
806.432	497.8
806.826	518
807.242	512.2
807.658	499.2
808.052	491.6
808.468	499.4
808.884	495.2
809.279	493.4
809.695	507
810.111	515.6
810.506	503.2
810.922	512.4
811.339	495.2
811.734	498.4
812.151	500.6
812.546	502.4
812.963	495.4
813.38	504.2
813.776	493.4
814.193	513.2
814.589	495.6
815.006	488.8
815.402	487.6
815.82	499
816.237	497.2
816.633	502.4
817.051	491.4
817.448	499.2
817.866	486.4
818.262	514.2
818.68	494
819.077	488.8
819.495	503
819.892	532.6
820.311	490.4
820.708	488.2
821.127	495
821.524	505.8
821.943	500.4
822.34	508
822.759	498
823.157	492.6
823.576	509
823.974	499
824.393	546.4
824.791	495.6
825.189	488.2
825.609	488.8
826.007	501.6
826.427	492.6
826.826	487.2
827.246	498.2
827.644	490
828.043	499.2
828.463	484.2
828.862	505.6
829.261	503.6
829.682	492
830.081	509.8
830.502	492.2
830.901	502.8
831.301	490
831.722	486.6
832.121	491
832.521	488.2
832.943	495.6
833.342	498.6
833.742	489.4
834.164	496.8
834.564	486.2
834.965	492.2
835.386	490.6
835.787	493.2
836.188	498.4
836.588	492.8
837.01	494.2
837.411	489
837.812	501.2
838.213	509.6
838.636	487.4
839.037	552
839.438	500.8
839.84	499
840.263	499.4
840.664	500.2
841.066	494
841.468	494.6
841.891	490.6
842.293	501.2
842.695	495.6
843.098	501.4
843.5	491.2
843.902	496
844.326	505.8
844.729	494.8
845.131	503
845.534	495.8
845.937	503.2
846.34	503.6
846.764	497.8
847.167	497.6
847.571	487.8
847.974	496.6
848.377	499.2
848.781	538.6
849.184	508
849.588	489.6
849.992	496.8
850.396	493.4
850.821	513.6
851.225	498.6
851.63	496
852.034	497.6
852.438	489.4
852.843	519.2
853.247	492.8
853.652	489
854.057	508.8
854.462	498.6
854.867	497.2
855.272	515.4
855.677	503
856.082	490
856.487	484.4
856.893	497.8
857.298	490
