#lambda/nm	C1
208.295	464.8
208.67	431.8
209.045	392
209.419	395.8
209.794	535.6
210.169	518.4
210.544	617.8
210.919	534.4
211.295	521
211.67	534
212.045	518
212.421	530.6
212.796	559
213.172	525.4
213.547	524
213.923	531.2
214.299	525
214.675	537.6
215.051	537
215.427	535.2
215.803	546.8
216.179	534.2
216.555	530.6
216.932	539.2
217.308	538.6
217.684	534.6
218.061	544.2
218.438	535.6
218.814	526.4
219.191	544.8
219.568	525.6
219.945	527.8
220.322	537.6
220.699	537.2
221.076	541.2
221.453	534.6
221.83	530.2
222.208	532.2
222.585	527.8
222.962	532.6
223.34	539.8
223.717	536.4
224.095	531.8
224.473	534.4
224.851	528
225.229	528.8
225.607	548.6
225.985	526.2
226.363	530.4
226.741	535.6
227.119	532.2
227.497	544.8
227.876	524.6
228.254	542.8
228.633	536.8
229.011	536
229.39	538
229.769	536.6
230.148	543.4
230.527	547.6
230.905	535
231.284	543.8
231.664	529.2
232.043	544.6
232.422	541.4
232.801	533.8
233.181	537.8
233.56	522.6
233.94	533.6
234.319	516.8
234.699	536.8
235.079	566.2
235.458	561.8
235.838	549
236.218	529.4
236.598	527
236.978	523.6
237.358	524.2
237.738	528.6
238.119	534
238.499	527.6
238.88	540.4
239.26	542.8
239.641	524.6
240.021	534.8
240.402	533.4
240.783	530.2
241.163	531.2
241.544	538
241.925	530.8
242.306	543.4
242.687	527
243.069	536
243.45	535
243.831	530
244.212	531
244.594	558.4
244.975	540.8
245.357	535.6
245.739	522.4
246.12	529.6
246.502	543.8
246.884	531.8
247.266	526.8
247.648	529.2
248.03	543.2
248.412	531.2
248.794	532.6
249.176	524.2
249.559	542.4
249.941	524
250.323	521.8
250.706	526
251.089	527
251.471	529.2
251.854	526.6
252.237	535
252.62	536.6
253.002	528.6
253.385	522.6
253.769	541.4
254.152	526.6
254.535	538.8
254.918	524
255.301	525.4
255.685	526.6
256.068	516.4
256.452	544.4
256.835	539.4
257.219	533.2
257.603	541.6
257.986	520.8
258.37	535.6
258.754	524.8
259.138	535.2
259.522	534.8
259.906	525
260.29	536.6
260.675	528.8
261.059	540
261.443	533.4
261.828	542.6
262.212	539.6
262.597	529.4
262.981	526.2
263.366	534.4
263.751	533.8
264.136	526.8
264.521	536
264.906	527.2
265.291	537
265.676	527.2
266.061	542.6
266.446	547.8
266.831	532.6
267.217	542.2
267.602	533.2
267.987	535.4
268.373	530.8
268.759	541.2
269.144	538.8
269.53	531.4
269.916	530.4
270.302	528.8
270.688	530.4
271.074	532.6
271.46	536.8
271.846	547.8
272.232	526.6
272.618	528.8
273.004	527.6
273.391	543
273.777	541.6
274.164	538.4
274.55	543.4
274.937	535.6
275.324	532
275.71	538.6
276.097	536.4
276.484	525.4
276.871	531.4
277.258	533.6
277.645	524.6
278.032	529.4
278.419	532.2
278.807	532.8
279.194	527.2
279.581	527.8
279.969	536.4
280.356	528.6
280.744	532.2
281.131	550.6
281.519	535.6
281.907	526.6
282.295	529.8
282.682	546.8
283.07	528.8
283.458	536.4
283.846	540.2
284.235	541.4
284.623	543
285.011	527.8
285.399	537.4
285.788	532.4
286.176	524.2
286.565	541.8
286.953	534.4
287.342	527
287.731	527.2
288.119	517.6
288.508	529.2
288.897	521.6
289.286	519.4
289.675	532.4
290.064	535.2
290.453	526.4
290.821	535
291.21	547.4
291.599	528.8
291.989	530.2
292.378	535.8
292.768	546
293.157	537.8
293.547	534.8
293.936	527.4
294.326	525.2
294.716	536
295.106	530.4
295.496	541
295.886	537.6
296.276	527.6
296.666	531
297.056	519.8
297.446	530
297.836	545.8
298.227	527.8
298.617	538.6
299.008	549.2
299.398	527.4
299.789	528.6
300.179	541.2
300.57	539.6
300.961	532.6
301.352	526.6
301.742	540.4
302.133	534.4
302.524	527.2
302.915	535.2
303.307	525
303.698	539.6
304.089	536.4
304.48	532
304.872	539
305.263	530.2
305.655	527.4
306.046	541
306.438	542
306.829	520.2
307.221	544
307.613	532.6
308.005	543
308.397	543.6
308.789	546.4
309.181	547.8
309.573	544.4
309.965	542.4
310.357	528
310.749	540.2
311.142	518.4
311.534	529.4
311.926	537.4
312.319	533
312.711	526.4
313.104	545.6
313.497	531.4
313.889	559
314.282	540.6
314.675	551.4
315.068	541.2
315.461	544
315.854	551.8
316.247	539.6
316.64	526.2
317.033	526.4
317.405	540.4
317.798	529
318.192	539
318.585	522.2
318.979	538.4
319.372	531.6
319.766	526.2
320.16	538.4
320.553	546.8
320.947	546.2
321.341	523.2
321.735	535
322.129	525.2
322.523	559.6
322.917	523.8
323.311	543.4
323.705	535.6
324.099	532.4
324.494	535.6
324.888	538.8
325.282	534.2
325.677	541.2
326.071	544.4
326.466	543.6
326.861	535.2
327.255	542.2
327.65	545.8
328.045	545.4
328.44	531.6
328.835	534.8
329.23	533.2
329.625	550.2
330.02	527.2
330.415	549.6
330.81	535
331.206	537.4
331.601	531.6
331.996	540.2
332.37	562.8
332.766	525
333.161	547.8
333.557	530.6
333.953	534
334.348	758.2
334.744	529.8
335.14	525.8
335.536	535.2
335.932	541
336.328	533.2
336.724	536.2
337.12	532
337.516	529.2
337.913	531.8
338.309	542.4
338.705	535.4
339.102	536.4
339.498	534.6
339.895	542.2
340.291	533.8
340.688	548
341.085	515.4
341.481	529.6
341.878	529.6
342.275	548.6
342.672	528.2
343.069	528.2
343.466	522.6
343.842	536.8
344.239	528.4
344.636	532
345.033	522.2
345.431	524.8
345.828	533.2
346.225	520
346.623	557.8
347.02	532.8
347.418	535
347.816	544.6
348.213	522.2
348.611	536.4
349.009	515.8
349.407	538.4
349.805	512.6
350.203	518.2
350.601	532.2
350.999	524
351.397	572
351.795	528.6
352.193	534.8
352.57	531.4
352.969	532.6
353.367	516.4
353.766	525.2
354.164	527.4
354.563	538.6
354.961	522.6
355.36	525.6
355.759	524.4
356.158	523.6
356.557	521
356.956	520.8
357.355	518.6
357.754	530.8
358.153	525.8
358.552	547.8
358.951	525.4
359.35	544.8
359.75	527.6
360.149	524.2
360.527	520
360.926	518.2
361.326	529.4
361.726	524.2
362.125	524.4
362.525	536.8
362.925	523.4
363.325	530
363.724	526
364.124	519
364.524	517.4
364.924	528.2
365.324	535
365.725	518.4
366.125	523.2
366.525	525
366.904	521
367.304	511.8
367.705	535
368.105	536.2
368.506	521.4
368.906	528.2
369.307	526.8
369.708	525.2
370.108	512.4
370.509	539
370.91	519
371.311	521.8
371.712	528
372.113	527.8
372.514	513.4
372.894	524
373.295	522
373.696	530.4
374.097	534
374.499	547.2
374.9	521.8
375.301	515
375.703	522.4
376.105	514.8
376.506	523
376.908	526.6
377.309	525.4
377.711	527.4
378.113	518.4
378.493	523.2
378.895	519.2
379.297	524
379.699	512.6
380.102	522.8
380.504	525.4
380.906	524
381.308	552
381.71	526
382.113	531.8
382.515	526
382.918	525.2
383.299	524.2
383.701	527.8
384.104	524.2
384.507	511.4
384.909	514.2
385.312	514.2
385.715	515.8
386.118	523.4
386.521	514
386.924	527
387.327	520.6
387.709	509.4
388.112	503.6
388.515	514.6
388.918	516.8
389.322	522.6
389.725	519.4
390.129	541.8
390.532	524
390.936	516.6
391.339	516.8
391.743	521.8
392.125	516.6
392.529	527
392.933	530.2
393.337	527.6
393.74	525.8
394.144	516.4
394.548	527.8
394.953	526
395.357	527.2
395.761	521.2
396.144	522
396.548	519
396.952	516.2
397.357	521.6
397.761	518.2
398.166	522.2
398.57	522
398.975	518.2
399.379	527.4
399.763	568.8
400.168	527.6
400.572	522
400.977	517.4
401.382	547.8
401.787	526.4
402.192	535.4
402.597	535.8
403.002	514.4
403.386	536.4
403.791	536
404.197	523
404.602	518.6
405.007	519.4
405.413	519
405.818	519.6
406.224	516.2
406.608	523.8
407.014	520
407.42	542.6
407.825	512.6
408.231	522.8
408.637	520.8
409.043	537.2
409.449	516
409.834	525.4
410.24	522
410.646	529.4
411.052	530.2
411.458	522.6
411.865	527.8
412.271	531
412.677	522.2
413.062	528.4
413.469	509.4
413.875	540
414.282	536
414.689	527.6
415.095	529.6
415.502	519.6
415.888	521
416.294	514.8
416.701	558.6
417.108	516
417.515	528.4
417.923	523
418.33	536.6
418.715	534.2
419.123	522.2
419.53	513.2
419.937	520.2
420.345	535.8
420.752	514
421.16	529.6
421.546	518.6
421.953	521
422.361	522.4
422.769	517.8
423.177	519.4
423.585	540.8
423.992	535.6
424.379	529.8
424.787	531.6
425.195	538.4
425.603	526
426.011	528.6
426.419	531.4
426.806	530.6
427.214	528.6
427.623	527.8
428.031	543.2
428.44	531.8
428.848	530.4
429.235	533.6
429.644	528.4
430.053	525
430.461	531.2
430.87	542.2
431.279	529.8
431.666	521
432.075	529.2
432.484	535.8
432.893	529.6
433.302	532.4
433.711	555.6
434.099	536.6
434.508	528.8
434.918	513.2
435.327	528.4
435.737	531.6
436.125	531.4
436.534	524.6
436.944	524
437.353	532.8
437.763	542.6
438.173	518.2
438.561	532.8
438.971	513.2
439.381	524
439.791	520.6
440.201	505
440.589	529.6
440.999	522
441.409	516.8
441.819	521.4
442.23	527.2
442.619	530
443.029	522.2
443.439	527.8
443.85	534.4
444.26	532
444.649	535.2
445.06	520.8
445.471	522
445.881	525.2
446.292	533.8
446.682	533.4
447.092	504.6
447.503	565.6
447.914	519
448.325	520.8
448.715	521.4
449.126	509
449.537	514.8
449.948	515.8
450.338	517.6
450.75	527
451.161	517.8
451.572	524
451.984	519.6
452.374	506.2
452.786	528
453.197	520.4
453.609	527.6
453.999	512.2
454.411	517
454.823	522.2
455.235	521.6
455.647	514.2
456.037	521.8
456.449	508.8
456.862	526.2
457.274	524
457.665	511.2
458.077	522.6
458.489	542.8
458.902	524.2
459.293	520.6
459.705	521
460.118	522
460.53	523.4
460.921	526.4
461.334	522.8
461.747	521
462.16	524.8
462.551	528.2
462.964	526.6
463.377	508.8
463.79	514.6
464.182	532.8
464.595	517
465.008	521.4
465.421	525.8
465.813	508
466.226	525.2
466.64	517.2
467.053	564.4
467.445	529.4
467.859	527.8
468.272	525.4
468.686	533.2
469.078	517.4
469.492	512.6
469.906	517.4
470.298	523.2
470.712	513.2
471.126	541
471.54	508.4
471.933	508.4
472.347	516.2
472.761	510.2
473.175	504.2
473.568	514.6
473.982	500.4
474.397	515.8
474.79	515.4
475.204	519.2
475.619	508.8
476.033	519.2
476.426	524.4
476.841	513
477.256	531
477.649	514.2
478.064	513.8
478.479	505.4
478.872	516.2
479.287	500.4
479.702	512
480.118	514.8
480.511	512
480.927	520.4
481.342	507
481.736	523
482.151	503.6
482.566	521.4
482.96	513
483.376	522.4
483.792	498
484.186	515.8
484.602	519.6
485.017	511.2
485.412	509.4
485.827	515.4
486.243	516.6
486.638	527.8
487.054	521.8
487.47	525.4
487.865	513.2
488.281	513.6
488.697	511.6
489.092	514.2
489.508	517.2
489.925	519.4
490.32	509.8
490.736	515.4
491.153	531
491.548	515.4
491.964	524.4
492.381	512
492.776	516
493.193	521.8
493.61	512.2
494.006	523
494.422	516.2
494.84	507.2
495.235	520.6
495.652	518.8
496.069	507.8
496.465	508.6
496.883	510.4
497.3	532.4
497.696	510.6
498.113	513.4
498.509	507.4
498.927	504.2
499.344	512
499.741	503.2
500.158	527.6
500.576	523.4
500.973	517
501.39	508.2
501.787	503.4
502.205	510.6
502.623	509.6
503.02	502.2
503.438	510.4
503.856	511
504.253	504.6
504.671	521.6
505.068	507.4
505.486	520.6
505.905	527.2
506.302	514.4
506.72	518.4
507.118	505
507.536	517.2
507.955	508.8
508.352	517.6
508.771	515.4
509.169	517.4
509.587	504.6
510.006	517
510.404	502.4
510.823	506.6
511.221	512.4
511.64	513.6
512.038	522.4
512.457	510.6
512.877	516.6
513.275	515.6
513.694	513.2
514.092	508.2
514.512	518.2
514.91	514.6
515.33	506
515.749	512.8
516.148	521.2
516.568	509.8
516.966	505.6
517.386	512
517.785	510.2
518.205	506
518.603	503.8
519.024	508.2
519.444	508.6
519.843	516.6
520.263	524
520.662	512.2
521.082	503.8
521.481	513
521.902	518.4
522.301	511.6
522.722	518
523.121	519.6
523.542	509.6
523.963	512.4
524.362	513.4
524.783	519
525.183	514.6
525.604	514.6
526.003	508.8
526.425	506.2
526.824	510.2
527.246	523.8
527.646	512.6
528.067	522.4
528.467	506.6
528.888	520.8
529.289	515.8
529.71	518.2
530.11	509.2
530.532	500.2
530.932	503.2
531.354	506
531.755	535
532.176	518.4
532.577	514.4
532.999	509
533.4	510.8
533.822	528.8
534.223	517.6
534.645	506.4
535.046	506.2
535.468	514
535.869	516.4
536.292	512.6
536.693	539.6
537.115	512.4
537.516	516.4
537.939	510.6
538.34	523.8
538.742	532.2
539.165	509.2
539.566	507
539.989	508.4
540.391	507.4
540.814	518.8
541.216	515.2
541.639	511.8
542.041	518.2
542.464	511.8
542.866	508.2
543.268	495.8
543.691	513
544.093	513
544.517	525.2
544.919	506.6
545.343	529
545.745	501.4
546.147	506.6
546.571	510.8
546.974	509.2
547.398	505.8
547.8	522.4
548.224	503.4
548.627	499.6
549.03	509.4
549.454	504.4
549.857	502.8
550.281	504.2
550.684	508.6
551.087	521
551.512	509.6
551.915	514.2
552.34	504.8
552.743	503.6
553.146	509.8
553.571	510.8
553.975	528.8
554.399	507
554.803	547.4
555.207	511.2
555.632	508
556.036	514.4
556.461	509
556.865	511.2
557.268	509.2
557.694	502.8
558.098	517.8
558.502	513.2
558.927	502.2
559.332	513.2
559.736	509.6
560.162	520.2
560.566	508.4
560.992	515.4
561.396	517.2
561.801	512
562.227	506.4
562.631	508.8
563.036	509.6
563.462	525.4
563.867	506
564.272	502.6
564.698	519.4
565.103	504.8
565.508	517.4
565.935	515.2
566.34	510.8
566.745	523.8
567.172	506.4
567.577	521
567.982	519
568.409	509
568.815	508.8
569.22	508.4
569.626	511.6
570.053	496
570.459	517
570.865	517
571.292	520.6
571.698	511.6
572.104	493.6
572.531	504.8
572.937	515.6
573.343	505.6
573.75	508
574.177	514.8
574.583	518.4
574.99	505.8
575.396	513.4
575.824	512.6
576.231	508.8
576.637	507.4
577.065	529.2
577.472	509.2
577.879	503.6
578.286	514.4
578.714	505.8
579.121	507
579.528	503
579.935	516.6
580.364	508.6
580.771	493.2
581.178	494.8
581.585	510.6
582.014	516
582.421	508.8
582.829	500.2
583.236	521.8
583.644	502.4
584.073	503.2
584.481	511
584.889	507.6
585.296	521.2
585.726	507.2
586.134	498
586.542	510
586.95	525.2
587.358	496.4
587.787	508.2
588.196	499.4
588.604	516.4
589.012	510.4
589.421	501.6
589.851	506.6
590.259	507
590.668	511.2
591.076	529.6
591.485	503.4
591.894	511.4
592.324	515.2
592.733	523
593.142	499
593.551	505.2
593.96	514.6
594.369	503.4
594.8	501.6
595.209	503
595.618	500.4
596.028	505
596.437	498.4
596.847	508.2
597.256	512.4
597.687	509.4
598.097	512.6
598.507	496.4
598.917	504.6
599.327	508.2
599.736	505.6
600.146	507.6
600.556	503.8
600.988	514.2
601.398	501.8
601.808	517.6
602.219	496
602.629	500.2
603.039	504.8
603.45	523.2
603.86	502.2
604.271	519.6
604.703	503
605.114	507.8
605.525	505
605.935	518.4
606.346	528.8
606.757	512.8
607.168	515.8
607.579	504.8
607.99	524
608.402	501.8
608.813	507.8
609.224	511
609.636	503.8
610.047	507.6
610.48	509.4
610.892	517.8
611.303	513
611.715	507.4
612.127	501.4
612.539	503.8
612.95	509.4
613.362	499.4
613.774	500.8
614.186	504.2
614.599	497.8
615.011	510.8
615.423	500.4
615.835	503.6
616.248	502.6
616.66	507.2
617.073	490
617.485	510
617.898	518.2
618.311	517.6
618.723	510
619.136	533.8
619.549	524.4
619.962	522.6
620.375	506.2
620.788	513.6
621.201	500.2
621.614	512.6
622.028	505
622.441	514.4
622.854	515.8
623.268	512
623.681	517.2
624.095	504.4
624.509	515.8
624.922	519.2
625.336	505.4
625.728	509.4
626.142	520.6
626.556	528.2
626.97	512.2
627.384	504
627.799	505.8
628.213	518.8
628.627	512.2
629.041	509.6
629.456	511.2
629.87	506.8
630.285	521.2
630.699	516
631.093	505.8
631.507	518.8
631.922	512.2
632.337	532.8
632.752	505.4
633.167	516
633.582	511.8
633.997	508.2
634.412	506
634.806	519.2
635.221	498.4
635.637	517.6
636.052	499.4
636.468	513.8
636.883	522.2
637.299	505.4
637.715	504.2
638.109	505.4
638.525	503.4
638.941	510.6
639.357	513.6
639.773	514
640.189	506.4
640.584	515.2
641	504.2
641.416	492
641.832	504.8
642.249	504.8
642.665	501.8
643.06	506.8
643.477	506.4
643.894	496
644.31	506
644.727	501.4
645.123	507.8
645.54	500.8
645.957	506.2
646.374	515.6
646.77	505.6
647.187	529.4
647.604	500
648.021	500.4
648.439	501.8
648.835	515.8
649.252	503.4
649.67	504
650.088	506
650.484	500.6
650.902	514.2
651.32	513.2
651.738	505.2
652.134	504.8
652.552	517
652.971	510.6
653.389	507.2
653.786	522
654.204	516.6
654.622	496.4
655.019	506.8
655.438	505
655.857	497.8
656.275	508.8
656.673	495.6
657.091	514.8
657.51	498.2
657.908	506.8
658.327	520
658.746	495.2
659.144	506.2
659.563	523.6
659.982	499
660.38	494.2
660.8	505.8
661.219	509.8
661.617	507.8
662.037	505.4
662.457	514.6
662.855	497.2
663.275	534.2
663.695	506.2
664.094	511
664.514	502.6
664.934	503.2
665.333	515.2
665.753	499.6
666.152	501.4
666.572	490
666.993	508.4
667.392	498.6
667.812	502.6
668.212	501.6
668.632	509
669.053	498
669.453	502.6
669.874	502.4
670.273	503.4
670.694	496.4
671.116	515.4
671.515	515
671.937	503.4
672.337	499.4
672.758	499.8
673.158	507
673.58	498
673.98	507.2
674.402	515.2
674.824	503.4
675.224	502
675.646	497.2
676.047	497.2
676.469	500.8
676.869	501.6
677.292	499
677.693	496.6
678.115	502.4
678.516	504.8
678.939	500.6
679.34	497
679.762	507
680.164	501.2
680.586	495.4
680.988	502.4
681.411	519.2
681.812	499
682.236	497
682.637	500.2
683.061	494.4
683.462	507
683.864	495.6
684.288	508.8
684.69	495.2
685.114	502
685.516	505.6
685.94	497.8
686.342	504.6
686.766	492
687.168	503.8
687.571	507.6
687.995	500.6
688.398	498.4
688.822	507
689.225	516.2
689.628	523.8
690.052	500
690.456	512.8
690.88	509.2
691.284	490.6
691.687	506.6
692.112	499.2
692.515	499
692.919	502.8
693.344	501.4
693.747	492
694.173	492.6
694.577	508.4
694.98	503.6
695.406	500.8
695.81	508.4
696.214	505.6
696.64	502.4
697.044	498.4
697.448	504
697.874	494
698.279	499.2
698.684	490
699.11	498.8
699.514	505.6
699.919	497
700.324	494.2
700.75	501.6
701.156	500.8
701.561	511.6
701.987	510
702.393	508.8
702.798	508.2
703.203	502
703.63	502.2
704.036	495.2
704.442	500.6
704.847	496.6
705.274	498.2
705.68	507.4
706.086	512.8
706.492	490.8
706.92	501.6
707.326	505.4
707.732	498.4
708.139	489.8
708.545	488
708.973	495.8
709.38	498.8
709.786	486.6
710.193	509.4
710.6	498.8
711.028	494
711.435	502
711.842	496.6
712.249	494.4
712.656	494
713.064	495.8
713.492	486.6
713.9	497
714.307	499.6
714.715	508
715.123	501.6
715.53	494.6
715.938	504.2
716.367	508
716.775	496.4
717.184	501.2
717.592	498.2
718	509.2
718.408	527
718.816	537.6
719.225	501.8
719.633	497
720.042	496
720.472	506.2
720.881	512.4
721.29	497.6
721.699	493
722.108	497.6
722.517	503.6
722.926	496.8
723.335	508.8
723.744	499.8
724.154	506.8
724.563	501.6
724.973	497.8
725.382	502.8
725.792	502.6
726.202	492
726.612	503.4
727.022	496.2
727.432	492
779.813	498.6
780.223	536.8
780.634	494
781.044	495.4
781.454	492.2
781.865	505
782.276	496.4
782.686	502
783.097	497.4
783.508	495.2
783.919	502.4
784.33	508.8
784.741	507.4
785.152	491
785.563	482.4
785.974	494
786.386	502.6
786.776	489.8
787.188	496.6
787.599	495.8
788.011	506.8
788.423	502.6
788.835	497.8
789.247	492.6
789.659	500.4
790.071	494.2
790.483	529.2
790.874	490
791.286	493.6
791.699	491.8
792.111	500.4
792.524	502.8
792.937	497
793.349	487.2
793.741	495
794.154	500.2
794.567	508.6
794.98	495
795.393	489.2
795.785	507.6
796.198	496.6
796.612	491.8
797.026	500.4
797.439	481.2
797.831	502.8
798.245	497
798.659	489
799.073	500.2
799.487	492.2
799.88	499
800.294	495.8
800.708	501.6
801.123	496
801.516	519.4
801.93	487.6
802.345	491.4
802.76	502.6
803.153	502.6
803.568	506.8
803.983	501.6
804.377	499
804.792	491.6
805.207	491.6
805.601	504.2
806.016	527.8
806.432	494.4
806.826	524.2
807.242	506
807.658	500.2
808.052	492.4
808.468	495.4
808.884	496.2
809.279	498.8
809.695	512
810.111	516.6
810.506	502.4
810.922	508.2
811.339	495.6
811.734	505.6
812.151	491.8
812.546	494
812.963	493.6
813.38	496
813.776	494.4
814.193	519.6
814.589	489.6
815.006	497.6
815.402	488
815.82	486.4
816.237	497.2
816.633	499.8
817.051	485.6
817.448	498.6
817.866	487
818.262	503.2
818.68	497
819.077	495.8
819.495	494.8
819.892	531
820.311	492.6
820.708	500.4
821.127	488
821.524	506.6
821.943	495.4
822.34	507.2
822.759	501
823.157	492.6
823.576	498
823.974	497.8
824.393	556.4
824.791	486.2
825.189	489
825.609	487.6
826.007	498.6
826.427	491
826.826	498.2
827.246	497.4
827.644	484
828.043	502.6
828.463	489.6
828.862	503.6
829.261	509
829.682	490
830.081	502
830.502	492.6
830.901	500.6
831.301	491.4
831.722	484
832.121	498.4
832.521	488.2
832.943	488.4
833.342	503.2
833.742	493.2
834.164	487.2
834.564	485.6
834.965	498.4
835.386	500
835.787	493.4
836.188	497
836.588	484.2
837.01	500.8
837.411	483.6
837.812	502.8
838.213	492.2
838.636	496.4
839.037	552.6
839.438	504
839.84	502.4
840.263	502.4
840.664	511
841.066	492.2
841.468	497.8
841.891	487
842.293	508.6
842.695	496
843.098	505.6
843.5	490
843.902	492.4
844.326	502.8
844.729	490.8
845.131	504
845.534	490.8
845.937	501.8
846.34	512.2
846.764	492.6
847.167	501
847.571	489
847.974	487
848.377	492.4
848.781	530.6
849.184	500
849.588	492.6
849.992	491.8
850.396	490.6
850.821	513.2
851.225	492.2
851.63	490
852.034	506.8
852.438	494.8
852.843	562.2
853.247	488.4
853.652	494
854.057	511
854.462	494
854.867	489.4
855.272	522.8
855.677	494.4
856.082	490.4
856.487	485.8
856.893	501
857.298	499.6
