#lambda/nm	C1
208.295	466.6
208.67	435.4
209.045	398.6
209.419	397.2
209.794	542.4
210.169	523
210.544	620.4
210.919	537.8
211.295	519.6
211.67	535.8
212.045	528.2
212.421	532.6
212.796	561.6
213.172	524
213.547	532.4
213.923	521.8
214.299	526.6
214.675	530.4
215.051	536.4
215.427	535.4
215.803	547.2
216.179	530.8
216.555	531.6
216.932	547.8
217.308	532.2
217.684	529.8
218.061	533
218.438	525.2
218.814	523.2
219.191	538.6
219.568	526.6
219.945	530.6
220.322	537.2
220.699	529
221.076	544
221.453	541.6
221.83	520.4
222.208	526.2
222.585	529.8
222.962	528
223.34	536.4
223.717	535.6
224.095	533.8
224.473	531.8
224.851	528
225.229	522.2
225.607	544.4
225.985	529.6
226.363	533.6
226.741	533.4
227.119	530.6
227.497	540.8
227.876	526.2
228.254	545.8
228.633	534
229.011	537.4
229.39	534.8
229.769	537.6
230.148	525.6
230.527	551.6
230.905	530
231.284	526.2
231.664	522.8
232.043	538.8
232.422	534
232.801	527.6
233.181	535.8
233.56	526.6
233.94	529.4
234.319	521.4
234.699	529.2
235.079	567.8
235.458	560.8
235.838	549
236.218	530.6
236.598	526.8
236.978	525.4
237.358	527.6
237.738	524.2
238.119	538
238.499	522
238.88	527
239.26	539.4
239.641	516.2
240.021	538.2
240.402	529.2
240.783	526
241.163	532
241.544	537.2
241.925	530.4
242.306	539.8
242.687	520
243.069	540.6
243.45	534.6
243.831	525
244.212	534.2
244.594	556.2
244.975	540.6
245.357	540
245.739	529.8
246.12	530.8
246.502	540.4
246.884	533
247.266	534.2
247.648	537.6
248.03	546
248.412	532
248.794	533.8
249.176	523.8
249.559	542
249.941	529.2
250.323	526.8
250.706	520.6
251.089	533.2
251.471	532.2
251.854	534.8
252.237	530.6
252.62	537.6
253.002	530.4
253.385	525
253.769	545.6
254.152	532.8
254.535	530
254.918	520.8
255.301	535.4
255.685	532
256.068	523.6
256.452	549.8
256.835	541
257.219	527.4
257.603	537
257.986	518.2
258.37	537.2
258.754	528.6
259.138	542.2
259.522	538
259.906	535
260.29	536
260.675	531.2
261.059	532
261.443	517.4
261.828	534.2
262.212	531.4
262.597	521.6
262.981	528.8
263.366	535.8
263.751	533.8
264.136	532.6
264.521	531.2
264.906	522.2
265.291	542.8
265.676	522.2
266.061	543.8
266.446	545.6
266.831	528.2
267.217	545.8
267.602	537.4
267.987	534.2
268.373	535.8
268.759	542
269.144	536.2
269.53	533.6
269.916	528.6
270.302	534.4
270.688	536
271.074	533.4
271.46	536.8
271.846	558.8
272.232	530.8
272.618	529.2
273.004	525.8
273.391	537.4
273.777	542.8
274.164	533
274.55	543
274.937	533.8
275.324	529.4
275.71	538.8
276.097	536
276.484	527.8
276.871	531.2
277.258	525.6
277.645	518.2
278.032	529.2
278.419	525.8
278.807	533
279.194	516.6
279.581	518.8
279.969	526.8
280.356	536.2
280.744	534.4
281.131	548.2
281.519	535.4
281.907	529
282.295	527.8
282.682	539.2
283.07	526.6
283.458	529.4
283.846	539.6
284.235	540.6
284.623	532.2
285.011	526.8
285.399	537.2
285.788	532.8
286.176	520.2
286.565	541.2
286.953	522.6
287.342	528.4
287.731	519.6
288.119	523.4
288.508	526.2
288.897	533
289.286	517
289.675	529.2
290.064	541
290.453	522.4
290.821	524
291.21	546.4
291.599	524.6
291.989	531.2
292.378	536
292.768	540.8
293.157	537.8
293.547	530.4
293.936	537.8
294.326	530
294.716	534.2
295.106	527.8
295.496	531.8
295.886	535
296.276	532.8
296.666	520
297.056	532
297.446	522.6
297.836	545.8
298.227	529
298.617	526.6
299.008	543.8
299.398	534.4
299.789	530
300.179	528.2
300.57	536
300.961	526
301.352	529
301.742	538
302.133	533.8
302.524	526.4
302.915	533
303.307	522
303.698	542.8
304.089	535.2
304.48	529.2
304.872	528.8
305.263	530.8
305.655	526
306.046	536.4
306.438	530
306.829	524.8
307.221	537.6
307.613	533
308.005	537.2
308.397	542.6
308.789	550.8
309.181	549.8
309.573	544
309.965	536.2
310.357	530.6
310.749	544
311.142	523.4
311.534	526
311.926	529
312.319	531.4
312.711	526.4
313.104	537.8
313.497	529.8
313.889	560.6
314.282	551
314.675	548
315.068	527
315.461	534.6
315.854	551
316.247	537.8
316.64	530.4
317.033	535.8
317.405	538.4
317.798	531.4
318.192	536.4
318.585	522.6
318.979	540.2
319.372	522
319.766	531
320.16	545.6
320.553	546.2
320.947	548.2
321.341	533.8
321.735	535.6
322.129	523.8
322.523	547
322.917	526.2
323.311	544
323.705	535.8
324.099	541.4
324.494	543
324.888	538.6
325.282	532.8
325.677	533.8
326.071	537.2
326.466	536.4
326.861	532
327.255	536.4
327.65	539.6
328.045	546
328.44	529.4
328.835	524.2
329.23	521.6
329.625	545.2
330.02	517.8
330.415	544.8
330.81	534.2
331.206	533
331.601	522.8
331.996	533
332.37	547.4
332.766	515.6
333.161	547.2
333.557	531.6
333.953	531
334.348	821.8
334.744	532.2
335.14	529.8
335.536	526.4
335.932	539.2
336.328	536
336.724	545.2
337.12	527.6
337.516	539.8
337.913	536
338.309	540.8
338.705	531.4
339.102	541.2
339.498	539.6
339.895	549.2
340.291	531.8
340.688	536.8
341.085	527.6
341.481	521
341.878	534.6
342.275	544.2
342.672	525.2
343.069	536.2
343.466	524.6
343.842	537.2
344.239	521.8
344.636	531.4
345.033	520.4
345.431	527.4
345.828	530.8
346.225	526
346.623	563.4
347.02	529.8
347.418	532
347.816	546
348.213	516.8
348.611	537
349.009	524.4
349.407	528.8
349.805	519
350.203	524
350.601	536.6
350.999	529.6
351.397	577.4
351.795	524.2
352.193	536.6
352.57	528.2
352.969	537.4
353.367	510.4
353.766	519.6
354.164	523.6
354.563	536.8
354.961	528.6
355.36	532.4
355.759	520
356.158	520.4
356.557	525.8
356.956	525.2
357.355	521
357.754	537.8
358.153	535.8
358.552	549
358.951	531.4
359.35	537
359.75	518
360.149	524
360.527	508.8
360.926	528.8
361.326	519.8
361.726	520.6
362.125	512.4
362.525	529.2
362.925	523
363.325	518.8
363.724	531
364.124	521
364.524	516.4
364.924	518
365.324	534.8
365.725	505.6
366.125	528.8
366.525	519.4
366.904	521.8
367.304	511.4
367.705	539
368.105	537
368.506	525
368.906	525.8
369.307	525.8
369.708	531.2
370.108	508.2
370.509	524.8
370.91	521.2
371.311	526.6
371.712	528.2
372.113	522.6
372.514	515
372.894	520.8
373.295	514
373.696	531.4
374.097	533.4
374.499	543.4
374.9	524.2
375.301	515.8
375.703	531.4
376.105	509.8
376.506	531.2
376.908	525.4
377.309	524.4
377.711	518.4
378.113	518
378.493	519.8
378.895	519
379.297	535.2
379.699	517.2
380.102	526.6
380.504	529.8
380.906	512
381.308	538.2
381.71	524
382.113	528.4
382.515	514.2
382.918	527.4
383.299	522.8
383.701	527.8
384.104	516.8
384.507	506.8
384.909	516.8
385.312	510.4
385.715	512.4
386.118	518.8
386.521	511.8
386.924	530.4
387.327	518
387.709	514.6
388.112	511.6
388.515	524.4
388.918	520.2
389.322	530.6
389.725	519.6
390.129	538.6
390.532	523.4
390.936	525.6
391.339	517.6
391.743	527.4
392.125	523.2
392.529	528.6
392.933	528.4
393.337	513.6
393.74	515.4
394.144	521.6
394.548	517.4
394.953	518.6
395.357	527
395.761	519.2
396.144	523
396.548	518.8
396.952	520.2
397.357	519.6
397.761	520.6
398.166	518.4
398.57	523.2
398.975	519.6
399.379	516.2
399.763	560.4
400.168	523.8
400.572	519.4
400.977	522.2
401.382	538.4
401.787	522.8
402.192	528
402.597	532.2
403.002	519
403.386	535
403.791	534.8
404.197	523.4
404.602	523
405.007	518.2
405.413	518
405.818	519.8
406.224	511.4
406.608	512
407.014	514.4
407.42	534.4
407.825	516.8
408.231	527
408.637	512.4
409.043	529.2
409.449	520.2
409.834	521.6
410.24	517.6
410.646	520.2
411.052	527.8
411.458	518.6
411.865	528.8
412.271	527.2
412.677	525.8
413.062	523.6
413.469	510.4
413.875	538
414.282	536
414.689	526.2
415.095	528.2
415.502	516.6
415.888	522.6
416.294	510.6
416.701	555.8
417.108	523.8
417.515	527.2
417.923	518.6
418.33	543.4
418.715	531.6
419.123	511.2
419.53	524.2
419.937	523.2
420.345	529
420.752	517.2
421.16	534.4
421.546	526
421.953	530
422.361	514.4
422.769	527.2
423.177	510
423.585	539.6
423.992	540.2
424.379	522.4
424.787	525.6
425.195	538.4
425.603	521.6
426.011	529.6
426.419	534.8
426.806	522.8
427.214	522
427.623	529
428.031	533.8
428.44	524.2
428.848	536.8
429.235	535.6
429.644	528
430.053	523
430.461	537.2
430.87	548.8
431.279	532
431.666	520.4
432.075	529.6
432.484	532.4
432.893	524.8
433.302	523
433.711	564.6
434.099	528.6
434.508	522.4
434.918	517.8
435.327	522
435.737	514.8
436.125	522.2
436.534	523.6
436.944	526.2
437.353	523
437.763	532
438.173	519.2
438.561	529.6
438.971	514.2
439.381	520
439.791	522.4
440.201	500.6
440.589	526.8
440.999	529.8
441.409	520.2
441.819	513.6
442.23	528.8
442.619	526.6
443.029	525.6
443.439	519
443.85	534.4
444.26	533.8
444.649	523.2
445.06	526
445.471	525
445.881	522.8
446.292	533.8
446.682	538.2
447.092	512
447.503	571.2
447.914	520.8
448.325	523.4
448.715	523
449.126	515.8
449.537	515.6
449.948	528
450.338	516.6
450.75	527.6
451.161	524.6
451.572	534
451.984	515.2
452.374	510.6
452.786	526.8
453.197	523.4
453.609	523.4
453.999	507.8
454.411	522.8
454.823	532
455.235	518.2
455.647	528.8
456.037	520
456.449	506.4
456.862	517.4
457.274	518
457.665	515.4
458.077	518.2
458.489	546.4
458.902	520.2
459.293	522.4
459.705	521.8
460.118	510
460.53	522.2
460.921	519.8
461.334	520.4
461.747	519
462.16	527.6
462.551	527
462.964	527.8
463.377	510.6
463.79	515.8
464.182	531
464.595	516.4
465.008	526.8
465.421	524.6
465.813	518.2
466.226	518.6
466.64	512
467.053	560
467.445	528
467.859	528.2
468.272	516.2
468.686	524
469.078	522.4
469.492	505.6
469.906	515.8
470.298	529.4
470.712	510.4
471.126	536.2
471.54	503.8
471.933	513
472.347	516.8
472.761	516
473.175	511.2
473.568	514.2
473.982	508.8
474.397	517.4
474.79	516.2
475.204	519.8
475.619	511.2
476.033	509.6
476.426	519.6
476.841	512.6
477.256	533
477.649	507.4
478.064	502.8
478.479	508.4
478.872	513.8
479.287	501.2
479.702	510.6
480.118	516.2
480.511	503.4
480.927	512.4
481.342	508.2
481.736	519
482.151	512.6
482.566	522
482.96	520
483.376	523.6
483.792	517.2
484.186	508.4
484.602	508.4
485.017	502.4
485.412	509.8
485.827	520
486.243	515.4
486.638	538.8
487.054	516.2
487.47	530.2
487.865	507.2
488.281	509
488.697	516.8
489.092	512.8
489.508	502.2
489.925	518.6
490.32	505.8
490.736	520.8
491.153	516.6
491.548	517.2
491.964	528.4
492.381	507.2
492.776	522.6
493.193	508.2
493.61	510.2
494.006	517.8
494.422	517.4
494.84	511.6
495.235	517.8
495.652	513.6
496.069	514.2
496.465	509.8
496.883	507.6
497.3	530.4
497.696	514
498.113	518.8
498.509	512
498.927	515
499.344	504.6
499.741	510.4
500.158	525
500.576	517.4
500.973	516.4
501.39	507
501.787	504.8
502.205	514.6
502.623	506
503.02	505
503.438	504.8
503.856	510
504.253	510.6
504.671	508.4
505.068	511
505.486	508.8
505.905	526
506.302	511
506.72	525.2
507.118	508.4
507.536	512.6
507.955	506.6
508.352	505.8
508.771	515.2
509.169	513.6
509.587	503
510.006	515.6
510.404	503
510.823	509.2
511.221	507.2
511.64	509.6
512.038	524.4
512.457	508.8
512.877	513
513.275	506.8
513.694	509.8
514.092	505.8
514.512	512.8
514.91	526.8
515.33	514.6
515.749	517
516.148	515.4
516.568	522.4
516.966	517.6
517.386	514.6
517.785	514.4
518.205	510.6
518.603	504.2
519.024	513.2
519.444	508.2
519.843	524.6
520.263	518.2
520.662	507
521.082	502.6
521.481	508.2
521.902	514.2
522.301	521.8
522.722	515.8
523.121	504.2
523.542	502.8
523.963	515.8
524.362	509.2
524.783	514
525.183	512.8
525.604	514.2
526.003	500.8
526.425	504.6
526.824	518
527.246	520
527.646	520.2
528.067	511.2
528.467	512
528.888	510.8
529.289	504.4
529.71	511.6
530.11	511.8
530.532	505.8
530.932	502
531.354	501.8
531.755	539.4
532.176	521.6
532.577	500
532.999	517.6
533.4	515.6
533.822	514.2
534.223	508.2
534.645	508.8
535.046	504.4
535.468	506.8
535.869	523.8
536.292	504.2
536.693	536.6
537.115	518.8
537.516	507.6
537.939	503.2
538.34	520
538.742	515.6
539.165	508
539.566	504.4
539.989	509
540.391	507.4
540.814	512.2
541.216	508.8
541.639	515.6
542.041	520.4
542.464	516.2
542.866	510.8
543.268	503.4
543.691	508
544.093	509.8
544.517	521.8
544.919	505.2
545.343	537.2
545.745	505.4
546.147	508.8
546.571	513.6
546.974	506.6
547.398	513.4
547.8	516.4
548.224	502.8
548.627	511.2
549.03	509.8
549.454	502.2
549.857	505.8
550.281	502.4
550.684	509
551.087	511.4
551.512	512.4
551.915	514.4
552.34	505.6
552.743	509.8
553.146	502.8
553.571	507.8
553.975	525.2
554.399	500.6
554.803	546.4
555.207	502.8
555.632	503.4
556.036	516.2
556.461	505
556.865	509
557.268	506.4
557.694	501.4
558.098	511
558.502	512.8
558.927	502.2
559.332	510.4
559.736	508.2
560.162	513
560.566	508.4
560.992	510.8
561.396	505.6
561.801	507.6
562.227	508.4
562.631	502.8
563.036	512
563.462	510.8
563.867	515.2
564.272	508.8
564.698	509.4
565.103	505.4
565.508	524
565.935	517.8
566.34	509.2
566.745	513
567.172	503.2
567.577	519.4
567.982	524
568.409	520
568.815	504
569.22	503.8
569.626	513.6
570.053	494.6
570.459	510.6
570.865	510.6
571.292	515
571.698	515
572.104	494.6
572.531	505.4
572.937	512.8
573.343	507.4
573.75	503.4
574.177	509.8
574.583	509.8
574.99	507
575.396	519.8
575.824	501
576.231	508.4
576.637	500.8
577.065	525.6
577.472	497.2
577.879	509
578.286	517.4
578.714	496.8
579.121	499.2
579.528	507.6
579.935	511.6
580.364	505
580.771	499
581.178	499.2
581.585	503.2
582.014	511.8
582.421	496.4
582.829	503.4
583.236	511.2
583.644	504.8
584.073	501.2
584.481	505.6
584.889	503.6
585.296	502.4
585.726	511.6
586.134	509.6
586.542	498.8
586.95	524.8
587.358	502.4
587.787	511.4
588.196	505
588.604	496.6
589.012	505.2
589.421	501.4
589.851	507.2
590.259	513.4
590.668	507.4
591.076	539
591.485	501.2
591.894	513
592.324	524.4
592.733	514.8
593.142	494.4
593.551	506
593.96	534.8
594.369	496.8
594.8	498.4
595.209	503.8
595.618	498.6
596.028	498
596.437	497.6
596.847	509.2
597.256	510.4
597.687	506.6
598.097	512.8
598.507	499.8
598.917	513.2
599.327	511
599.736	509.6
600.146	512.6
600.556	505.8
600.988	517.2
601.398	508.4
601.808	521.4
602.219	497
602.629	514.2
603.039	502.8
603.45	526.2
603.86	506
604.271	514
604.703	505.4
605.114	502
605.525	502.6
605.935	512
606.346	519.6
606.757	512
607.168	498.2
607.579	504.8
607.99	517.6
608.402	512.2
608.813	519.2
609.224	498.6
609.636	503.8
610.047	506
610.48	507.2
610.892	509.4
611.303	516.8
611.715	502
612.127	501.8
612.539	506.2
612.95	516.8
613.362	495.4
613.774	497
614.186	502
614.599	501.2
615.011	510.4
615.423	504.8
615.835	511.2
616.248	490
616.66	508.4
617.073	498.2
617.485	505.2
617.898	516.2
618.311	508.8
618.723	505.2
619.136	521.8
619.549	510.6
619.962	522.2
620.375	505
620.788	506.8
621.201	500.8
621.614	507
622.028	502
622.441	507.8
622.854	512.6
623.268	501.8
623.681	509.8
624.095	502.6
624.509	513.2
624.922	501.8
625.336	496.4
625.728	507.2
626.142	517.2
626.556	527.4
626.97	506.2
627.384	499.4
627.799	505.8
628.213	514.6
628.627	505
629.041	510.4
629.456	507
629.87	501.2
630.285	512
630.699	505.6
631.093	509.8
631.507	510
631.922	512.8
632.337	508.4
632.752	500.4
633.167	509.8
633.582	508.2
633.997	503.6
634.412	503.8
634.806	509.4
635.221	490.6
635.637	518.2
636.052	497.8
636.468	503
636.883	514.2
637.299	511.8
637.715	494.6
638.109	505.8
638.525	494.8
638.941	509.6
639.357	507.4
639.773	521
640.189	507.4
640.584	500.2
641	509.6
641.416	490.4
641.832	499.2
642.249	496.2
642.665	502.2
643.06	502.8
643.477	504.6
643.894	500
644.31	505.8
644.727	506.4
645.123	502.6
645.54	495.2
645.957	508.6
646.374	512.6
646.77	506.8
647.187	531.8
647.604	508.8
648.021	497.4
648.439	501.4
648.835	504
649.252	502
649.67	495.8
650.088	506.4
650.484	506.2
650.902	503.8
651.32	503
651.738	501.2
652.134	504.6
652.552	520
652.971	506.6
653.389	506
653.786	512.4
654.204	505.4
654.622	493.8
655.019	505
655.438	506.4
655.857	501.8
656.275	501.8
656.673	495.8
657.091	508.4
657.51	498.4
657.908	510.6
658.327	518.2
658.746	503.2
659.144	500.8
659.563	510.4
659.982	508.2
660.38	499
660.8	503
661.219	511
661.617	511.8
662.037	500
662.457	507.4
662.855	490.2
663.275	527.4
663.695	503.4
664.094	500.8
664.514	496.2
664.934	503.6
665.333	507.8
665.753	499
666.152	482
666.572	499.8
666.993	516.8
667.392	497.4
667.812	498.2
668.212	505
668.632	510
669.053	501
669.453	504
669.874	503.4
670.273	505
670.694	488.4
671.116	510.8
671.515	510
671.937	496.6
672.337	495
672.758	495.6
673.158	506.4
673.58	494
673.98	505.8
674.402	503.6
674.824	491.4
675.224	497.6
675.646	497.2
676.047	493.8
676.469	491.4
676.869	503
677.292	506.8
677.693	499.2
678.115	496.6
678.516	500.4
678.939	507.2
679.34	499.8
679.762	504.4
680.164	507.4
680.586	495.8
680.988	496.6
681.411	525
681.812	495.8
682.236	498.4
682.637	490.4
683.061	494.8
683.462	496.4
683.864	503.2
684.288	504
684.69	492.6
685.114	508.6
685.516	512
685.94	493.8
686.342	510.2
686.766	495.6
687.168	490
687.571	512
687.995	505.4
688.398	490.2
688.822	494
689.225	513.2
689.628	518.6
690.052	502.2
690.456	498.4
690.88	503.6
691.284	490.6
691.687	506
692.112	496.8
692.515	493
692.919	501.6
693.344	498.4
693.747	501
694.173	499
694.577	516.8
694.98	505.4
695.406	491.6
695.81	500.4
696.214	503.8
696.64	503.8
697.044	500
697.448	509.8
697.874	499.4
698.279	501.4
698.684	489.6
699.11	499.2
699.514	502.8
699.919	493.4
700.324	492.8
700.75	491.6
701.156	499.2
701.561	506.6
701.987	501.4
702.393	507
702.798	509
703.203	497
703.63	493
704.036	501.8
704.442	495.8
704.847	495.2
705.274	496.4
705.68	507.8
706.086	507.8
706.492	495.8
706.92	500.2
707.326	510.8
707.732	497.4
708.139	492.2
708.545	485.4
708.973	488.8
709.38	504.6
709.786	484.8
710.193	507.4
710.6	499.6
711.028	499.2
711.435	497
711.842	494.2
712.249	502.4
712.656	498.8
713.064	504.8
713.492	497.2
713.9	492.2
714.307	495.4
714.715	500.8
715.123	503.8
715.53	505.4
715.938	499.4
716.367	500
716.775	494.4
717.184	489.8
717.592	499.8
718	504.2
718.408	531.4
718.816	527.6
719.225	506.4
719.633	502.6
720.042	488.6
720.472	496.4
720.881	516.8
721.29	500.2
721.699	491.4
722.108	502.2
722.517	494.8
722.926	499.4
723.335	506.8
723.744	493.8
724.154	493.6
724.563	498
724.973	501
725.382	494.2
725.792	499.8
726.202	501.4
726.612	509.6
727.022	499
727.432	498.4
779.813	494.6
780.223	529.2
780.634	499.2
781.044	499.4
781.454	500.4
781.865	511.8
782.276	488.8
782.686	509.2
783.097	499.2
783.508	497.8
783.919	497.8
784.33	503.4
784.741	510
785.152	494
785.563	490.4
785.974	487.8
786.386	510.8
786.776	489.2
787.188	504
787.599	492.2
788.011	499
788.423	507
788.835	493
789.247	495
789.659	496.2
790.071	496.2
790.483	532
790.874	497.4
791.286	496
791.699	494
792.111	497.4
792.524	496
792.937	498.4
793.349	492.6
793.741	494.6
794.154	497.4
794.567	507.4
794.98	499.6
795.393	491.2
795.785	505
796.198	494.4
796.612	501.8
797.026	499.6
797.439	483.2
797.831	492.6
798.245	486.2
798.659	489.2
799.073	494.2
799.487	488
799.88	494.2
800.294	490.2
800.708	503.2
801.123	496.4
801.516	508
801.93	492.8
802.345	485.4
802.76	491
803.153	501.4
803.568	509.2
803.983	507.8
804.377	494.2
804.792	485.2
805.207	489
805.601	495.2
806.016	529.4
806.432	500.6
806.826	521.6
807.242	506.6
807.658	498.6
808.052	487
808.468	492.4
808.884	492.4
809.279	501.4
809.695	509
810.111	515.6
810.506	502
810.922	508.8
811.339	490.8
811.734	506.2
812.151	484.8
812.546	487.2
812.963	486.8
813.38	497.6
813.776	503
814.193	513
814.589	496.4
815.006	486.6
815.402	492.6
815.82	493
816.237	494
816.633	498.8
817.051	482.8
817.448	498.8
817.866	482
818.262	518
818.68	490.6
819.077	486
819.495	491.2
819.892	524.4
820.311	483.2
820.708	494.2
821.127	492.2
821.524	509.2
821.943	494.8
822.34	506.4
822.759	494.2
823.157	496.4
823.576	510.2
823.974	503
824.393	577.8
824.791	493.2
825.189	486.8
825.609	487.6
826.007	492
826.427	492.4
826.826	493.4
827.246	495
827.644	481.4
828.043	500.2
828.463	494.8
828.862	501.6
829.261	500.2
829.682	488.2
830.081	502.6
830.502	485.2
830.901	497.8
831.301	488
831.722	479
832.121	493.8
832.521	488.8
832.943	500.6
833.342	491.6
833.742	487
834.164	500.4
834.564	487.4
834.965	497.4
835.386	491.4
835.787	493.2
836.188	494
836.588	493.8
837.01	502
837.411	483.6
837.812	497
838.213	498.6
838.636	488.4
839.037	553
839.438	506.6
839.84	488.4
840.263	499.8
840.664	499.8
841.066	489.8
841.468	503.8
841.891	494.2
842.293	497.4
842.695	501.6
843.098	504.4
843.5	497.8
843.902	497
844.326	497
844.729	495.8
845.131	505.6
845.534	496.8
845.937	503.8
846.34	500.8
846.764	487.4
847.167	493.4
847.571	485.4
847.974	491.6
848.377	495.4
848.781	530.2
849.184	499.8
849.588	490.6
849.992	492.2
850.396	489.2
850.821	510
851.225	492.2
851.63	491
852.034	504.6
852.438	487.8
852.843	517.2
853.247	486.8
853.652	492.8
854.057	496
854.462	492.2
854.867	488.6
855.272	523.4
855.677	502.2
856.082	483.6
856.487	481.4
856.893	498
857.298	491.8
857.704	491.6
