#lambda/nm	C1
208.295	467.2
208.67	435
209.045	400.4
209.419	396
209.794	536.2
210.169	520.8
210.544	623.8
210.919	538.2
211.295	523.4
211.67	536
212.045	523.2
212.421	523.2
212.796	550.4
213.172	526.4
213.547	527.4
213.923	526.2
214.299	521.4
214.675	538.4
215.051	532.4
215.427	532.4
215.803	552
216.179	529.6
216.555	528.4
216.932	533.2
217.308	536.4
217.684	537
218.061	545.4
218.438	535.8
218.814	533.6
219.191	538.6
219.568	521.8
219.945	527.6
220.322	533.4
220.699	528.8
221.076	540.4
221.453	540.6
221.83	524.8
222.208	526.8
222.585	524.6
222.962	522.8
223.34	530.8
223.717	524.8
224.095	515.4
224.473	525.6
224.851	517.8
225.229	524.2
225.607	536
225.985	520
226.363	529.8
226.741	530.2
227.119	532.8
227.497	540.6
227.876	523.4
228.254	539
228.633	532.4
229.011	531.8
229.39	537.4
229.769	533
230.148	537.2
230.527	555.6
230.905	529
231.284	540.4
231.664	530.2
232.043	543.6
232.422	533.4
232.801	528.8
233.181	538.2
233.56	530.8
233.94	525.4
234.319	524.6
234.699	530.8
235.079	568.4
235.458	556.6
235.838	543.2
236.218	525
236.598	527.2
236.978	528
237.358	523.4
237.738	530.6
238.119	533.4
238.499	524.6
238.88	533.6
239.26	536
239.641	520.8
240.021	529.6
240.402	527.2
240.783	531
241.163	531.8
241.544	534
241.925	537.2
242.306	545.8
242.687	523.4
243.069	527.6
243.45	535.2
243.831	534
244.212	528
244.594	563
244.975	531.2
245.357	539
245.739	520
246.12	526.4
246.502	544.6
246.884	523.6
247.266	523
247.648	532.6
248.03	547
248.412	520.6
248.794	532.8
249.176	530.2
249.559	538.8
249.941	522
250.323	524.2
250.706	528.6
251.089	534.6
251.471	533.8
251.854	530.6
252.237	528.6
252.62	532.6
253.002	533.4
253.385	524.8
253.769	538.8
254.152	535.6
254.535	530.6
254.918	516.2
255.301	523.2
255.685	533
256.068	528
256.452	551.8
256.835	537.8
257.219	539.8
257.603	546.6
257.986	520.2
258.37	534.6
258.754	522.2
259.138	542
259.522	539.4
259.906	523
260.29	527.6
260.675	532.4
261.059	536.4
261.443	530.2
261.828	535.4
262.212	528
262.597	521.6
262.981	527.6
263.366	536.8
263.751	528.8
264.136	528.2
264.521	533.2
264.906	526.2
265.291	539.6
265.676	532.2
266.061	539
266.446	544.8
266.831	531.4
267.217	545.4
267.602	532.2
267.987	537.4
268.373	538.4
268.759	536.8
269.144	536.8
269.53	533.4
269.916	535.2
270.302	532
270.688	534
271.074	532.6
271.46	541.2
271.846	554.8
272.232	528
272.618	528
273.004	529.6
273.391	544.6
273.777	539.6
274.164	535.6
274.55	541.4
274.937	531.6
275.324	522.8
275.71	536.6
276.097	538.8
276.484	529.8
276.871	536
277.258	538.6
277.645	525
278.032	535.8
278.419	531.6
278.807	542.2
279.194	527.2
279.581	531.4
279.969	536
280.356	529.2
280.744	529.4
281.131	554.8
281.519	540.8
281.907	530.6
282.295	530.6
282.682	536.2
283.07	535
283.458	539.6
283.846	540.6
284.235	533.6
284.623	538.6
285.011	528
285.399	533.8
285.788	530.4
286.176	525.8
286.565	539.8
286.953	529
287.342	526.6
287.731	523.4
288.119	527.4
288.508	523.8
288.897	536.2
289.286	527.8
289.675	530.4
290.064	529.2
290.453	532.4
290.821	531
291.21	543.6
291.599	531
291.989	529.2
292.378	530.8
292.768	546
293.157	540.4
293.547	534.8
293.936	539.2
294.326	524.4
294.716	538.6
295.106	530.8
295.496	539.6
295.886	543.8
296.276	533.8
296.666	528
297.056	533.6
297.446	524.8
297.836	550.4
298.227	525.4
298.617	538.6
299.008	547
299.398	530.2
299.789	528.6
300.179	539.2
300.57	538.6
300.961	534.2
301.352	528
301.742	533.4
302.133	538.8
302.524	533.8
302.915	535.2
303.307	525.2
303.698	538.4
304.089	537.8
304.48	530.4
304.872	537.2
305.263	530
305.655	528.6
306.046	541.8
306.438	531.6
306.829	528.2
307.221	548.6
307.613	537
308.005	538.6
308.397	542.8
308.789	547.2
309.181	548
309.573	548.2
309.965	537.8
310.357	531.4
310.749	539.6
311.142	529.8
311.534	525.4
311.926	534.8
312.319	529.4
312.711	520.4
313.104	542.2
313.497	526.8
313.889	560
314.282	544.2
314.675	553.8
315.068	528.2
315.461	537.4
315.854	556
316.247	539.8
316.64	531.4
317.033	529.4
317.405	529.4
317.798	534.6
318.192	529.4
318.585	529.4
318.979	534.4
319.372	522
319.766	533.4
320.16	531.4
320.553	545
320.947	543.8
321.341	524.2
321.735	521.8
322.129	519.6
322.523	540.6
322.917	522.6
323.311	537.8
323.705	529.2
324.099	529.4
324.494	547.8
324.888	540
325.282	526.6
325.677	544.6
326.071	540.6
326.466	539.2
326.861	529.2
327.255	540.2
327.65	537
328.045	552.4
328.44	529.4
328.835	529.4
329.23	526
329.625	551.4
330.02	530.4
330.415	547.2
330.81	529.4
331.206	530
331.601	530.8
331.996	535
332.37	557.6
332.766	529
333.161	553.8
333.557	524.2
333.953	532
334.348	826.4
334.744	535
335.14	529.2
335.536	529
335.932	537
336.328	527.4
336.724	530.4
337.12	523.4
337.516	537.2
337.913	531.8
338.309	538.8
338.705	535.6
339.102	536.8
339.498	527.2
339.895	536.6
340.291	528.2
340.688	537.4
341.085	520.2
341.481	528.8
341.878	539.8
342.275	542
342.672	520
343.069	529.8
343.466	515.2
343.842	533.4
344.239	523
344.636	530
345.033	516.6
345.431	517.4
345.828	528.6
346.225	517.4
346.623	546.8
347.02	526.6
347.418	532.8
347.816	538
348.213	525
348.611	527.6
349.009	522.8
349.407	537.2
349.805	520.4
350.203	517.2
350.601	542.4
350.999	525.2
351.397	568.6
351.795	524
352.193	536
352.57	537.6
352.969	537.4
353.367	516.8
353.766	520.4
354.164	526.4
354.563	537.6
354.961	526.2
355.36	529.2
355.759	530.8
356.158	525.4
356.557	515.6
356.956	522.8
357.355	513.6
357.754	527.8
358.153	533
358.552	542.6
358.951	521.4
359.35	537.4
359.75	526.8
360.149	523.6
360.527	511.8
360.926	519.2
361.326	527
361.726	526.4
362.125	521
362.525	530.4
362.925	527.2
363.325	533.2
363.724	533.2
364.124	532.2
364.524	518.2
364.924	524
365.324	534
365.725	507.8
366.125	534.8
366.525	525
366.904	523
367.304	515.2
367.705	542.2
368.105	534.2
368.506	522.6
368.906	527.6
369.307	528.8
369.708	532
370.108	507
370.509	539.2
370.91	517
371.311	528.2
371.712	520.4
372.113	527.8
372.514	517.8
372.894	527
373.295	517.4
373.696	530.8
374.097	530.2
374.499	551.6
374.9	526.8
375.301	515.6
375.703	524.2
376.105	513.2
376.506	526.2
376.908	520.6
377.309	524.2
377.711	524.8
378.113	516.2
378.493	520.2
378.895	523
379.297	530.8
379.699	514.8
380.102	525
380.504	519
380.906	523.2
381.308	546.8
381.71	528.6
382.113	533
382.515	523.6
382.918	528
383.299	519.2
383.701	533.4
384.104	522.2
384.507	507.8
384.909	527
385.312	519.2
385.715	507.4
386.118	533.4
386.521	513.2
386.924	525.6
387.327	516.4
387.709	517
388.112	504.6
388.515	521.6
388.918	522.8
389.322	526.2
389.725	517.2
390.129	537.6
390.532	528.8
390.936	521.6
391.339	516
391.743	524.4
392.125	519.4
392.529	531.6
392.933	539.4
393.337	522.2
393.74	525.2
394.144	526.6
394.548	517.8
394.953	516
395.357	527.8
395.761	521
396.144	532.6
396.548	526
396.952	521
397.357	527.2
397.761	518.8
398.166	519
398.57	516
398.975	522.6
399.379	526.2
399.763	564
400.168	523
400.572	516.2
400.977	517
401.382	536.6
401.787	528
402.192	533.6
402.597	536
403.002	518.6
403.386	536.6
403.791	532.4
404.197	520.6
404.602	524.8
405.007	519.2
405.413	524.6
405.818	516.6
406.224	519.4
406.608	518
407.014	507.6
407.42	532.4
407.825	517.4
408.231	528.6
408.637	519.6
409.043	535.2
409.449	517.6
409.834	513.6
410.24	522.4
410.646	538.4
411.052	523.8
411.458	521.2
411.865	528.6
412.271	531.2
412.677	522
413.062	528.4
413.469	512.2
413.875	546.8
414.282	534.6
414.689	537.6
415.095	518.4
415.502	516.4
415.888	522.2
416.294	511.4
416.701	548.4
417.108	519.8
417.515	522.2
417.923	521.8
418.33	537.6
418.715	526.6
419.123	519.2
419.53	523.4
419.937	529.4
420.345	536.8
420.752	521.4
421.16	538
421.546	515.8
421.953	528.4
422.361	515
422.769	519.2
423.177	520.4
423.585	543.6
423.992	542.8
424.379	530
424.787	530.2
425.195	541.2
425.603	525.6
426.011	531.8
426.419	536.4
426.806	527.4
427.214	527
427.623	536.2
428.031	532.2
428.44	529.4
428.848	525.4
429.235	541
429.644	534.2
430.053	528.8
430.461	537.6
430.87	546.6
431.279	533.4
431.666	522.8
432.075	521.2
432.484	532
432.893	529.6
433.302	524.6
433.711	555.4
434.099	524.2
434.508	525.4
434.918	516.8
435.327	535.2
435.737	529.8
436.125	525
436.534	529
436.944	525.2
437.353	519.6
437.763	541.2
438.173	511.6
438.561	530.6
438.971	510
439.381	526
439.791	519.4
440.201	509
440.589	521.8
440.999	528.2
441.409	518
441.819	515.4
442.23	527
442.619	525.6
443.029	516.6
443.439	526.8
443.85	527.8
444.26	520.2
444.649	524.6
445.06	521.6
445.471	510.4
445.881	515.8
446.292	535.4
446.682	529.2
447.092	507.6
447.503	562.6
447.914	520.2
448.325	513.8
448.715	523.4
449.126	514.6
449.537	523.4
449.948	522.6
450.338	515.6
450.75	522.6
451.161	519.6
451.572	528.4
451.984	521
452.374	510
452.786	512.6
453.197	526.8
453.609	529.2
453.999	517.4
454.411	515
454.823	522.2
455.235	523.6
455.647	514.6
456.037	524.2
456.449	502
456.862	517.8
457.274	527
457.665	511.6
458.077	528.4
458.489	541.2
458.902	510.6
459.293	523.6
459.705	527.8
460.118	514
460.53	518.8
460.921	520.8
461.334	520.4
461.747	523
462.16	530.2
462.551	528
462.964	522.6
463.377	507.4
463.79	518.4
464.182	531.8
464.595	514
465.008	523.2
465.421	516.2
465.813	519.8
466.226	521.4
466.64	512.4
467.053	553
467.445	527
467.859	529
468.272	528.4
468.686	535.4
469.078	520.6
469.492	511.4
469.906	515.8
470.298	524.2
470.712	512.2
471.126	539
471.54	506.2
471.933	509.6
472.347	515.4
472.761	517.4
473.175	502.8
473.568	498.8
473.982	501.2
474.397	515.4
474.79	515
475.204	524.8
475.619	518.6
476.033	523
476.426	514
476.841	503.4
477.256	537
477.649	519.2
478.064	515.4
478.479	512
478.872	510
479.287	501.8
479.702	509.4
480.118	517.6
480.511	514
480.927	515.2
481.342	516.8
481.736	522.8
482.151	520.8
482.566	524.8
482.96	513.2
483.376	528.2
483.792	517.6
484.186	521.6
484.602	515.2
485.017	517.8
485.412	515.8
485.827	523.8
486.243	514.8
486.638	535.2
487.054	523
487.47	527.2
487.865	517.6
488.281	513.8
488.697	503
489.092	512.6
489.508	514
489.925	526.6
490.32	501
490.736	528.4
491.153	515
491.548	514.6
491.964	520.8
492.381	507.6
492.776	522
493.193	514.4
493.61	518.6
494.006	517.4
494.422	523.6
494.84	504
495.235	521
495.652	510.8
496.069	511.4
496.465	518.6
496.883	512.8
497.3	531
497.696	504
498.113	519.4
498.509	510.2
498.927	503.2
499.344	510.6
499.741	512.6
500.158	522.4
500.576	523
500.973	505.8
501.39	505.6
501.787	504.2
502.205	510.6
502.623	508.8
503.02	497.4
503.438	501
503.856	516.8
504.253	518.2
504.671	512.6
505.068	511.4
505.486	512.8
505.905	527.6
506.302	512.2
506.72	520
507.118	505.6
507.536	515.2
507.955	506.2
508.352	515.8
508.771	514.6
509.169	517
509.587	504
510.006	508.4
510.404	505.6
510.823	502.8
511.221	506.2
511.64	509
512.038	518.6
512.457	507.2
512.877	512
513.275	505.6
513.694	516.8
514.092	503.2
514.512	515
514.91	526.2
515.33	506.8
515.749	507.6
516.148	509
516.568	512.4
516.966	501
517.386	508.6
517.785	510.2
518.205	502
518.603	511.6
519.024	503.4
519.444	513.8
519.843	520.6
520.263	529.4
520.662	517
521.082	508.8
521.481	516.2
521.902	512.2
522.301	512.8
522.722	511.8
523.121	511.4
523.542	509.6
523.963	510
524.362	510
524.783	511.2
525.183	517
525.604	516.4
526.003	509.4
526.425	504.2
526.824	516.8
527.246	523.4
527.646	522.8
528.067	512.6
528.467	516
528.888	516.2
529.289	516.4
529.71	516.4
530.11	510.4
530.532	508
530.932	509.2
531.354	508.2
531.755	543
532.176	517.2
532.577	509.6
532.999	511.2
533.4	511.2
533.822	516.6
534.223	509.2
534.645	516
535.046	504.6
535.468	510.6
535.869	522.2
536.292	510.2
536.693	539.8
537.115	508.8
537.516	506.2
537.939	506.2
538.34	523.4
538.742	513.6
539.165	513.4
539.566	509.2
539.989	505.4
540.391	505.8
540.814	510.6
541.216	508.8
541.639	508.8
542.041	520.8
542.464	509.4
542.866	505.2
543.268	499.6
543.691	508.4
544.093	515
544.517	524.6
544.919	512.8
545.343	528
545.745	502
546.147	518.4
546.571	508
546.974	509.2
547.398	511.8
547.8	517.2
548.224	504
548.627	506.8
549.03	509
549.454	504.4
549.857	500.4
550.281	502.2
550.684	507.8
551.087	519.4
551.512	511.8
551.915	510.8
552.34	509.8
552.743	512.8
553.146	509.8
553.571	508.6
553.975	517.4
554.399	501.4
554.803	551
555.207	506.2
555.632	507.4
556.036	509.6
556.461	506.2
556.865	506.6
557.268	505.2
557.694	513.4
558.098	513.8
558.502	515.2
558.927	498.2
559.332	508.8
559.736	504.2
560.162	515.2
560.566	513.2
560.992	515.4
561.396	510.2
561.801	512.8
562.227	511
562.631	509.4
563.036	509.8
563.462	522
563.867	505.4
564.272	500
564.698	512.2
565.103	501
565.508	526.2
565.935	509.8
566.34	515.8
566.745	516
567.172	509.4
567.577	524.2
567.982	519.8
568.409	518.8
568.815	496
569.22	505.4
569.626	513
570.053	496.4
570.459	505.8
570.865	517.6
571.292	509.4
571.698	510.4
572.104	500
572.531	507.6
572.937	509.2
573.343	509.2
573.75	506
574.177	514.6
574.583	514
574.99	504
575.396	513.8
575.824	507.4
576.231	508.8
576.637	503
577.065	530
577.472	506.2
577.879	502.2
578.286	516.4
578.714	504.4
579.121	509.8
579.528	514.2
579.935	518.2
580.364	512.6
580.771	493.4
581.178	506
581.585	512.4
582.014	515
582.421	500.4
582.829	500.6
583.236	523.2
583.644	509.8
584.073	508.8
584.481	509.2
584.889	508.6
585.296	509.8
585.726	505.8
586.134	495.6
586.542	501
586.95	522.2
587.358	499.2
587.787	508.4
588.196	499.6
588.604	501.4
589.012	503
589.421	497.8
589.851	507
590.259	511.6
590.668	507.4
591.076	535.4
591.485	507.2
591.894	505.2
592.324	514.6
592.733	512.6
593.142	491.8
593.551	514.2
593.96	532.2
594.369	501.6
594.8	503.2
595.209	507.6
595.618	489.2
596.028	503
596.437	497.6
596.847	503.8
597.256	507.8
597.687	510.6
598.097	509.4
598.507	500.4
598.917	504.6
599.327	510.2
599.736	511.2
600.146	519.2
600.556	501
600.988	520
601.398	507.4
601.808	514
602.219	500.2
602.629	502.4
603.039	509.2
603.45	527.4
603.86	508.6
604.271	515.2
604.703	506.6
605.114	509
605.525	513
605.935	511.4
606.346	527.4
606.757	510.6
607.168	507.6
607.579	507.8
607.99	513
608.402	503.2
608.813	514.6
609.224	507.2
609.636	499
610.047	506.4
610.48	509.4
610.892	512.8
611.303	518.4
611.715	512
612.127	509
612.539	512.4
612.95	506.2
613.362	499.6
613.774	497
614.186	505.4
614.599	505
615.011	518.4
615.423	513.6
615.835	509.2
616.248	508
616.66	513.6
617.073	499.8
617.485	507.2
617.898	521.6
618.311	514.8
618.723	512.4
619.136	535.8
619.549	531.6
619.962	538
620.375	518.8
620.788	524
621.201	508.2
621.614	516.8
622.028	512.6
622.441	515.6
622.854	527.6
623.268	507.8
623.681	526.4
624.095	514.8
624.509	520.2
624.922	520
625.336	511.4
625.728	524.4
626.142	522.8
626.556	534
626.97	520
627.384	517
627.799	512
628.213	526.6
628.627	519.4
629.041	512.6
629.456	509.2
629.87	505.2
630.285	516.6
630.699	522.4
631.093	523.2
631.507	526.4
631.922	523
632.337	526
632.752	507
633.167	506.6
633.582	508.6
633.997	509.4
634.412	511.8
634.806	513.4
635.221	503
635.637	521.6
636.052	507.4
636.468	511.8
636.883	526.4
637.299	507.2
637.715	512.2
638.109	510.8
638.525	495.8
638.941	520.2
639.357	510.6
639.773	521
640.189	510.2
640.584	515.2
641	519.2
641.416	504
641.832	516.4
642.249	509.6
642.665	508.6
643.06	512.8
643.477	514.6
643.894	499.2
644.31	506.4
644.727	510.6
645.123	520.6
645.54	505.6
645.957	515.4
646.374	517
646.77	509
647.187	538.2
647.604	508
648.021	500
648.439	507
648.835	507.4
649.252	503
649.67	505.8
650.088	518.2
650.484	513.8
650.902	517.4
651.32	515.4
651.738	513.2
652.134	516
652.552	524.2
652.971	514.8
653.389	508.8
653.786	521.8
654.204	509.8
654.622	498.4
655.019	501.6
655.438	509.8
655.857	511.4
656.275	516
656.673	504.2
657.091	509.4
657.51	509.6
657.908	525.6
658.327	515.8
658.746	498.4
659.144	507.6
659.563	521
659.982	507
660.38	505.6
660.8	511.2
661.219	508.4
661.617	512.8
662.037	507.6
662.457	512
662.855	495.6
663.275	529
663.695	501.2
664.094	505.8
664.514	517.4
664.934	500.2
665.333	508.6
665.753	500.2
666.152	488.6
666.572	491.8
666.993	516
667.392	507.2
667.812	508
668.212	497.2
668.632	510.8
669.053	502.6
669.453	502.8
669.874	508.2
670.273	501.6
670.694	492.8
671.116	515
671.515	509.6
671.937	505.6
672.337	505.2
672.758	497.8
673.158	510.8
673.58	494.6
673.98	506.6
674.402	521.2
674.824	504.2
675.224	503.2
675.646	495.4
676.047	502.8
676.469	512.4
676.869	507.8
677.292	510.8
677.693	491.4
678.115	495
678.516	516.6
678.939	506.4
679.34	504.4
679.762	517.4
680.164	507.6
680.586	491.8
680.988	508.6
681.411	522
681.812	504.6
682.236	501.8
682.637	495
683.061	496.2
683.462	509.8
683.864	505.2
684.288	511.4
684.69	493.8
685.114	505.2
685.516	509
685.94	502.8
686.342	514.4
686.766	496
687.168	498.6
687.571	513.6
687.995	500
688.398	493.4
688.822	492.2
689.225	516.8
689.628	517
690.052	500.8
690.456	507.8
690.88	496.6
691.284	495.6
691.687	513.4
692.112	495
692.515	499.6
692.919	504.6
693.344	506
693.747	498.4
694.173	497.8
694.577	501.6
694.98	497.4
695.406	505.4
695.81	508
696.214	512.2
696.64	507.6
697.044	503
697.448	511
697.874	497
698.279	493.6
698.684	489.8
699.11	492.4
699.514	493.4
699.919	499.6
700.324	490
700.75	502.6
701.156	499
701.561	505
701.987	502.8
702.393	507.2
702.798	509.2
703.203	494.2
703.63	492.4
704.036	499.2
704.442	498.6
704.847	493.6
705.274	503
705.68	500.2
706.086	515.8
706.492	492.4
706.92	499.4
707.326	508.6
707.732	497
708.139	495.2
708.545	492
708.973	501.8
709.38	497.4
709.786	491.4
710.193	501
710.6	498.6
711.028	493.2
711.435	497.6
711.842	494.4
712.249	488
712.656	492
713.064	505.4
713.492	483.8
713.9	495.8
714.307	503.2
714.715	503.6
715.123	506.8
715.53	502.6
715.938	506.4
716.367	498.4
716.775	502
717.184	494.4
717.592	499.8
718	512.6
718.408	526.2
718.816	530.4
719.225	508
719.633	503.2
720.042	494.6
720.472	495
720.881	522.2
721.29	500.2
721.699	492.8
722.108	504.4
722.517	501
722.926	494
723.335	509.6
723.744	500.4
724.154	502.2
724.563	497.8
724.973	514.6
725.382	500.2
725.792	504.4
726.202	490.4
726.612	509.2
727.022	498.2
727.432	496.6
779.813	488.6
780.223	523.8
780.634	502.6
781.044	491.6
781.454	499.4
781.865	504.2
782.276	489.4
782.686	501
783.097	490.6
783.508	493.4
783.919	491.4
784.33	505.4
784.741	507.2
785.152	484.4
785.563	482.4
785.974	489.6
786.386	500.4
786.776	495.2
787.188	490.8
787.599	493.2
788.011	503.8
788.423	491.6
788.835	487
789.247	496.2
789.659	491.2
790.071	492.8
790.483	525.6
790.874	493
791.286	504.6
791.699	493.4
792.111	488.8
792.524	503.6
792.937	497.2
793.349	497.8
793.741	495.4
794.154	488.2
794.567	512
794.98	497.4
795.393	499.6
795.785	510.8
796.198	495.4
796.612	501.4
797.026	491.6
797.439	489.4
797.831	496.6
798.245	489.2
798.659	497
799.073	489.8
799.487	496
799.88	492.6
800.294	495.8
800.708	502
801.123	493.4
801.516	510.4
801.93	484.6
802.345	485.2
802.76	495.2
803.153	501.8
803.568	511.2
803.983	504.4
804.377	497
804.792	485.2
805.207	493.6
805.601	502.8
806.016	521
806.432	486.2
806.826	517.6
807.242	507.8
807.658	494.8
808.052	499.2
808.468	498.2
808.884	493
809.279	492.4
809.695	504.8
810.111	511.4
810.506	506.4
810.922	504.4
811.339	495.6
811.734	500.4
812.151	493.8
812.546	488.6
812.963	493.2
813.38	497.8
813.776	498
814.193	506.6
814.589	493.2
815.006	498.4
815.402	489
815.82	491
816.237	494
816.633	498.2
817.051	482.6
817.448	499.2
817.866	490
818.262	512.2
818.68	492.4
819.077	494.6
819.495	493.8
819.892	531.4
820.311	493.2
820.708	497
821.127	491
821.524	502
821.943	495.8
822.34	504
822.759	497
823.157	495.6
823.576	510.4
823.974	502.8
824.393	586.8
824.791	485.6
825.189	494.4
825.609	497.6
826.007	496.4
826.427	484.8
826.826	493
827.246	508.4
827.644	481.6
828.043	500
828.463	500.4
828.862	503.2
829.261	495.6
829.682	485.2
830.081	497.8
830.502	485.8
830.901	502
831.301	490.8
831.722	487.2
832.121	495.8
832.521	491.2
832.943	495.4
833.342	495
833.742	494.2
834.164	497.4
834.564	488.2
834.965	497.2
835.386	485.4
835.787	492.2
836.188	491
836.588	493.6
837.01	496.2
837.411	486.2
837.812	502.4
838.213	500.6
838.636	484.6
839.037	560.4
839.438	494.6
839.84	496.6
840.263	500
840.664	500.4
841.066	486
841.468	494.6
841.891	487.6
842.293	500.4
842.695	498.8
843.098	504.8
843.5	499.2
843.902	493.2
844.326	489.2
844.729	491.4
845.131	496
845.534	495.2
845.937	499.2
846.34	505.2
846.764	485.4
847.167	497.4
847.571	490.6
847.974	496.4
848.377	492.2
848.781	536.8
849.184	503.6
849.588	491.8
849.992	494.6
850.396	497.4
850.821	513.4
851.225	496
851.63	498.4
852.034	503.6
852.438	499.6
852.843	561.4
853.247	489.8
853.652	495.4
854.057	504.4
854.462	498.2
854.867	492.2
855.272	523.6
855.677	497
856.082	489.4
