#lambda/nm	C1
208.295	469.8
208.67	437.8
209.045	392.6
209.419	401.2
209.794	531.4
210.169	525.4
210.544	628.8
210.919	539.2
211.295	529.8
211.67	533.6
212.045	527.6
212.421	529.4
212.796	561.8
213.172	523.4
213.547	538
213.923	525.8
214.299	521.6
214.675	536.6
215.051	540
215.427	542.6
215.803	550.2
216.179	539
216.555	525
216.932	538.4
217.308	531.4
217.684	531.4
218.061	537.8
218.438	536.8
218.814	520.8
219.191	532.8
219.568	521.6
219.945	528.4
220.322	535.8
220.699	530.2
221.076	539.6
221.453	531.4
221.83	523
222.208	527.2
222.585	528.6
222.962	532.8
223.34	532
223.717	526.8
224.095	530.4
224.473	528
224.851	517.6
225.229	525.4
225.607	547.4
225.985	527.4
226.363	536.2
226.741	532
227.119	528.2
227.497	548.6
227.876	514
228.254	528
228.633	533.2
229.011	536.2
229.39	535
229.769	532.2
230.148	543.4
230.527	553.4
230.905	533.4
231.284	533.4
231.664	528.8
232.043	546.2
232.422	544.2
232.801	526.2
233.181	533.2
233.56	531
233.94	531
234.319	516.8
234.699	526.8
235.079	562
235.458	544.6
235.838	547.4
236.218	517.4
236.598	523.2
236.978	520.6
237.358	523.4
237.738	521.2
238.119	532.6
238.499	518.6
238.88	532
239.26	544.4
239.641	522.6
240.021	532
240.402	532.2
240.783	525.2
241.163	536.6
241.544	534.6
241.925	532.2
242.306	541.2
242.687	524
243.069	537.8
243.45	544.8
243.831	532
244.212	527.8
244.594	562.4
244.975	539.6
245.357	533
245.739	525
246.12	530
246.502	542.6
246.884	540.2
247.266	524.8
247.648	527
248.03	548
248.412	541.8
248.794	535.2
249.176	525
249.559	536.8
249.941	530
250.323	526.6
250.706	527.8
251.089	531.6
251.471	530.8
251.854	525.2
252.237	536
252.62	543.4
253.002	535.2
253.385	531.6
253.769	544.8
254.152	531.8
254.535	537
254.918	527.2
255.301	535.2
255.685	532.6
256.068	526
256.452	551.6
256.835	535.8
257.219	534.2
257.603	548.6
257.986	524.2
258.37	537.8
258.754	523.2
259.138	541
259.522	541
259.906	532.6
260.29	539.2
260.675	527.8
261.059	531.8
261.443	523
261.828	540.6
262.212	530
262.597	520.8
262.981	532
263.366	525.4
263.751	529.8
264.136	527.8
264.521	524.8
264.906	528
265.291	540.8
265.676	532.8
266.061	535.6
266.446	545.6
266.831	533.4
267.217	553.4
267.602	535
267.987	530.4
268.373	531.6
268.759	536
269.144	535.4
269.53	530.2
269.916	526.4
270.302	526.4
270.688	548.2
271.074	536.4
271.46	544.2
271.846	558.6
272.232	520.2
272.618	532.4
273.004	523.6
273.391	534.8
273.777	544
274.164	530.8
274.55	537
274.937	531
275.324	522
275.71	531.4
276.097	531.4
276.484	516.2
276.871	534.4
277.258	533.6
277.645	522.2
278.032	532.8
278.419	531.8
278.807	536.8
279.194	523
279.581	523.8
279.969	535.6
280.356	526.6
280.744	532.6
281.131	546.8
281.519	543.2
281.907	526.8
282.295	520
282.682	538.6
283.07	528.2
283.458	544.4
283.846	542.8
284.235	544.6
284.623	539.4
285.011	523
285.399	532.2
285.788	522.2
286.176	525
286.565	542.4
286.953	526
287.342	521.2
287.731	525.4
288.119	532.6
288.508	531
288.897	540.6
289.286	530.4
289.675	523.8
290.064	530.8
290.453	527.2
290.821	530.4
291.21	540.6
291.599	529.2
291.989	532.8
292.378	528.6
292.768	546
293.157	544.6
293.547	540
293.936	528.6
294.326	520.2
294.716	536.8
295.106	523
295.496	533.4
295.886	537.6
296.276	533.4
296.666	520.6
297.056	532.4
297.446	515.6
297.836	535
298.227	522.6
298.617	532.2
299.008	545.2
299.398	525.6
299.789	526.8
300.179	533
300.57	540.2
300.961	528.6
301.352	524
301.742	539.2
302.133	534
302.524	533.8
302.915	532.8
303.307	524.4
303.698	540.4
304.089	532.4
304.48	534.6
304.872	535.6
305.263	541
305.655	523
306.046	540
306.438	528.4
306.829	527.2
307.221	548.8
307.613	538.8
308.005	538.6
308.397	550.4
308.789	546.4
309.181	554.2
309.573	543
309.965	539.2
310.357	529.4
310.749	542.2
311.142	528.6
311.534	527.8
311.926	532.6
312.319	534.4
312.711	529.6
313.104	540.2
313.497	532.8
313.889	553.8
314.282	541.4
314.675	551.2
315.068	530
315.461	536.4
315.854	561.4
316.247	535.4
316.64	533.8
317.033	527.8
317.405	535.4
317.798	526.8
318.192	543.8
318.585	520
318.979	534
319.372	529.8
319.766	534
320.16	535.8
320.553	542
320.947	546.6
321.341	528.2
321.735	530
322.129	516.6
322.523	548.2
322.917	524
323.311	541.4
323.705	534.8
324.099	531.4
324.494	545.4
324.888	537.8
325.282	523.2
325.677	535
326.071	537.4
326.466	531.8
326.861	536.4
327.255	547.4
327.65	548.4
328.045	544.6
328.44	530
328.835	531.8
329.23	529.8
329.625	548.6
330.02	529.6
330.415	547.6
330.81	532.4
331.206	538.2
331.601	530.2
331.996	531.6
332.37	546.4
332.766	524.8
333.161	551.4
333.557	529
333.953	525.6
334.348	819.4
334.744	524.8
335.14	522.4
335.536	527.6
335.932	533.2
336.328	525.4
336.724	533.2
337.12	527.8
337.516	531
337.913	528
338.309	539
338.705	522.8
339.102	535.4
339.498	529.6
339.895	541
340.291	525.4
340.688	542.2
341.085	531.4
341.481	531
341.878	532
342.275	554.6
342.672	527
343.069	526.8
343.466	514.4
343.842	539.6
344.239	530.2
344.636	538
345.033	522.2
345.431	515
345.828	533.8
346.225	528
346.623	560
347.02	532.2
347.418	540.6
347.816	547.6
348.213	521.2
348.611	530.2
349.009	515.8
349.407	541.6
349.805	525.6
350.203	526.8
350.601	536.2
350.999	530.6
351.397	578.8
351.795	529.8
352.193	539
352.57	533.8
352.969	533.2
353.367	524.2
353.766	524.6
354.164	524.4
354.563	535.8
354.961	530.6
355.36	531.2
355.759	524.6
356.158	515
356.557	519.4
356.956	523
357.355	520
357.754	526
358.153	523.2
358.552	550.2
358.951	518.8
359.35	533
359.75	523
360.149	516
360.527	510.2
360.926	516.8
361.326	525.4
361.726	532.2
362.125	515.4
362.525	547.2
362.925	529.6
363.325	524.2
363.724	523
364.124	528.2
364.524	520.8
364.924	519.4
365.324	534.8
365.725	526.6
366.125	527.6
366.525	526.4
366.904	526.6
367.304	516.4
367.705	542.8
368.105	536.4
368.506	529
368.906	519
369.307	525
369.708	524.8
370.108	519.8
370.509	531.8
370.91	522.2
371.311	523.2
371.712	528.4
372.113	519.6
372.514	511.2
372.894	513.4
373.295	522
373.696	526.4
374.097	525.4
374.499	549
374.9	527.6
375.301	522.4
375.703	524.4
376.105	515.8
376.506	533.6
376.908	526.6
377.309	531.8
377.711	523
378.113	519.2
378.493	525.6
378.895	516.2
379.297	529.4
379.699	521.8
380.102	525.8
380.504	524.8
380.906	519.6
381.308	539
381.71	523
382.113	525.4
382.515	517.2
382.918	525.8
383.299	525.4
383.701	529
384.104	520.8
384.507	510.2
384.909	523.2
385.312	517.2
385.715	509.6
386.118	529.2
386.521	512.6
386.924	532.6
387.327	519
387.709	512.6
388.112	510
388.515	519.6
388.918	528.2
389.322	529.2
389.725	520.6
390.129	541.4
390.532	522.4
390.936	525.8
391.339	514.8
391.743	524.2
392.125	515.8
392.529	531.2
392.933	528.8
393.337	519
393.74	522.8
394.144	523.6
394.548	517.2
394.953	533.2
395.357	528.4
395.761	526.8
396.144	522.8
396.548	516
396.952	521.8
397.357	521.8
397.761	525.6
398.166	513.4
398.57	522.8
398.975	519.4
399.379	529.2
399.763	562
400.168	519.8
400.572	523
400.977	517.4
401.382	531
401.787	535.6
402.192	538.2
402.597	535.4
403.002	503.4
403.386	526.2
403.791	543.8
404.197	519
404.602	517.8
405.007	526.2
405.413	521.6
405.818	525.4
406.224	517.8
406.608	519.8
407.014	520.4
407.42	534
407.825	520.8
408.231	527.8
408.637	525
409.043	531.8
409.449	514.6
409.834	517.4
410.24	527.8
410.646	528.8
411.052	531.6
411.458	523.2
411.865	527.2
412.271	532.4
412.677	528.6
413.062	531.2
413.469	519
413.875	546.8
414.282	527.8
414.689	521.6
415.095	531.4
415.502	509.4
415.888	519.8
416.294	502.6
416.701	557
417.108	518.2
417.515	531.4
417.923	518
418.33	537.2
418.715	524.8
419.123	519.6
419.53	518.2
419.937	522.8
420.345	537.6
420.752	516.6
421.16	534.8
421.546	523.4
421.953	530.6
422.361	521.4
422.769	521.2
423.177	519.4
423.585	541.8
423.992	533
424.379	532.2
424.787	531.8
425.195	534.6
425.603	518.8
426.011	530
426.419	530.4
426.806	531
427.214	528
427.623	535.8
428.031	536.8
428.44	537
428.848	532.6
429.235	533.8
429.644	521.4
430.053	518
430.461	533
430.87	539.4
431.279	518.6
431.666	520.6
432.075	520
432.484	520.8
432.893	521.6
433.302	530.6
433.711	562.8
434.099	525.2
434.508	513
434.918	516.8
435.327	527.8
435.737	527
436.125	526.6
436.534	529.8
436.944	527
437.353	525
437.763	534.4
438.173	512.4
438.561	531.8
438.971	506.8
439.381	521.8
439.791	516.2
440.201	505.6
440.589	528.8
440.999	522.4
441.409	522.6
441.819	514.2
442.23	535
442.619	531.8
443.029	520.6
443.439	526
443.85	540.6
444.26	531.8
444.649	525.4
445.06	530
445.471	517.6
445.881	521
446.292	530.2
446.682	538
447.092	514
447.503	560.4
447.914	526.8
448.325	523.6
448.715	519
449.126	515.4
449.537	523.2
449.948	517.6
450.338	525
450.75	528.6
451.161	526.6
451.572	525.2
451.984	520.4
452.374	507.8
452.786	522.2
453.197	530
453.609	524.6
453.999	511.6
454.411	516.4
454.823	528.8
455.235	529.8
455.647	512.2
456.037	516.8
456.449	512.4
456.862	516
457.274	524.6
457.665	508
458.077	522.4
458.489	543
458.902	519.6
459.293	516
459.705	520.4
460.118	515.6
460.53	529.6
460.921	513.8
461.334	518.2
461.747	517.4
462.16	530.6
462.551	529.4
462.964	522.2
463.377	509.4
463.79	518.4
464.182	529.2
464.595	516.8
465.008	520.2
465.421	523
465.813	516.4
466.226	520.2
466.64	515.4
467.053	556.6
467.445	518.4
467.859	529.6
468.272	514.2
468.686	515.8
469.078	514.2
469.492	513
469.906	516.6
470.298	517
470.712	513.2
471.126	536
471.54	505.8
471.933	511.4
472.347	517.6
472.761	513.6
473.175	507.2
473.568	513.8
473.982	513.2
474.397	519.2
474.79	515.8
475.204	524.2
475.619	519.4
476.033	519.4
476.426	502
476.841	514.4
477.256	530.6
477.649	506.4
478.064	502.6
478.479	511
478.872	512.4
479.287	504.2
479.702	518.8
480.118	513.8
480.511	518
480.927	514.6
481.342	506.6
481.736	518
482.151	513.8
482.566	519.4
482.96	517.2
483.376	525.4
483.792	507.8
484.186	515.8
484.602	509.8
485.017	508.2
485.412	504.8
485.827	517.4
486.243	520
486.638	529.8
487.054	520.4
487.47	523.4
487.865	511.8
488.281	508.2
488.697	508
489.092	504.6
489.508	499.2
489.925	519.8
490.32	508.8
490.736	519.4
491.153	514
491.548	514.8
491.964	519.4
492.381	502
492.776	509.2
493.193	511.8
493.61	511.2
494.006	518
494.422	516.6
494.84	513.2
495.235	519.6
495.652	516
496.069	510.4
496.465	504.6
496.883	512
497.3	530
497.696	505.6
498.113	518
498.509	501.4
498.927	503
499.344	502.6
499.741	509
500.158	516
500.576	520.6
500.973	517.2
501.39	507.4
501.787	513.6
502.205	506.8
502.623	516
503.02	511.2
503.438	508.2
503.856	508.6
504.253	515.2
504.671	517.6
505.068	502.4
505.486	509.6
505.905	533.2
506.302	518.6
506.72	522.6
507.118	503.6
507.536	517.2
507.955	514.6
508.352	517.6
508.771	519.2
509.169	515.4
509.587	503.8
510.006	515.6
510.404	510
510.823	513.4
511.221	515.2
511.64	511.4
512.038	525.4
512.457	514
512.877	506.6
513.275	505.6
513.694	510.2
514.092	510.6
514.512	513.2
514.91	509
515.33	501.4
515.749	517.8
516.148	513.4
516.568	515.2
516.966	511.6
517.386	504.2
517.785	515.8
518.205	510
518.603	514.6
519.024	502.2
519.444	518.8
519.843	518.2
520.263	531.4
520.662	516.8
521.082	505.8
521.481	508
521.902	514.4
522.301	521
522.722	516.8
523.121	504
523.542	509.2
523.963	505.6
524.362	515.4
524.783	510.8
525.183	513.4
525.604	512.8
526.003	505
526.425	502.8
526.824	507.2
527.246	508.8
527.646	513.2
528.067	509.2
528.467	508.2
528.888	510.6
529.289	508.8
529.71	508.8
530.11	504.6
530.532	496.6
530.932	507.2
531.354	502
531.755	535
532.176	518.8
532.577	511.6
532.999	510.8
533.4	514
533.822	513.4
534.223	514.8
534.645	511
535.046	506.8
535.468	516.6
535.869	525
536.292	510.8
536.693	537.6
537.115	513
537.516	508.4
537.939	505.6
538.34	527.8
538.742	520
539.165	507.8
539.566	515.8
539.989	501.4
540.391	510.8
540.814	513.2
541.216	514.2
541.639	512
542.041	515
542.464	503.8
542.866	508.4
543.268	503
543.691	518
544.093	512.8
544.517	531
544.919	505.8
545.343	533.4
545.745	507.6
546.147	508.8
546.571	512
546.974	500
547.398	514.2
547.8	521
548.224	508.2
548.627	510.6
549.03	513.8
549.454	507.2
549.857	504.6
550.281	508.2
550.684	501.6
551.087	520.4
551.512	514.8
551.915	511
552.34	506.2
552.743	503.8
553.146	503.6
553.571	500.6
553.975	526.4
554.399	496.2
554.803	547.8
555.207	509.6
555.632	499.6
556.036	512.4
556.461	501.6
556.865	506.2
557.268	506
557.694	494.8
558.098	516
558.502	511.6
558.927	501.8
559.332	514.8
559.736	508.8
560.162	512.4
560.566	505.2
560.992	504.6
561.396	511.8
561.801	500.8
562.227	509.6
562.631	507.6
563.036	504.2
563.462	511.8
563.867	503.8
564.272	501.4
564.698	511.4
565.103	503.4
565.508	524.8
565.935	501
566.34	511.8
566.745	517.6
567.172	508
567.577	525
567.982	514.8
568.409	517.2
568.815	510
569.22	509.8
569.626	516.6
570.053	497
570.459	511.8
570.865	516.4
571.292	511.6
571.698	506.6
572.104	503.6
572.531	512.8
572.937	514.4
573.343	509
573.75	508.4
574.177	509.6
574.583	516.6
574.99	501.6
575.396	513
575.824	505.4
576.231	508.8
576.637	510.6
577.065	532
577.472	505.6
577.879	505.8
578.286	522.6
578.714	506
579.121	507.6
579.528	512.6
579.935	514.8
580.364	501.6
580.771	487.2
581.178	503.4
581.585	512
582.014	509.8
582.421	503.2
582.829	518
583.236	515.4
583.644	503.8
584.073	506.6
584.481	503
584.889	508
585.296	518.8
585.726	509.8
586.134	502.4
586.542	497.4
586.95	523.4
587.358	499.6
587.787	511.2
588.196	506.4
588.604	503.6
589.012	505.8
589.421	504.8
589.851	503
590.259	514
590.668	507.8
591.076	540.8
591.485	508
591.894	514.6
592.324	518.2
592.733	520.8
593.142	498
593.551	509
593.96	532
594.369	501.6
594.8	504.2
595.209	500.4
595.618	493.6
596.028	504.4
596.437	503.6
596.847	512.4
597.256	515.8
597.687	510.8
598.097	512.6
598.507	505.2
598.917	514.6
599.327	516.8
599.736	514.6
600.146	516.8
600.556	506.6
600.988	519.4
601.398	515.8
601.808	509.4
602.219	501.8
602.629	519.6
603.039	501.2
603.45	527
603.86	510.4
604.271	520.4
604.703	517.6
605.114	515
605.525	515
605.935	518.2
606.346	528.4
606.757	506.6
607.168	508.6
607.579	502.8
607.99	519.2
608.402	507.4
608.813	522.4
609.224	511.8
609.636	509.4
610.047	510
610.48	516.2
610.892	517
611.303	520.2
611.715	514.6
612.127	507
612.539	516.4
612.95	512.8
613.362	506.6
613.774	511.4
614.186	512.4
614.599	511.6
615.011	513.8
615.423	516
615.835	504
616.248	515
616.66	521.6
617.073	514.2
617.485	514.4
617.898	523.6
618.311	522.4
618.723	517.4
619.136	547.6
619.549	534.4
619.962	537.6
620.375	521.6
620.788	526.4
621.201	521.4
621.614	532.4
622.028	519.6
622.441	521.4
622.854	533.8
623.268	518.2
623.681	519.6
624.095	525.4
624.509	534.8
624.922	534.4
625.336	516.8
625.728	533.4
626.142	528.4
626.556	538
626.97	532.8
627.384	516
627.799	522.8
628.213	531.6
628.627	522
629.041	529.4
629.456	530
629.87	525.4
630.285	538.8
630.699	539.2
631.093	533.6
631.507	533.8
631.922	530.8
632.337	539.4
632.752	523.4
633.167	526.2
633.582	534.8
633.997	524.2
634.412	519
634.806	524.8
635.221	523.6
635.637	526.6
636.052	521.2
636.468	527
636.883	544.2
637.299	522.6
637.715	521
638.109	522.4
638.525	512
638.941	529
639.357	522.2
639.773	523.6
640.189	515.2
640.584	517.2
641	525.4
641.416	510.2
641.832	521
642.249	525.8
642.665	520.4
643.06	513.8
643.477	523.8
643.894	505.8
644.31	517.8
644.727	524.2
645.123	521.8
645.54	512
645.957	516.8
646.374	524.4
646.77	515
647.187	540
647.604	519.2
648.021	503.4
648.439	509.2
648.835	517
649.252	512
649.67	515.8
650.088	512.4
650.484	519.2
650.902	515.2
651.32	515
651.738	511.2
652.134	512
652.552	525.8
652.971	517.8
653.389	517.6
653.786	525.4
654.204	518
654.622	507.2
655.019	512.8
655.438	511.8
655.857	512.2
656.275	513.4
656.673	508.6
657.091	515.4
657.51	508.2
657.908	509.6
658.327	515.6
658.746	503.6
659.144	507.4
659.563	520
659.982	507
660.38	500.8
660.8	502.4
661.219	517.6
661.617	505.6
662.037	513.2
662.457	516.2
662.855	502.6
663.275	530.2
663.695	514.6
664.094	506.4
664.514	512
664.934	497.8
665.333	509
665.753	506.2
666.152	504.6
666.572	500
666.993	513
667.392	512.4
667.812	504.2
668.212	497.4
668.632	515.6
669.053	504.2
669.453	511.2
669.874	506.4
670.273	507
670.694	499.8
671.116	515.4
671.515	516
671.937	511.4
672.337	501.6
672.758	499.2
673.158	504.2
673.58	495.2
673.98	503
674.402	514.2
674.824	504.6
675.224	503.2
675.646	498.8
676.047	501
676.469	501
676.869	505.2
677.292	508
677.693	498
678.115	498
678.516	509.2
678.939	505.8
679.34	500.8
679.762	506.2
680.164	511.4
680.586	501.2
680.988	509.8
681.411	518.8
681.812	498.4
682.236	495.2
682.637	501.4
683.061	499.8
683.462	507.8
683.864	500.8
684.288	502.4
684.69	489.4
685.114	512.2
685.516	502.6
685.94	493.2
686.342	504.4
686.766	502.6
687.168	502.8
687.571	514.4
687.995	501.8
688.398	495.2
688.822	504.4
689.225	512
689.628	521.6
690.052	497.8
690.456	498
690.88	505
691.284	494
691.687	502.6
692.112	504.4
692.515	491
692.919	502
693.344	505.4
693.747	503.8
694.173	502.2
694.577	513
694.98	502.8
695.406	491.8
695.81	504.4
696.214	510
696.64	503.6
697.044	502
697.448	504.8
697.874	506.2
698.279	492.4
698.684	497.4
699.11	491.6
699.514	493
699.919	496
700.324	492.6
700.75	502.6
701.156	504.8
701.561	510.4
701.987	510.2
702.393	505.4
702.798	510.6
703.203	503
703.63	496
704.036	504.6
704.442	494.8
704.847	491.2
705.274	497.8
705.68	511.6
706.086	510.6
706.492	496.8
706.92	498.6
707.326	509
707.732	492.8
708.139	485.8
708.545	491.2
708.973	495.6
709.38	502.6
709.786	483.2
710.193	509.8
710.6	494.6
711.028	489
711.435	495.8
711.842	499.8
712.249	498.2
712.656	491.6
713.064	502.8
713.492	491.4
713.9	498
714.307	505
714.715	500.6
715.123	511.4
715.53	498.6
715.938	499.2
716.367	495.8
716.775	498
717.184	492.8
717.592	500.2
718	513.4
718.408	528
718.816	532.4
719.225	493.2
719.633	495
720.042	492
720.472	494.4
720.881	510.2
721.29	496.6
721.699	482.8
722.108	503.6
722.517	496.2
722.926	493.8
723.335	505.4
723.744	502
724.154	494.6
724.563	504.8
724.973	499.8
725.382	502.2
725.792	485
726.202	491.2
726.612	507.2
727.022	489.4
727.432	494.2
779.813	491
780.223	536.2
780.634	510
781.044	496.2
781.454	505.8
781.865	506.6
782.276	496.8
782.686	506.6
783.097	494.8
783.508	501.4
783.919	498.6
784.33	506.2
784.741	512
785.152	491.6
785.563	489.8
785.974	493.4
786.386	507
786.776	492.6
787.188	494.8
787.599	482.2
788.011	491.8
788.423	498.8
788.835	491.4
789.247	490.8
789.659	488.6
790.071	484
790.483	531.6
790.874	501.2
791.286	502.2
791.699	494.4
792.111	501
792.524	495.2
792.937	498.6
793.349	490.4
793.741	492.8
794.154	489.8
794.567	509.6
794.98	498.8
795.393	485.8
795.785	510.8
796.198	497.8
796.612	496.4
797.026	494.6
797.439	490.2
797.831	498.8
798.245	479.6
798.659	498
799.073	488.4
799.487	489
799.88	485
800.294	491.8
800.708	493.8
801.123	498.4
801.516	515.8
801.93	493
802.345	482.6
802.76	492.4
803.153	508.2
803.568	508.6
803.983	499.8
804.377	501.4
804.792	489
805.207	489.2
805.601	495
806.016	525.8
806.432	496.4
806.826	522
807.242	502.6
807.658	500.8
808.052	495.2
808.468	492.2
808.884	496
809.279	495.2
809.695	503.6
810.111	506.4
810.506	492
810.922	505.8
811.339	496.8
811.734	497.6
812.151	490.8
812.546	499.6
812.963	486
813.38	504.6
813.776	494.4
814.193	512.2
814.589	492.2
815.006	495.8
815.402	491.6
815.82	492.6
816.237	494.8
816.633	500.2
817.051	484.6
817.448	495.4
817.866	485.6
818.262	511
818.68	497.8
819.077	496.6
819.495	495.6
819.892	526.8
820.311	495.2
820.708	498.2
821.127	495.8
821.524	506.4
821.943	500.8
822.34	503.4
822.759	502.8
823.157	497
823.576	507.8
823.974	508.4
824.393	579.4
824.791	491.4
825.189	491
825.609	492.8
826.007	490.6
826.427	477.2
826.826	491.6
827.246	502
827.644	490.8
828.043	504.4
828.463	493.8
828.862	496.8
829.261	493.2
829.682	488
830.081	492.4
830.502	496
830.901	499
831.301	499.2
831.722	486
832.121	496.6
832.521	497.6
832.943	493.2
833.342	493.2
833.742	489
834.164	498.6
834.564	489.6
834.965	489.6
835.386	500.4
835.787	495.8
836.188	491.4
836.588	488.4
837.01	497.6
837.411	492.4
837.812	491.4
838.213	508.6
838.636	489.2
839.037	551.2
839.438	503.6
839.84	495.2
840.263	502
840.664	490.2
841.066	495.2
841.468	497.4
841.891	488.8
842.293	503.4
842.695	498
843.098	508.8
843.5	497
843.902	506.4
844.326	498
844.729	497
845.131	502.6
845.534	495.2
845.937	505.8
846.34	511.8
846.764	496.2
847.167	497.8
847.571	492.4
847.974	492.6
848.377	494.4
848.781	534
849.184	502
849.588	490.6
849.992	489.6
850.396	494.2
850.821	508.8
851.225	499.4
851.63	486
852.034	502.4
852.438	495.6
852.843	561.2
853.247	490.8
853.652	499.6
854.057	508.8
854.462	493.4
854.867	496.4
855.272	526.4
855.677	504
856.082	490.8
856.487	488.2
856.893	494.6
