#lambda/nm	C1
208.295	463
208.67	433.4
209.045	388.4
209.419	397.4
209.794	541
210.169	518.8
210.544	620
210.919	532.2
211.295	529.4
211.67	536
212.045	524.6
212.421	523.8
212.796	562.4
213.172	522.6
213.547	526
213.923	527
214.299	529
214.675	535.4
215.051	533.8
215.427	536.6
215.803	545.8
216.179	536.6
216.555	517.8
216.932	543
217.308	533
217.684	536.8
218.061	539.2
218.438	527
218.814	520.6
219.191	544.2
219.568	522
219.945	523.4
220.322	537
220.699	535.6
221.076	529
221.453	534
221.83	529.2
222.208	533.4
222.585	531.2
222.962	535.6
223.34	541.2
223.717	530.8
224.095	523.2
224.473	525.8
224.851	525
225.229	522.4
225.607	547
225.985	523.8
226.363	530.4
226.741	533
227.119	530.4
227.497	550
227.876	526.4
228.254	538.2
228.633	540
229.011	534.4
229.39	534.8
229.769	536.4
230.148	540.2
230.527	545.4
230.905	535.2
231.284	540
231.664	531
232.043	541.8
232.422	542.2
232.801	530.8
233.181	541.4
233.56	528.2
233.94	540.4
234.319	528.2
234.699	535.2
235.079	560.6
235.458	561.2
235.838	548.6
236.218	520.2
236.598	523.8
236.978	533
237.358	525.6
237.738	523.2
238.119	529.8
238.499	526.2
238.88	532
239.26	538.6
239.641	522
240.021	526.4
240.402	525.4
240.783	525.6
241.163	526.8
241.544	531.4
241.925	531.2
242.306	541.6
242.687	524.4
243.069	530.6
243.45	529.8
243.831	531.4
244.212	530
244.594	561.2
244.975	545.4
245.357	531.6
245.739	517.8
246.12	531.2
246.502	552.8
246.884	529
247.266	524.6
247.648	539
248.03	547.6
248.412	529.6
248.794	535
249.176	528.2
249.559	540.2
249.941	522
250.323	524.4
250.706	525.8
251.089	533.8
251.471	529.8
251.854	536.8
252.237	529.6
252.62	540.4
253.002	535
253.385	531.8
253.769	553.2
254.152	532
254.535	544.4
254.918	526.4
255.301	535.8
255.685	535.4
256.068	525.8
256.452	555.6
256.835	537.6
257.219	540
257.603	548.4
257.986	524.4
258.37	542.6
258.754	521.8
259.138	541
259.522	543.6
259.906	531.2
260.29	533.4
260.675	530
261.059	534.6
261.443	525.4
261.828	539
262.212	532.4
262.597	524
262.981	527.6
263.366	548.2
263.751	541.8
264.136	529.6
264.521	535.6
264.906	527.2
265.291	545.2
265.676	534.6
266.061	538
266.446	546.2
266.831	537.8
267.217	557.4
267.602	535.4
267.987	533.2
268.373	527.2
268.759	540.4
269.144	541.6
269.53	536.2
269.916	529.6
270.302	522.2
270.688	535
271.074	533.6
271.46	545.6
271.846	554.2
272.232	533.8
272.618	523.2
273.004	525.8
273.391	541.8
273.777	549.2
274.164	529.4
274.55	547.4
274.937	537.2
275.324	532.8
275.71	533
276.097	535
276.484	529.6
276.871	537.2
277.258	534
277.645	520.8
278.032	538.8
278.419	525.8
278.807	537.4
279.194	531.4
279.581	527.8
279.969	538
280.356	527.8
280.744	538.4
281.131	555.8
281.519	534.6
281.907	535.8
282.295	529
282.682	542.6
283.07	533.8
283.458	546
283.846	542
284.235	542.2
284.623	538
285.011	536
285.399	527.8
285.788	526.6
286.176	527.8
286.565	543
286.953	529.6
287.342	535.6
287.731	528.2
288.119	524.2
288.508	522.8
288.897	538
289.286	532
289.675	539
290.064	549.4
290.453	539.6
290.821	537.8
291.21	546.6
291.599	520.2
291.989	533.8
292.378	538.2
292.768	553.4
293.157	531
293.547	538.6
293.936	532.4
294.326	526
294.716	537.8
295.106	534.6
295.496	532
295.886	536.2
296.276	524.2
296.666	529.4
297.056	525
297.446	517
297.836	544.8
298.227	531.8
298.617	547.4
299.008	546.2
299.398	533.4
299.789	532.8
300.179	537.8
300.57	540.4
300.961	532.4
301.352	525.2
301.742	534
302.133	536.4
302.524	530.8
302.915	534.8
303.307	530.8
303.698	541.6
304.089	535.8
304.48	534.6
304.872	545.4
305.263	535.8
305.655	530.8
306.046	541.6
306.438	534.6
306.829	523
307.221	530.6
307.613	533.6
308.005	537.6
308.397	547.2
308.789	546.6
309.181	549.6
309.573	545
309.965	539.8
310.357	526.6
310.749	541.6
311.142	531
311.534	527.6
311.926	535.8
312.319	535.8
312.711	524.6
313.104	544.8
313.497	526.8
313.889	562.8
314.282	546.6
314.675	551
315.068	536.4
315.461	536.8
315.854	559.4
316.247	537.6
316.64	523.6
317.033	532.8
317.405	540.2
317.798	525
318.192	536
318.585	523.2
318.979	531.8
319.372	528.4
319.766	533.8
320.16	542.4
320.553	544.2
320.947	545.6
321.341	527.6
321.735	529.6
322.129	520.6
322.523	550.8
322.917	519.8
323.311	536.8
323.705	528.8
324.099	539.6
324.494	540
324.888	540.4
325.282	528.8
325.677	540.8
326.071	539.2
326.466	537
326.861	540.2
327.255	540.8
327.65	540.2
328.045	543.6
328.44	536.8
328.835	537.4
329.23	531.4
329.625	558
330.02	530.4
330.415	546
330.81	535.2
331.206	533
331.601	533.4
331.996	541.2
332.37	549.2
332.766	523.4
333.161	551.6
333.557	524.8
333.953	535.8
334.348	745.8
334.744	530
335.14	519.2
335.536	519.6
335.932	533.2
336.328	533.4
336.724	529.4
337.12	530
337.516	534.4
337.913	522.2
338.309	533.8
338.705	531.2
339.102	534
339.498	526.8
339.895	538.6
340.291	526.8
340.688	537.6
341.085	521.8
341.481	534.6
341.878	530.8
342.275	538
342.672	527.2
343.069	527
343.466	517.6
343.842	538.4
344.239	524.8
344.636	540.4
345.033	523.4
345.431	523.8
345.828	536.6
346.225	518.6
346.623	556
347.02	525.4
347.418	530.2
347.816	538
348.213	521.6
348.611	532.4
349.009	531.8
349.407	536
349.805	530.8
350.203	522.8
350.601	539
350.999	525.4
351.397	571.4
351.795	526
352.193	533.8
352.57	527.8
352.969	536.8
353.367	519.6
353.766	528
354.164	529.8
354.563	535.2
354.961	526.4
355.36	518
355.759	523.4
356.158	525.6
356.557	532.4
356.956	519.6
357.355	510.6
357.754	531.8
358.153	531
358.552	548
358.951	528.6
359.35	541.6
359.75	524.8
360.149	526.6
360.527	515
360.926	526
361.326	530
361.726	529.4
362.125	521.6
362.525	532
362.925	525.4
363.325	532.8
363.724	522.8
364.124	527.8
364.524	517.8
364.924	532.4
365.324	534.8
365.725	513.2
366.125	528
366.525	525.2
366.904	525.4
367.304	515.4
367.705	541.8
368.105	532.4
368.506	525.2
368.906	524.8
369.307	526.2
369.708	527
370.108	525.4
370.509	533
370.91	525.6
371.311	523
371.712	518.2
372.113	523.4
372.514	513
372.894	519.8
373.295	522.6
373.696	535.2
374.097	538.2
374.499	549
374.9	527.6
375.301	518.8
375.703	529.6
376.105	515.4
376.506	532.6
376.908	532.4
377.309	525.6
377.711	530.8
378.113	518
378.493	526.8
378.895	516.2
379.297	533.4
379.699	514.2
380.102	531.8
380.504	524.8
380.906	524.4
381.308	541
381.71	526.8
382.113	530.4
382.515	528
382.918	532
383.299	525.8
383.701	535.8
384.104	521.8
384.507	504
384.909	524
385.312	506.8
385.715	515.2
386.118	517.8
386.521	520.6
386.924	533.4
387.327	517
387.709	513.4
388.112	509.4
388.515	524
388.918	520.8
389.322	525.8
389.725	525.4
390.129	536.4
390.532	519.6
390.936	517.4
391.339	517.4
391.743	517
392.125	513.4
392.529	523
392.933	528.4
393.337	523.8
393.74	517.8
394.144	515.2
394.548	511.8
394.953	526.2
395.357	533.8
395.761	522.6
396.144	531.2
396.548	519.8
396.952	529.4
397.357	522.8
397.761	525.6
398.166	518.8
398.57	522.6
398.975	516.4
399.379	520.6
399.763	563.2
400.168	524.2
400.572	521.4
400.977	529.2
401.382	538.6
401.787	529.8
402.192	544
402.597	540
403.002	514.8
403.386	530.2
403.791	539.2
404.197	520.2
404.602	516.8
405.007	517.6
405.413	522.2
405.818	524.4
406.224	520.4
406.608	520
407.014	516.4
407.42	531.6
407.825	511.8
408.231	528.8
408.637	528.4
409.043	534.4
409.449	518
409.834	515.4
410.24	518.6
410.646	533.4
411.052	522
411.458	527.6
411.865	530.4
412.271	528.6
412.677	526
413.062	527.6
413.469	510.4
413.875	538.4
414.282	530.4
414.689	528
415.095	529.8
415.502	520.6
415.888	519.8
416.294	506
416.701	552.4
417.108	521.4
417.515	526.4
417.923	518.8
418.33	535.8
418.715	530.6
419.123	527.2
419.53	514.2
419.937	523.6
420.345	536.4
420.752	525.4
421.16	537.8
421.546	528.6
421.953	531
422.361	515.6
422.769	526.2
423.177	519.4
423.585	550.8
423.992	534.8
424.379	538.4
424.787	527.4
425.195	537
425.603	524.6
426.011	538.2
426.419	538.2
426.806	527.6
427.214	527
427.623	529.2
428.031	548
428.44	527.2
428.848	539
429.235	538.2
429.644	525
430.053	528.6
430.461	533.8
430.87	546.4
431.279	531.4
431.666	520.8
432.075	527.2
432.484	525.4
432.893	519.6
433.302	534.6
433.711	559
434.099	534
434.508	526.8
434.918	512.2
435.327	532.4
435.737	522
436.125	518.4
436.534	525.2
436.944	522.8
437.353	521.2
437.763	533.8
438.173	516.8
438.561	530.2
438.971	508.6
439.381	514.8
439.791	514.2
440.201	506.8
440.589	522.2
440.999	529.2
441.409	524.6
441.819	514.4
442.23	528.2
442.619	523.4
443.029	526.2
443.439	528.2
443.85	529.2
444.26	539.8
444.649	531.8
445.06	528.8
445.471	518.2
445.881	524
446.292	541.2
446.682	540.6
447.092	512.6
447.503	567.8
447.914	520.6
448.325	514.6
448.715	530
449.126	523.4
449.537	520.8
449.948	524.8
450.338	523
450.75	527.4
451.161	534
451.572	533.4
451.984	521
452.374	517.6
452.786	521.6
453.197	530.8
453.609	528
453.999	510.6
454.411	520.2
454.823	532.8
455.235	527.8
455.647	525.4
456.037	523.2
456.449	510.6
456.862	516.4
457.274	529.8
457.665	518.2
458.077	528.2
458.489	547.8
458.902	523.6
459.293	517
459.705	520.8
460.118	521.4
460.53	525.4
460.921	517.2
461.334	521.8
461.747	516
462.16	532.4
462.551	531.8
462.964	532.2
463.377	515.2
463.79	525.4
464.182	531.4
464.595	523.4
465.008	519.4
465.421	525.6
465.813	513.4
466.226	525.6
466.64	515
467.053	559.6
467.445	531.6
467.859	537.2
468.272	521.6
468.686	531.6
469.078	526.6
469.492	514
469.906	521.2
470.298	527.6
470.712	523
471.126	543.6
471.54	509
471.933	517.4
472.347	520.6
472.761	513.4
473.175	510.8
473.568	505.8
473.982	515.8
474.397	525.2
474.79	518.6
475.204	519
475.619	516.2
476.033	517
476.426	521.2
476.841	510.2
477.256	539.6
477.649	510.6
478.064	502.8
478.479	506.4
478.872	513.8
479.287	504.4
479.702	512.8
480.118	517.4
480.511	512.6
480.927	515
481.342	511.8
481.736	525.4
482.151	504.6
482.566	528.6
482.96	515.2
483.376	523.8
483.792	510
484.186	521
484.602	515
485.017	523.6
485.412	516.4
485.827	523
486.243	509.4
486.638	538.6
487.054	520.4
487.47	519.4
487.865	514.2
488.281	519.6
488.697	513
489.092	512.8
489.508	502.6
489.925	520.2
490.32	505.2
490.736	518.6
491.153	519.6
491.548	512.8
491.964	520.8
492.381	508.2
492.776	516.2
493.193	518.6
493.61	524.4
494.006	520.6
494.422	521.8
494.84	513.8
495.235	517.8
495.652	509.2
496.069	517.4
496.465	506.6
496.883	506.2
497.3	531.2
497.696	514.6
498.113	521.6
498.509	511
498.927	510.6
499.344	517.6
499.741	511.2
500.158	522.6
500.576	523.4
500.973	510.6
501.39	508.4
501.787	506
502.205	509.2
502.623	505.2
503.02	505.6
503.438	508.8
503.856	508.6
504.253	522
504.671	519.4
505.068	508.2
505.486	511.4
505.905	527
506.302	509.4
506.72	515.4
507.118	507.8
507.536	512.6
507.955	506.2
508.352	508.4
508.771	514.6
509.169	519.4
509.587	510.6
510.006	511.8
510.404	506.8
510.823	509
511.221	520.4
511.64	505.2
512.038	520
512.457	506.2
512.877	504.4
513.275	509.2
513.694	510.8
514.092	512.4
514.512	510.2
514.91	513.6
515.33	514
515.749	509.4
516.148	510.8
516.568	512.8
516.966	509.4
517.386	512.6
517.785	505.4
518.205	510
518.603	505.8
519.024	511.2
519.444	515.4
519.843	514
520.263	521.8
520.662	512
521.082	511.2
521.481	515
521.902	518.4
522.301	518.2
522.722	506.8
523.121	513.6
523.542	515.4
523.963	506.2
524.362	519.2
524.783	513.8
525.183	518.8
525.604	521.4
526.003	512.2
526.425	504.4
526.824	516.4
527.246	513.2
527.646	518.4
528.067	517
528.467	504.2
528.888	510.2
529.289	505.6
529.71	511.4
530.11	505.4
530.532	500.4
530.932	500.4
531.354	503.4
531.755	546.8
532.176	516.8
532.577	510.2
532.999	506.6
533.4	517.2
533.822	519.2
534.223	507
534.645	515.4
535.046	509.4
535.468	508.4
535.869	523
536.292	501
536.693	546.6
537.115	519.2
537.516	506
537.939	502
538.34	524.2
538.742	524
539.165	516.4
539.566	508.4
539.989	503.4
540.391	511.8
540.814	508.6
541.216	517.8
541.639	514.8
542.041	517
542.464	504.4
542.866	502
543.268	507.8
543.691	514.8
544.093	516.4
544.517	525.2
544.919	505.8
545.343	532.4
545.745	505.2
546.147	515.2
546.571	511
546.974	500.8
547.398	512.6
547.8	522.4
548.224	511.4
548.627	507.4
549.03	520.6
549.454	500.2
549.857	508.4
550.281	511
550.684	512.2
551.087	517.8
551.512	515.8
551.915	521.8
552.34	513.4
552.743	510.8
553.146	519.2
553.571	515.8
553.975	529.4
554.399	503.2
554.803	553.8
555.207	514.2
555.632	507.8
556.036	520
556.461	512.6
556.865	515.4
557.268	507.2
557.694	518
558.098	526.8
558.502	511.4
558.927	515.6
559.332	516.6
559.736	517
560.162	520.2
560.566	507.6
560.992	506
561.396	503
561.801	511
562.227	518.6
562.631	514.8
563.036	517
563.462	513
563.867	521.2
564.272	501.4
564.698	515.8
565.103	505.2
565.508	523.2
565.935	520.8
566.34	514.8
566.745	514.2
567.172	506.2
567.577	530
567.982	529.6
568.409	518.6
568.815	509.2
569.22	512.8
569.626	521.6
570.053	505
570.459	511.4
570.865	513.4
571.292	518.6
571.698	514.2
572.104	506.2
572.531	512
572.937	517.8
573.343	512.4
573.75	520.4
574.177	511.2
574.583	513.6
574.99	508.4
575.396	512.6
575.824	510
576.231	516.6
576.637	506.6
577.065	529.2
577.472	503.4
577.879	506.2
578.286	522.6
578.714	502.8
579.121	513.2
579.528	512.8
579.935	514.4
580.364	507.6
580.771	504
581.178	508.2
581.585	512.2
582.014	507.6
582.421	500.8
582.829	508
583.236	511
583.644	504
584.073	507.8
584.481	510.4
584.889	499.2
585.296	516
585.726	507.8
586.134	503.2
586.542	502.4
586.95	517.4
587.358	493.2
587.787	500.2
588.196	502.4
588.604	499
589.012	506.6
589.421	499.8
589.851	505
590.259	511.6
590.668	503.8
591.076	537.4
591.485	504.8
591.894	505.6
592.324	524
592.733	519.8
593.142	492.6
593.551	510.4
593.96	517
594.369	505.4
594.8	506.2
595.209	506.2
595.618	498.4
596.028	504
596.437	501.2
596.847	502.8
597.256	511.6
597.687	505.4
598.097	511
598.507	498.2
598.917	509.8
599.327	512.4
599.736	511.6
600.146	509.2
600.556	500.8
600.988	519.2
601.398	499.6
601.808	514.8
602.219	502.4
602.629	511.8
603.039	506.6
603.45	527.6
603.86	514.2
604.271	520.4
604.703	506.8
605.114	502.6
605.525	499.8
605.935	511.8
606.346	523.8
606.757	510.4
607.168	506.8
607.579	505.6
607.99	516.6
608.402	507.2
608.813	512.6
609.224	496.8
609.636	498.4
610.047	500
610.48	511.8
610.892	512.2
611.303	511
611.715	503.6
612.127	492.4
612.539	505
612.95	508.2
613.362	497.6
613.774	495.4
614.186	502.6
614.599	501.8
615.011	516
615.423	505.2
615.835	500.4
616.248	501.2
616.66	510
617.073	499.6
617.485	507.6
617.898	513.6
618.311	508.2
618.723	501.4
619.136	531.4
619.549	517.8
619.962	523.6
620.375	508.4
620.788	512.8
621.201	506.8
621.614	513.4
622.028	506
622.441	506.6
622.854	518
623.268	501.4
623.681	511.8
624.095	507.6
624.509	513.8
624.922	507.6
625.336	504.8
625.728	505.4
626.142	514.2
626.556	513
626.97	511.2
627.384	499.4
627.799	505.4
628.213	514.4
628.627	509.4
629.041	507.2
629.456	499.4
629.87	511.2
630.285	512.8
630.699	511.6
631.093	507.8
631.507	519.6
631.922	509
632.337	517.2
632.752	501.4
633.167	509
633.582	507.2
633.997	506.4
634.412	507.8
634.806	512.6
635.221	507.8
635.637	517.8
636.052	496.4
636.468	505
636.883	522.2
637.299	504.4
637.715	495.8
638.109	500.6
638.525	504.2
638.941	517.6
639.357	506.8
639.773	511.2
640.189	502.6
640.584	508.8
641	506
641.416	498.8
641.832	500.2
642.249	500.4
642.665	504.2
643.06	506.2
643.477	513.6
643.894	493.2
644.31	505.2
644.727	504.8
645.123	510.2
645.54	503.8
645.957	509.2
646.374	521.8
646.77	506.2
647.187	534.4
647.604	510.2
648.021	495.4
648.439	505
648.835	510.8
649.252	503.4
649.67	503.6
650.088	509.2
650.484	513
650.902	517.6
651.32	508.8
651.738	508.4
652.134	510
652.552	519
652.971	509
653.389	513.6
653.786	519.8
654.204	511.4
654.622	507
655.019	504
655.438	503
655.857	509
656.275	507.2
656.673	493.4
657.091	514.2
657.51	505.8
657.908	513.6
658.327	515.6
658.746	496.8
659.144	499.6
659.563	513
659.982	503.2
660.38	493.6
660.8	509.8
661.219	508
661.617	514.8
662.037	506
662.457	521
662.855	492.8
663.275	530.8
663.695	508.8
664.094	504
664.514	511.4
664.934	504.2
665.333	509.2
665.753	502.6
666.152	499.4
666.572	492.6
666.993	517.4
667.392	506.6
667.812	506.4
668.212	499.6
668.632	509.4
669.053	510.2
669.453	506.6
669.874	508.6
670.273	504
670.694	505.4
671.116	519.2
671.515	515.8
671.937	501.2
672.337	501.6
672.758	505
673.158	512
673.58	503
673.98	505.2
674.402	515.2
674.824	510
675.224	501.8
675.646	497.2
676.047	497.8
676.469	494
676.869	508.8
677.292	512.6
677.693	501.6
678.115	505.2
678.516	508
678.939	507.4
679.34	492.6
679.762	502.4
680.164	505.8
680.586	493
680.988	505.6
681.411	519.6
681.812	499.6
682.236	499.4
682.637	491.6
683.061	494.8
683.462	497.2
683.864	502.2
684.288	500.2
684.69	495.2
685.114	507
685.516	508.2
685.94	495.8
686.342	500.4
686.766	496.4
687.168	495.8
687.571	512.6
687.995	504.4
688.398	490.6
688.822	498.6
689.225	514.8
689.628	520.2
690.052	497.4
690.456	507
690.88	506.8
691.284	492
691.687	508.2
692.112	495
692.515	501.4
692.919	501.2
693.344	503.4
693.747	503.8
694.173	498
694.577	513.8
694.98	505.4
695.406	503.8
695.81	508
696.214	501.8
696.64	500.8
697.044	496.6
697.448	503
697.874	495.6
698.279	493.8
698.684	492.8
699.11	488
699.514	507.4
699.919	500.4
700.324	492.8
700.75	497.8
701.156	495.4
701.561	506
701.987	502.6
702.393	511.4
702.798	511.6
703.203	504
703.63	497.2
704.036	503.4
704.442	509
704.847	490
705.274	503.4
705.68	504.8
706.086	507.2
706.492	493.8
706.92	499
707.326	506.2
707.732	500
708.139	492.2
708.545	491.4
708.973	497.2
709.38	499.8
709.786	485.6
710.193	504.8
710.6	500.8
711.028	494
711.435	502.8
711.842	500.4
712.249	494.4
712.656	497
713.064	507.4
713.492	487.6
713.9	491
714.307	501.6
714.715	500.8
715.123	518.4
715.53	502.2
715.938	510.6
716.367	494.6
716.775	499.8
717.184	495.8
717.592	501.4
718	509.2
718.408	534.2
718.816	534.4
719.225	502.4
719.633	497.6
720.042	496.6
720.472	495
720.881	515.2
721.29	498.8
721.699	491.8
722.108	496.4
722.517	497.2
722.926	492.4
723.335	501
723.744	492.6
724.154	501
724.563	501.6
724.973	504.6
725.382	504.2
725.792	499.8
726.202	495.8
726.612	507.2
727.022	500
727.432	501.6
779.813	502
780.223	535.4
780.634	497
781.044	490.6
781.454	507.2
781.865	505.4
782.276	497.6
782.686	506.8
783.097	496.8
783.508	501
783.919	501.8
784.33	508.2
784.741	505.2
785.152	496.2
785.563	493.8
785.974	494.2
786.386	504.8
786.776	493.6
787.188	506.2
787.599	493.2
788.011	504.4
788.423	505.4
788.835	496
789.247	494.8
789.659	494.6
790.071	502.4
790.483	539.2
790.874	505
791.286	509.4
791.699	495.2
792.111	501.6
792.524	496.6
792.937	489.2
793.349	495.8
793.741	490.2
794.154	490.4
794.567	522
794.98	508.6
795.393	484.6
795.785	515.6
796.198	492.6
796.612	496.8
797.026	494.6
797.439	485.4
797.831	498.6
798.245	494.4
798.659	494.2
799.073	497.6
799.487	498.6
799.88	495
800.294	504.6
800.708	500
801.123	496.8
801.516	506.4
801.93	495.6
802.345	485.6
802.76	505.8
803.153	507.2
803.568	515
803.983	502.2
804.377	499.4
804.792	492.8
805.207	483
805.601	496
806.016	524.4
806.432	496.2
806.826	526.6
807.242	509.6
807.658	496.2
808.052	493.4
808.468	493.4
808.884	496
809.279	498
809.695	507.8
810.111	515.2
810.506	505.2
810.922	515
811.339	495.6
811.734	506.6
812.151	495.6
812.546	496.6
812.963	492.2
813.38	504
813.776	503.8
814.193	518
814.589	496.2
815.006	496.8
815.402	496.4
815.82	495.4
816.237	497
816.633	499.8
817.051	488.2
817.448	508.2
817.866	485.4
818.262	506.8
818.68	497
819.077	499.8
819.495	500
819.892	524.2
820.311	500
820.708	499.6
821.127	495.2
821.524	508.2
821.943	499
822.34	510.8
822.759	500.2
823.157	501
823.576	498
823.974	500.2
824.393	559.4
824.791	495.2
825.189	490.8
825.609	491
826.007	502.2
826.427	488.6
826.826	496.2
827.246	503.4
827.644	489.6
828.043	499.2
828.463	495.2
828.862	497.4
829.261	499.8
829.682	480.2
830.081	493.2
830.502	488.2
830.901	494.8
831.301	496
831.722	477.6
832.121	491.8
832.521	487
832.943	491
833.342	493.4
833.742	477.6
834.164	491.2
834.564	491.8
834.965	495.6
835.386	492.8
835.787	494.8
836.188	491
836.588	498.4
837.01	496.2
837.411	485
837.812	503.8
838.213	500.4
838.636	490.8
839.037	553.6
839.438	496.6
839.84	502.6
840.263	500.6
840.664	500.8
841.066	495
841.468	496.2
841.891	490.2
842.293	511.2
842.695	492
843.098	502.2
843.5	490.8
843.902	501.4
844.326	497.4
844.729	493.8
845.131	503.4
845.534	496.6
845.937	502.4
846.34	509.8
846.764	490
847.167	493
847.571	488.6
847.974	489
848.377	494.2
848.781	523.6
849.184	503.2
849.588	493
849.992	487.6
850.396	492.6
850.821	517.2
851.225	505.8
851.63	496.8
852.034	505.2
852.438	490.6
852.843	550.4
853.247	488.2
853.652	490.2
854.057	504.6
854.462	496.4
854.867	499.6
855.272	519
