#lambda/nm	C1
208.295	466.4
208.67	429.2
209.045	394.8
209.419	401.2
209.794	537.4
210.169	523.6
210.544	616.4
210.919	536.6
211.295	514.6
211.67	536.6
212.045	532.6
212.421	524.2
212.796	553.4
213.172	529.4
213.547	528.8
213.923	528.8
214.299	519.6
214.675	540
215.051	533
215.427	532.2
215.803	548.6
216.179	534.2
216.555	528.4
216.932	534.8
217.308	538.2
217.684	533
218.061	536.4
218.438	532.2
218.814	528.6
219.191	541
219.568	529.4
219.945	533.4
220.322	537.4
220.699	537.2
221.076	549.6
221.453	534.2
221.83	521.4
222.208	529
222.585	528.2
222.962	533.2
223.34	530
223.717	537.2
224.095	532
224.473	538
224.851	532
225.229	529.6
225.607	553.2
225.985	530.2
226.363	535.4
226.741	534.2
227.119	536.4
227.497	551.6
227.876	521.2
228.254	531.6
228.633	529.2
229.011	530
229.39	536.4
229.769	537.2
230.148	533.6
230.527	552.4
230.905	541.8
231.284	532.6
231.664	523.8
232.043	541.2
232.422	535.8
232.801	527.6
233.181	540
233.56	524.6
233.94	532.6
234.319	528.2
234.699	530.6
235.079	559.2
235.458	561
235.838	542.6
236.218	529.8
236.598	525.8
236.978	534.6
237.358	529.2
237.738	527
238.119	528.2
238.499	521.8
238.88	531.6
239.26	542.2
239.641	523.8
240.021	530
240.402	529.4
240.783	523.2
241.163	529
241.544	544.6
241.925	534.6
242.306	545.2
242.687	531.4
243.069	539.4
243.45	534.6
243.831	524.2
244.212	536
244.594	565
244.975	536.2
245.357	533.8
245.739	521.8
246.12	542.2
246.502	546.2
246.884	535.2
247.266	529.2
247.648	527.2
248.03	552.2
248.412	529.4
248.794	534.2
249.176	534
249.559	544.4
249.941	530
250.323	525.4
250.706	527.2
251.089	528.6
251.471	532.4
251.854	534
252.237	528
252.62	547.6
253.002	535.6
253.385	531.8
253.769	540.6
254.152	534
254.535	533.6
254.918	525.6
255.301	527
255.685	532.4
256.068	529.2
256.452	552.6
256.835	530.4
257.219	541
257.603	544
257.986	524.2
258.37	535.4
258.754	530.4
259.138	547.6
259.522	544.2
259.906	529.4
260.29	539.4
260.675	528
261.059	530.2
261.443	522
261.828	532.6
262.212	532.4
262.597	517.8
262.981	532.8
263.366	539.8
263.751	536.6
264.136	523
264.521	529.8
264.906	524.2
265.291	542.8
265.676	532.8
266.061	535.6
266.446	541.8
266.831	532
267.217	543.8
267.602	529.4
267.987	528.4
268.373	524.6
268.759	543.4
269.144	537.4
269.53	535.8
269.916	531.6
270.302	532.8
270.688	532.2
271.074	532.6
271.46	539.2
271.846	561.2
272.232	534.2
272.618	528
273.004	530
273.391	540.4
273.777	540.6
274.164	530.6
274.55	546.2
274.937	531.8
275.324	527
275.71	536.6
276.097	540.4
276.484	532.2
276.871	537
277.258	532
277.645	523.8
278.032	530.4
278.419	532.8
278.807	540.8
279.194	524.6
279.581	533.6
279.969	540.4
280.356	527.4
280.744	539.2
281.131	550.6
281.519	540.8
281.907	531.8
282.295	530.6
282.682	545.8
283.07	538.8
283.458	539
283.846	538.2
284.235	544
284.623	540.2
285.011	525.2
285.399	538.2
285.788	534.2
286.176	519.6
286.565	541.2
286.953	523.8
287.342	526.8
287.731	521
288.119	525.6
288.508	534
288.897	538.8
289.286	527.4
289.675	535.2
290.064	543.4
290.453	534
290.821	535.4
291.21	546.4
291.599	533.6
291.989	538.2
292.378	540.4
292.768	542.2
293.157	545
293.547	539
293.936	525
294.326	526.2
294.716	525.6
295.106	527.8
295.496	532.8
295.886	537.6
296.276	530.2
296.666	526
297.056	517.8
297.446	530.6
297.836	542.6
298.227	528.2
298.617	537.8
299.008	544.2
299.398	527.8
299.789	526.2
300.179	538
300.57	534.6
300.961	525.2
301.352	529.6
301.742	536.8
302.133	536.8
302.524	536
302.915	526.4
303.307	516.6
303.698	540.2
304.089	536.6
304.48	527.8
304.872	532.8
305.263	539.4
305.655	535.2
306.046	538
306.438	533.2
306.829	525.8
307.221	544.6
307.613	532.6
308.005	538.4
308.397	543.6
308.789	549.8
309.181	550
309.573	543.8
309.965	544.4
310.357	531
310.749	545
311.142	525.8
311.534	533
311.926	535.2
312.319	528
312.711	524.2
313.104	540.6
313.497	534.4
313.889	560.4
314.282	544.6
314.675	555.4
315.068	536.8
315.461	538.4
315.854	549
316.247	534
316.64	530.6
317.033	528.4
317.405	536.6
317.798	533.6
318.192	532.2
318.585	530.4
318.979	538.4
319.372	523.2
319.766	530
320.16	547
320.553	542.8
320.947	542.6
321.341	539.8
321.735	536.2
322.129	522.6
322.523	554.6
322.917	538.8
323.311	546.8
323.705	538.2
324.099	538.2
324.494	549.6
324.888	538.2
325.282	531.2
325.677	544.8
326.071	541
326.466	540.4
326.861	538.4
327.255	550.4
327.65	547
328.045	542.6
328.44	530.8
328.835	542.6
329.23	534.2
329.625	552.4
330.02	535.6
330.415	548.2
330.81	539.4
331.206	537
331.601	533
331.996	541.8
332.37	553.8
332.766	529.8
333.161	563.6
333.557	527.2
333.953	531.6
334.348	797
334.744	529
335.14	536
335.536	528.4
335.932	542.8
336.328	529.8
336.724	537.2
337.12	534.8
337.516	538
337.913	529
338.309	538.6
338.705	527.6
339.102	540.2
339.498	529.2
339.895	541.6
340.291	531.8
340.688	545.4
341.085	521.4
341.481	530
341.878	527.4
342.275	540.4
342.672	530
343.069	529.8
343.466	523.8
343.842	537.2
344.239	530.4
344.636	528.6
345.033	519.8
345.431	521.8
345.828	525.6
346.225	522.8
346.623	558.4
347.02	527.6
347.418	531.6
347.816	541.8
348.213	531.4
348.611	533
349.009	530.8
349.407	536.8
349.805	523
350.203	520.6
350.601	542.6
350.999	526.2
351.397	575.2
351.795	528
352.193	535
352.57	540.4
352.969	535.6
353.367	523.8
353.766	522.8
354.164	533.8
354.563	537.6
354.961	522.8
355.36	528.6
355.759	533.8
356.158	525.6
356.557	524.4
356.956	516.4
357.355	514.2
357.754	529
358.153	535.6
358.552	558
358.951	514.8
359.35	534.8
359.75	523.4
360.149	517
360.527	515.8
360.926	519.2
361.326	526.8
361.726	523.2
362.125	521.2
362.525	530
362.925	524
363.325	521
363.724	523.4
364.124	522
364.524	521.8
364.924	526.6
365.324	535.6
365.725	512.2
366.125	522.2
366.525	529.6
366.904	525.6
367.304	512.2
367.705	537.6
368.105	536.4
368.506	520.6
368.906	530.6
369.307	527
369.708	525.6
370.108	514.8
370.509	527.8
370.91	522.6
371.311	529.6
371.712	529.6
372.113	518
372.514	509
372.894	529.6
373.295	527.6
373.696	524.4
374.097	532.4
374.499	539.8
374.9	522.8
375.301	518.8
375.703	532.6
376.105	526.2
376.506	529.4
376.908	532.6
377.309	527.8
377.711	527.6
378.113	524.6
378.493	531.6
378.895	524
379.297	531
379.699	513.6
380.102	522.6
380.504	529.8
380.906	525.8
381.308	539
381.71	524.6
382.113	536.2
382.515	519
382.918	520.6
383.299	527.6
383.701	526.4
384.104	519
384.507	507.8
384.909	519.2
385.312	516.8
385.715	520.2
386.118	522.6
386.521	512.2
386.924	531.6
387.327	518.4
387.709	514.8
388.112	512.2
388.515	519.2
388.918	517.6
389.322	527
389.725	516.2
390.129	542.8
390.532	517.8
390.936	520.6
391.339	513
391.743	525.6
392.125	515.2
392.529	522.8
392.933	538.8
393.337	521.6
393.74	513.2
394.144	526.4
394.548	521.6
394.953	514.4
395.357	523.4
395.761	514.4
396.144	520
396.548	518
396.952	522
397.357	516.8
397.761	516.4
398.166	522.8
398.57	514.2
398.975	511
399.379	524.2
399.763	558.4
400.168	518
400.572	520.4
400.977	516.4
401.382	537.4
401.787	537.2
402.192	536
402.597	535.8
403.002	513.4
403.386	528
403.791	541.2
404.197	514.6
404.602	522.6
405.007	525.4
405.413	527.4
405.818	526.4
406.224	518.2
406.608	523.2
407.014	522.4
407.42	537
407.825	518.6
408.231	532.8
408.637	525.4
409.043	536.8
409.449	514
409.834	525.6
410.24	530
410.646	535.6
411.052	532.4
411.458	531.2
411.865	534.4
412.271	534.4
412.677	523
413.062	526.6
413.469	516.4
413.875	539.4
414.282	537.6
414.689	530.6
415.095	529.6
415.502	523.8
415.888	525.4
416.294	518.2
416.701	558.8
417.108	523.6
417.515	530
417.923	527.2
418.33	546.4
418.715	537.8
419.123	522.4
419.53	523.4
419.937	521
420.345	538
420.752	525.6
421.16	530.4
421.546	528.8
421.953	530.8
422.361	528.6
422.769	526.2
423.177	516.6
423.585	541.6
423.992	544
424.379	536.4
424.787	534
425.195	545.6
425.603	526
426.011	533.4
426.419	534.4
426.806	521.8
427.214	529.8
427.623	540.8
428.031	537.4
428.44	530.6
428.848	533.8
429.235	538.6
429.644	530
430.053	528.8
430.461	538
430.87	544.6
431.279	523.4
431.666	517.6
432.075	527.8
432.484	535
432.893	528.4
433.302	530
433.711	569
434.099	521.2
434.508	526
434.918	520.4
435.327	529.8
435.737	528.4
436.125	528
436.534	529.6
436.944	523
437.353	531.4
437.763	547.2
438.173	517.2
438.561	539.2
438.971	510.6
439.381	517.2
439.791	522.6
440.201	515
440.589	534
440.999	526.4
441.409	527
441.819	516.8
442.23	523.2
442.619	533.2
443.029	526.8
443.439	524.8
443.85	543.6
444.26	543.4
444.649	533.2
445.06	522.6
445.471	523.8
445.881	524.4
446.292	534
446.682	540.4
447.092	515
447.503	566.4
447.914	530.4
448.325	525
448.715	516.6
449.126	516.2
449.537	522.6
449.948	517
450.338	522.2
450.75	532.6
451.161	522
451.572	526
451.984	518.4
452.374	505
452.786	516
453.197	526.8
453.609	530.4
453.999	512
454.411	511.6
454.823	530.8
455.235	522
455.647	529
456.037	517.8
456.449	507
456.862	523.8
457.274	523.8
457.665	512.6
458.077	522.4
458.489	547.2
458.902	520.2
459.293	522
459.705	518.2
460.118	520.8
460.53	516.8
460.921	511.4
461.334	517.4
461.747	515
462.16	530
462.551	525.8
462.964	519
463.377	512.4
463.79	517.8
464.182	517.4
464.595	510.8
465.008	517
465.421	518.4
465.813	508.6
466.226	524.6
466.64	505.6
467.053	561
467.445	522.6
467.859	524.4
468.272	516
468.686	527.2
469.078	517.2
469.492	512.6
469.906	518.8
470.298	528.4
470.712	511.6
471.126	535.6
471.54	508.6
471.933	514.6
472.347	516
472.761	517.2
473.175	507.2
473.568	510.4
473.982	509.8
474.397	514
474.79	520.6
475.204	526.6
475.619	516.6
476.033	520.2
476.426	513.4
476.841	511.8
477.256	533.2
477.649	521.6
478.064	514.2
478.479	515.2
478.872	511.6
479.287	507.2
479.702	510.2
480.118	516
480.511	511
480.927	512.8
481.342	516
481.736	521.2
482.151	510.8
482.566	522.2
482.96	519.4
483.376	527.6
483.792	516.4
484.186	519.8
484.602	513.4
485.017	516
485.412	508
485.827	515.8
486.243	519.4
486.638	532.8
487.054	516.2
487.47	525.4
487.865	510.8
488.281	512.2
488.697	509
489.092	509.6
489.508	505.4
489.925	517.6
490.32	505.2
490.736	519.6
491.153	515.4
491.548	518
491.964	523
492.381	505.6
492.776	526.4
493.193	514.6
493.61	519.8
494.006	514.4
494.422	518.6
494.84	504.6
495.235	521.4
495.652	519.8
496.069	510.8
496.465	505.2
496.883	510
497.3	526.4
497.696	508.6
498.113	513.6
498.509	501.2
498.927	504.8
499.344	513.4
499.741	505.2
500.158	518.6
500.576	512
500.973	516
501.39	509.4
501.787	509.8
502.205	514.4
502.623	512
503.02	512.2
503.438	512.8
503.856	513.4
504.253	515.4
504.671	517.8
505.068	509.2
505.486	516.2
505.905	523.2
506.302	515.2
506.72	526
507.118	507.4
507.536	516.2
507.955	513
508.352	515.6
508.771	511.8
509.169	523.8
509.587	505.6
510.006	518
510.404	513.6
510.823	507.8
511.221	513.8
511.64	508
512.038	520.2
512.457	511.6
512.877	505.4
513.275	509.8
513.694	506.6
514.092	510.4
514.512	516.6
514.91	524.2
515.33	515.4
515.749	517.4
516.148	517.8
516.568	515.4
516.966	511.8
517.386	510.8
517.785	513.2
518.205	505.6
518.603	507.2
519.024	507.6
519.444	521
519.843	516.2
520.263	530.8
520.662	512.2
521.082	508.6
521.481	510.8
521.902	515
522.301	515.4
522.722	515.8
523.121	514
523.542	511.6
523.963	510.4
524.362	513
524.783	521.8
525.183	519.6
525.604	520
526.003	509.6
526.425	508.2
526.824	516.8
527.246	521.4
527.646	520.8
528.067	507
528.467	507.4
528.888	515.2
529.289	509.4
529.71	510.2
530.11	512
530.532	516.4
530.932	513.4
531.354	506.2
531.755	540
532.176	521.6
532.577	505.6
532.999	509.6
533.4	513.8
533.822	514.4
534.223	513.2
534.645	511.6
535.046	511.2
535.468	515.2
535.869	535
536.292	511.6
536.693	543.8
537.115	518.4
537.516	510.4
537.939	516
538.34	524
538.742	517.4
539.165	519
539.566	526
539.989	505
540.391	510.2
540.814	513.2
541.216	512.2
541.639	521.8
542.041	524
542.464	503.2
542.866	514.6
543.268	509.6
543.691	515.6
544.093	514.2
544.517	529.4
544.919	506.8
545.343	537.2
545.745	506.6
546.147	507.6
546.571	511.2
546.974	503.2
547.398	518.2
547.8	523
548.224	511.4
548.627	507.6
549.03	513.4
549.454	505.6
549.857	501.6
550.281	507
550.684	510.2
551.087	513.6
551.512	511
551.915	520.2
552.34	510.4
552.743	520
553.146	503.6
553.571	514.2
553.975	522.8
554.399	502.4
554.803	547.8
555.207	508.2
555.632	503.4
556.036	508
556.461	505
556.865	509
557.268	502.2
557.694	510.6
558.098	521.2
558.502	511
558.927	515.6
559.332	511
559.736	510.2
560.162	517
560.566	511
560.992	517.4
561.396	510
561.801	511.4
562.227	515.6
562.631	507
563.036	508.2
563.462	509.2
563.867	510
564.272	503
564.698	511.2
565.103	503.4
565.508	516.8
565.935	506.6
566.34	508.6
566.745	520.8
567.172	508.2
567.577	525.4
567.982	516
568.409	514.8
568.815	511.2
569.22	514.6
569.626	518.2
570.053	498.6
570.459	508.6
570.865	514.8
571.292	518.8
571.698	518
572.104	498.2
572.531	502.8
572.937	516.4
573.343	512.4
573.75	509.6
574.177	516.6
574.583	511
574.99	510.6
575.396	515.4
575.824	500.8
576.231	525.2
576.637	508.6
577.065	536.6
577.472	513.2
577.879	506.6
578.286	523
578.714	502
579.121	510.2
579.528	516.4
579.935	512
580.364	509.4
580.771	506.8
581.178	508.8
581.585	508.6
582.014	520.4
582.421	502.6
582.829	514
583.236	517.4
583.644	502.6
584.073	505
584.481	504
584.889	502.6
585.296	515.4
585.726	505
586.134	495.8
586.542	502.2
586.95	513
587.358	497
587.787	511.4
588.196	497
588.604	503.6
589.012	509.6
589.421	499.2
589.851	500.4
590.259	513.4
590.668	494.4
591.076	531.8
591.485	493.8
591.894	505.8
592.324	515
592.733	512.8
593.142	502.4
593.551	502.4
593.96	506.8
594.369	504.6
594.8	505.4
595.209	509
595.618	501
596.028	502
596.437	508
596.847	512.8
597.256	502.2
597.687	507.2
598.097	509.2
598.507	500.2
598.917	507
599.327	513
599.736	513.6
600.146	521.8
600.556	511.2
600.988	514.6
601.398	509
601.808	517.4
602.219	497
602.629	509.4
603.039	505
603.45	529.8
603.86	504
604.271	515
604.703	507.8
605.114	503
605.525	510.2
605.935	515
606.346	518.2
606.757	516.4
607.168	513.6
607.579	506.4
607.99	513.4
608.402	508.4
608.813	509.8
609.224	507.2
609.636	502.2
610.047	500.4
610.48	511
610.892	513.4
611.303	508
611.715	503.4
612.127	495.8
612.539	504.8
612.95	508.8
613.362	501.4
613.774	495.6
614.186	499.4
614.599	503.4
615.011	509.6
615.423	505.2
615.835	502
616.248	503.6
616.66	514
617.073	502.4
617.485	502
617.898	507.6
618.311	505.6
618.723	506
619.136	532.2
619.549	519.6
619.962	526.6
620.375	508.6
620.788	509.8
621.201	506.6
621.614	508.8
622.028	506.6
622.441	515
622.854	517.8
623.268	507
623.681	505.2
624.095	517.4
624.509	515.4
624.922	506.2
625.336	500.4
625.728	503.8
626.142	515.2
626.556	518.8
626.97	507.2
627.384	495.8
627.799	509.4
628.213	516.8
628.627	508
629.041	510.4
629.456	499.8
629.87	500.6
630.285	517.8
630.699	515.2
631.093	511
631.507	510.8
631.922	508
632.337	515.8
632.752	500.8
633.167	511
633.582	506.4
633.997	500.2
634.412	507.2
634.806	505
635.221	497.6
635.637	511.4
636.052	496.6
636.468	507
636.883	513.4
637.299	510.8
637.715	497
638.109	507.2
638.525	501.2
638.941	521.6
639.357	506.2
639.773	511.4
640.189	501.2
640.584	506.2
641	505.4
641.416	500.2
641.832	502.2
642.249	504.8
642.665	506.4
643.06	504.2
643.477	511.8
643.894	486.6
644.31	497
644.727	511.4
645.123	508.4
645.54	504.8
645.957	509.6
646.374	522.2
646.77	513
647.187	534.2
647.604	505.6
648.021	491
648.439	490.6
648.835	502
649.252	502.8
649.67	500.4
650.088	505.4
650.484	506.2
650.902	509.2
651.32	508.2
651.738	490.4
652.134	506.2
652.552	514
652.971	515.8
653.389	505
653.786	514
654.204	504.6
654.622	498.6
655.019	502.2
655.438	508.2
655.857	510.4
656.275	512
656.673	502.4
657.091	512
657.51	495.4
657.908	516
658.327	518
658.746	495.8
659.144	503.6
659.563	513
659.982	505.4
660.38	499.8
660.8	512.4
661.219	515.4
661.617	510
662.037	502.4
662.457	516.2
662.855	485.6
663.275	525
663.695	505.6
664.094	499.8
664.514	504.4
664.934	491.2
665.333	512.4
665.753	500.4
666.152	497.2
666.572	499.2
666.993	515.4
667.392	499.4
667.812	502.6
668.212	506.8
668.632	504
669.053	506
669.453	505.8
669.874	500.2
670.273	504.4
670.694	492.4
671.116	512.6
671.515	504.8
671.937	512.6
672.337	494.8
672.758	505.4
673.158	513.2
673.58	501.4
673.98	507.8
674.402	507
674.824	502
675.224	498.2
675.646	499
676.047	496
676.469	504.6
676.869	513.4
677.292	502
677.693	490.4
678.115	503.2
678.516	509.6
678.939	500.2
679.34	507.2
679.762	511.2
680.164	512.2
680.586	499.8
680.988	508.2
681.411	519
681.812	504.6
682.236	495.2
682.637	498.6
683.061	492
683.462	502
683.864	500.4
684.288	505.6
684.69	490.6
685.114	503.8
685.516	506.4
685.94	495.8
686.342	508.4
686.766	493
687.168	498.4
687.571	512.6
687.995	502.2
688.398	488.4
688.822	498.4
689.225	511.6
689.628	513.8
690.052	500.8
690.456	506
690.88	501.2
691.284	491.8
691.687	509.6
692.112	502.6
692.515	495.8
692.919	501.2
693.344	502.8
693.747	501.2
694.173	488.4
694.577	514.6
694.98	495.8
695.406	496.8
695.81	508.2
696.214	499
696.64	502.2
697.044	505.8
697.448	510.6
697.874	493.4
698.279	507
698.684	493
699.11	500
699.514	502
699.919	500.4
700.324	493
700.75	502.2
701.156	505
701.561	520
701.987	507.8
702.393	508.8
702.798	504
703.203	499.6
703.63	503.6
704.036	499
704.442	501.4
704.847	499.6
705.274	498.4
705.68	506.4
706.086	500
706.492	489
706.92	505.2
707.326	511
707.732	489.6
708.139	491.8
708.545	494.2
708.973	491.6
709.38	499.4
709.786	488.4
710.193	518
710.6	498.8
711.028	496.2
711.435	497.4
711.842	498
712.249	502.2
712.656	496.6
713.064	512
713.492	489.8
713.9	490.2
714.307	505.2
714.715	501.6
715.123	500.6
715.53	503.2
715.938	509.8
716.367	497.4
716.775	500.4
717.184	494
717.592	495.6
718	502.2
718.408	528.2
718.816	544.6
719.225	499.8
719.633	503
720.042	498.8
720.472	505.8
720.881	519.2
721.29	506.2
721.699	499
722.108	510
722.517	508.8
722.926	500.8
723.335	507.6
723.744	501.2
724.154	506.2
724.563	501
724.973	504.2
725.382	504.2
725.792	488.4
726.202	493.2
726.612	508.6
727.022	501.8
727.432	507.4
779.813	493.6
780.223	533.6
780.634	505.6
781.044	489.8
781.454	507
781.865	508.6
782.276	485.4
782.686	514
783.097	495
783.508	498.8
783.919	501.2
784.33	514.8
784.741	511.2
785.152	500.4
785.563	491.2
785.974	497.8
786.386	501.4
786.776	497.8
787.188	494.8
787.599	494.2
788.011	506.6
788.423	506.4
788.835	505
789.247	494.2
789.659	489.6
790.071	501.2
790.483	534.2
790.874	496
791.286	512.8
791.699	492.2
792.111	499.8
792.524	500.4
792.937	493.4
793.349	484
793.741	486.2
794.154	495
794.567	517.8
794.98	495.6
795.393	498.6
795.785	507.2
796.198	497.6
796.612	500.2
797.026	490
797.439	488.6
797.831	500
798.245	487.8
798.659	495.2
799.073	495
799.487	493
799.88	497.8
800.294	495.8
800.708	498.8
801.123	497.4
801.516	511.4
801.93	491
802.345	493.2
802.76	495.4
803.153	511
803.568	507.6
803.983	500.8
804.377	496.6
804.792	483.4
805.207	482.8
805.601	497.6
806.016	529.4
806.432	495.2
806.826	528.2
807.242	504.8
807.658	505.8
808.052	495.6
808.468	495.6
808.884	491
809.279	491
809.695	506.8
810.111	509.6
810.506	498.8
810.922	507.2
811.339	495.4
811.734	505.6
812.151	490.2
812.546	500
812.963	491.2
813.38	501
813.776	505
814.193	512.6
814.589	493
815.006	496
815.402	486.2
815.82	495.6
816.237	497.8
816.633	499.4
817.051	489
817.448	499
817.866	491
818.262	514
818.68	492.6
819.077	488.8
819.495	501.8
819.892	533
820.311	490
820.708	499
821.127	488
821.524	505.4
821.943	498
822.34	512.2
822.759	502.6
823.157	492
823.576	502
823.974	509.4
824.393	594.4
824.791	486.4
825.189	488.6
825.609	499
826.007	495.8
826.427	485.6
826.826	498
827.246	507.2
827.644	485.6
828.043	496.8
828.463	490
828.862	500
829.261	504
829.682	494.6
830.081	495.4
830.502	483
830.901	498.4
831.301	489.2
831.722	482.6
832.121	488.8
832.521	491.8
832.943	495.4
833.342	493.8
833.742	488.8
834.164	488.2
834.564	485.6
834.965	497.4
835.386	491.2
835.787	490.4
836.188	496.4
836.588	492.2
837.01	490.4
837.411	484.2
837.812	500.8
838.213	489.2
838.636	488.2
839.037	551.4
839.438	499.8
839.84	494.2
840.263	496.2
840.664	499.6
841.066	490.4
841.468	495.8
841.891	496.6
842.293	506.2
842.695	496.8
843.098	505
843.5	497.2
843.902	491.8
844.326	494.2
844.729	498.6
845.131	507.2
845.534	504
845.937	508
846.34	514.8
846.764	500.6
847.167	498.8
847.571	495.2
847.974	496.4
848.377	496.8
848.781	532.8
849.184	513.8
849.588	491.8
849.992	482.4
850.396	495.4
850.821	512.2
851.225	501
851.63	490.8
852.034	510
852.438	497.4
852.843	523.4
853.247	484
853.652	494.4
854.057	508.8
854.462	497.6
854.867	490.4
855.272	520.4
855.677	493.2
856.082	488.6
856.487	490.6
856.893	498.6
857.298	489.8
857.704	488.8
