#lambda/nm	DC	C1
208.295	471.8	470.2
208.67	433.4	433.2
209.045	395.4	394.6
209.419	400.2	404.4
209.794	531.2	531
210.169	518.6	518
210.544	621.2	624.8
210.919	534.2	527.2
211.295	522.2	525.4
211.67	531.2	533.4
212.045	522	526.2
212.421	524.6	519.4
212.796	560.6	550.8
213.172	527.8	522.8
213.547	525.2	518.6
213.923	524.6	526.8
214.299	522	523.2
214.675	539	532.6
215.051	531	538.4
215.427	539.6	531.8
215.803	545.4	545.4
216.179	535.4	526.8
216.555	528	530.2
216.932	540.6	534
217.308	526.4	526.2
217.684	532	526.2
218.061	537.2	542.8
218.438	532.2	532.8
218.814	532	524.8
219.191	534.4	532.6
219.568	531.4	524.8
219.945	524	531
220.322	542.8	534.8
220.699	530.2	530
221.076	532.8	537.2
221.453	530.6	532.2
221.83	525.6	524.8
222.208	531.2	528.6
222.585	522	528.2
222.962	526	534
223.34	531.6	533.4
223.717	526	526.4
224.095	523.8	529.6
224.473	526.8	529.6
224.851	522.6	526
225.229	518	524.6
225.607	529	534.4
225.985	523.2	526.2
226.363	527.2	534
226.741	534.6	528.8
227.119	521.2	531
227.497	536	540.6
227.876	521.8	520.8
228.254	534.6	535.8
228.633	530	538.2
229.011	540.4	533
229.39	533.4	536.6
229.769	531.8	532.4
230.148	538.6	535.2
230.527	548.4	557.6
230.905	530	530.8
231.284	533.6	533.6
231.664	530.8	532.8
232.043	540.6	544.2
232.422	535.2	535.8
232.801	528.2	519
233.181	524	530.6
233.56	527.8	532
233.94	540	528.4
234.319	524	522.2
234.699	521	534.6
235.079	563.2	568.8
235.458	556.2	569
235.838	540.8	539.6
236.218	525.2	518.4
236.598	520.2	522.8
236.978	530.2	520.2
237.358	528	523.8
237.738	525.8	521.8
238.119	532.4	533.2
238.499	523.8	526.4
238.88	529.8	530.4
239.26	543.4	547.4
239.641	524	525
240.021	526	527.6
240.402	528.6	525.4
240.783	528.6	534.2
241.163	525	527.4
241.544	525.6	534.8
241.925	528.2	530
242.306	541	549.6
242.687	526.6	526
243.069	531.2	540
243.45	535.6	542.8
243.831	527.2	526.4
244.212	527.4	531.6
244.594	564.6	561.8
244.975	539.2	537.4
245.357	538	532.8
245.739	526.4	521.8
246.12	533.8	531
246.502	552.2	537.4
246.884	527	528.2
247.266	521.6	525
247.648	531.2	532.8
248.03	548	547.4
248.412	531.2	522.2
248.794	534.8	533.6
249.176	524	523.8
249.559	541	530.2
249.941	525.4	526.4
250.323	525.6	528.2
250.706	519.4	529.2
251.089	530.6	531.6
251.471	536.4	532.4
251.854	526.4	528.6
252.237	533.2	527.6
252.62	536.2	537.4
253.002	534.2	532.4
253.385	523.6	533.6
253.769	539.8	548
254.152	528.4	530.8
254.535	534.2	531
254.918	523.2	527
255.301	527.6	525
255.685	526.2	531.6
256.068	523.4	517
256.452	539.8	548.6
256.835	539.4	535.8
257.219	526.8	537.2
257.603	533.8	539
257.986	519.2	528.6
258.37	529.8	536.8
258.754	523.8	519.8
259.138	538.2	530.6
259.522	542	537.8
259.906	528	526
260.29	534.4	537.4
260.675	527.8	526.4
261.059	533.8	525.4
261.443	515.4	525.4
261.828	533.8	536.8
262.212	531.4	537.4
262.597	527.8	522.4
262.981	518.8	523.8
263.366	533	540.8
263.751	529.2	539
264.136	527.8	524.8
264.521	520.2	523.8
264.906	518.4	526
265.291	546	533
265.676	520.8	528.8
266.061	529	531.8
266.446	546.6	540.8
266.831	536	534.8
267.217	548.8	547.8
267.602	528	528.8
267.987	529.8	531.8
268.373	530.6	526
268.759	538.6	544.8
269.144	534.8	537.6
269.53	530.4	536
269.916	530.4	530.6
270.302	529.4	528
270.688	532.4	534.8
271.074	537	531
271.46	534.8	540.8
271.846	553.6	555.8
272.232	535	527.6
272.618	519.6	523.8
273.004	528.6	534
273.391	539.6	538.8
273.777	539.6	542.4
274.164	529.4	534.8
274.55	539.2	538.8
274.937	530.8	534.4
275.324	524.8	527.8
275.71	522	528.4
276.097	533.2	539.4
276.484	517.6	527
276.871	528.8	530.4
277.258	531.6	530.6
277.645	516.4	513.2
278.032	526	520.6
278.419	525.6	530.2
278.807	536	534.8
279.194	523.6	520.4
279.581	520	528.4
279.969	536.4	533.4
280.356	532.4	527.2
280.744	534.4	529.8
281.131	549.2	547.8
281.519	530	531.8
281.907	527.6	519.8
282.295	519.4	529.4
282.682	540.4	541
283.07	535.8	534.8
283.458	531.2	526.2
283.846	530.8	535
284.235	539.6	546.6
284.623	533.8	534.4
285.011	524.6	511.4
285.399	533.6	531.2
285.788	530.6	526.2
286.176	522.4	522
286.565	542.6	535.2
286.953	534.4	528.2
287.342	529.2	534.2
287.731	522.8	524.8
288.119	524	526
288.508	530.4	525.2
288.897	534.2	533.4
289.286	518.2	520
289.675	531	525.4
290.064	542.8	536.4
290.453	526.6	529.8
290.821	524.6	532
291.21	545.4	534.6
291.599	527.2	522.2
291.989	534.6	528.8
292.378	533.4	537.2
292.768	554.6	543
293.157	531.4	533.8
293.547	529.4	538
293.936	528.2	527
294.326	524.2	523.2
294.716	532	537
295.106	530.2	528.4
295.496	542	529.4
295.886	533.8	538.6
296.276	527.6	528
296.666	532.6	531.6
297.056	527.4	519
297.446	522.8	528
297.836	547.2	540.8
298.227	526	525.2
298.617	525.4	533.4
299.008	548.4	541
299.398	523.2	533.2
299.789	535.2	526.6
300.179	528.2	535
300.57	541.8	545.6
300.961	529.4	525.8
301.352	529	526.8
301.742	533.8	533.2
302.133	531	522.4
302.524	528.2	531.2
302.915	527.2	520
303.307	526	522.4
303.698	539.4	536.6
304.089	532	527.2
304.48	530.8	525.6
304.872	529.2	531.8
305.263	522.6	528.6
305.655	526.6	525.6
306.046	524	536.2
306.438	538	527.2
306.829	525.6	525
307.221	546.6	537.6
307.613	535.6	528
308.005	537.4	531.4
308.397	536.2	525.4
308.789	545.2	548.8
309.181	549.4	547.8
309.573	539.2	539.2
309.965	539	541.4
310.357	526.6	534.2
310.749	540	533.8
311.142	527.4	526.8
311.534	534.4	524.4
311.926	531	534.6
312.319	525.4	534.4
312.711	528.8	523.6
313.104	542	540.2
313.497	527	529.2
313.889	559	556
314.282	543.8	548
314.675	542.2	554.4
315.068	536.6	534.4
315.461	536.8	534.8
315.854	550.4	555
316.247	533.8	537.4
316.64	532.8	541.2
317.033	530.6	522.8
317.405	540.2	536.8
317.798	529.2	531.4
318.192	536.8	529.8
318.585	520	520.4
318.979	536.4	537.2
319.372	525.2	526.8
319.766	519.8	529.4
320.16	540.4	538.4
320.553	541.2	538
320.947	546	546.8
321.341	527	528.8
321.735	531.8	529
322.129	519.8	525.4
322.523	543	544.6
322.917	518.8	527.6
323.311	537.2	542
323.705	538.6	534
324.099	536	533.4
324.494	536.6	544.4
324.888	537.8	538
325.282	519.8	526.8
325.677	533.6	544.4
326.071	534	529.4
326.466	541.8	543.6
326.861	524.4	533.2
327.255	541.4	540.4
327.65	542.6	544.2
328.045	534.8	549.6
328.44	534.8	532.6
328.835	532.6	534.4
329.23	528.6	532.6
329.625	545.8	549.6
330.02	516.4	529.2
330.415	543.8	553.2
330.81	527.2	533.4
331.206	539.6	535.8
331.601	528.4	526.4
331.996	532.6	530.6
332.37	545	546
332.766	532	524
333.161	550.2	542.2
333.557	528	529
333.953	528	532.8
334.348	829.8	821.8
334.744	527.8	537.2
335.14	527.2	528.2
335.536	522	527.6
335.932	539.2	543
336.328	530.6	526.4
336.724	534	534.4
337.12	531.2	536.4
337.516	530.8	528.4
337.913	531	535.8
338.309	533.6	534.6
338.705	528.6	537.8
339.102	533.6	532.6
339.498	524.4	521
339.895	538.8	536.4
340.291	522.2	520.4
340.688	541.8	539.4
341.085	531.6	524
341.481	532.2	530.4
341.878	525.4	525.2
342.275	543.4	539
342.672	517.2	517
343.069	531.4	520.4
343.466	521.2	510.4
343.842	527.6	529.6
344.239	520.4	524
344.636	525.2	532.4
345.033	515.4	519.4
345.431	524.2	515.6
345.828	530	525.8
346.225	526.8	514.4
346.623	557	552.6
347.02	520	527.6
347.418	541.2	532.8
347.816	537.4	543.2
348.213	524.2	517.4
348.611	533.4	532.2
349.009	526.2	522.2
349.407	538.4	533.4
349.805	521.2	520.4
350.203	514.4	513.6
350.601	530	537.6
350.999	515.8	525.2
351.397	573.2	575.8
351.795	527.6	524.8
352.193	533.6	532.6
352.57	535	538
352.969	551.6	536.4
353.367	516.2	522.4
353.766	523.4	526.8
354.164	522.6	526.6
354.563	534.4	538.4
354.961	528.6	527
355.36	524.4	523.2
355.759	520	537.2
356.158	515	520
356.557	511.2	521.2
356.956	509.8	518
357.355	518.6	515.8
357.754	522.4	527.2
358.153	526.4	529
358.552	541	549.8
358.951	523.6	526.2
359.35	537.2	549.4
359.75	523.8	522.2
360.149	515.6	521.4
360.527	513	517
360.926	518.8	519.8
361.326	528.2	523.8
361.726	522.2	527.2
362.125	518.8	520.6
362.525	533.2	537
362.925	525.2	518
363.325	527.8	527.4
363.724	526.2	524.2
364.124	516.4	517
364.524	522.6	529.2
364.924	522.4	525.8
365.324	532.8	540.6
365.725	511.8	524.4
366.125	530.8	528.4
366.525	529	524
366.904	519.8	523.4
367.304	510.2	507
367.705	534.4	537
368.105	536.4	543.2
368.506	529.2	517.6
368.906	523.4	519.2
369.307	525	526.6
369.708	526.6	525.6
370.108	511.2	514.8
370.509	527	535
370.91	515	515
371.311	519.8	524.8
371.712	519.8	523.2
372.113	522.8	524.2
372.514	511.2	519
372.894	514.4	523.2
373.295	516.8	513.8
373.696	528.2	530.2
374.097	527	532.8
374.499	543.2	542
374.9	523	530
375.301	512.8	521.4
375.703	521.8	520.8
376.105	511.4	519.2
376.506	520.4	527.6
376.908	527.6	528.2
377.309	521.8	527.6
377.711	520	521.8
378.113	512	509.2
378.493	521	521.4
378.895	524.4	518.8
379.297	526.4	525
379.699	512	514.8
380.102	521.6	517.6
380.504	528.6	513.4
380.906	512.6	518
381.308	539.2	537.2
381.71	518.8	523.2
382.113	533.6	531.4
382.515	520	524.2
382.918	531.6	519.2
383.299	523	523.6
383.701	527.8	527
384.104	525.6	523.6
384.507	509.8	502.6
384.909	522	520.6
385.312	510.2	507.4
385.715	514.6	514.2
386.118	519.8	522.6
386.521	520.4	509.4
386.924	530.8	534.8
387.327	511.6	513.6
387.709	508.4	512.4
388.112	508	508.8
388.515	521.4	525.8
388.918	516.8	512.8
389.322	529.4	519.6
389.725	518.2	520.8
390.129	539.6	538.4
390.532	527.2	527.6
390.936	519.8	523
391.339	516.6	511.2
391.743	515	527.6
392.125	518.4	525
392.529	534.4	528.4
392.933	537.2	532
393.337	516.6	522
393.74	520.2	522.4
394.144	526.6	527
394.548	516.4	519.4
394.953	524.8	516.6
395.357	529.2	525.4
395.761	520.4	519.8
396.144	529	517
396.548	516.6	517
396.952	523.8	521.2
397.357	524.2	518.2
397.761	518.8	512.2
398.166	517.2	509
398.57	516	518
398.975	509	520.4
399.379	524.4	528.6
399.763	553.6	557.6
400.168	517.8	514
400.572	517.4	507.8
400.977	516	515.8
401.382	538	531.6
401.787	528.2	523.2
402.192	532	526
402.597	530.8	533.4
403.002	514.2	503.4
403.386	538	519.6
403.791	538	534
404.197	525	520.4
404.602	523.2	519.6
405.007	520.6	522.4
405.413	525	519.2
405.818	521.2	528
406.224	507.2	515
406.608	514.4	523.8
407.014	509.6	517
407.42	530.4	531.6
407.825	521.2	517.8
408.231	533	521.8
408.637	524.4	520.2
409.043	527.4	529.8
409.449	515.4	518
409.834	516.4	518.4
410.24	519.8	527.4
410.646	533.8	532.6
411.052	525.2	527.2
411.458	525.4	525.2
411.865	524	526.8
412.271	531	535.4
412.677	524	517
413.062	529	528.2
413.469	515.4	512.6
413.875	538.8	543.6
414.282	533.4	532
414.689	527.6	519
415.095	523	520.2
415.502	519.2	514.2
415.888	525	526.6
416.294	514.6	512
416.701	551.6	551
417.108	518	517.6
417.515	529.6	529.2
417.923	522.8	530
418.33	534.4	541
418.715	527.4	534.8
419.123	508.4	523.6
419.53	516.4	517.4
419.937	519	526.8
420.345	527.8	535.6
420.752	515.6	518.8
421.16	530.4	535.2
421.546	514.8	521
421.953	525.8	527
422.361	511.2	513.2
422.769	522.4	522.2
423.177	523.8	514
423.585	539.4	542.4
423.992	529.8	533.8
424.379	533	533.4
424.787	531.6	533
425.195	531.6	543.6
425.603	518.6	526.2
426.011	528.6	540.6
426.419	535.6	530.8
426.806	519.8	525
427.214	528.4	526.4
427.623	533	538.8
428.031	535.6	546.8
428.44	527.8	533.6
428.848	535.6	545.6
429.235	541.2	549.8
429.644	525.6	554.4
430.053	527.2	557.8
430.461	534.2	577
430.87	545.6	595.4
431.279	538.6	586.4
431.666	517.4	580.6
432.075	520.6	597.8
432.484	537.2	619
432.893	519	631.6
433.302	532.6	658
433.711	554.2	679.8
434.099	524	674
434.508	523.2	683.4
434.918	518.6	698
435.327	531.4	733.2
435.737	529.8	755.4
436.125	533.2	774.4
436.534	531	780.2
436.944	527.2	806.6
437.353	529.2	823.2
437.763	541.8	850.8
438.173	528	852.2
438.561	533	874.8
438.971	513.2	895.6
439.381	525	907.4
439.791	531.8	930.8
440.201	508	939.8
440.589	531	955.4
440.999	527.2	967.6
441.409	526.6	990.2
441.819	518.6	993.2
442.23	540.6	1019.8
442.619	544.4	1030.2
443.029	525.6	1033.6
443.439	530.2	1055.8
443.85	544	1074.2
444.26	547.2	1094.8
444.649	539.6	1080.4
445.06	534.6	1074.8
445.471	536.6	1098
445.881	537.2	1119.2
446.292	552.6	1138
446.682	551	1142.2
447.092	531.8	1136.2
447.503	579.4	1169.8
447.914	539	1143.8
448.325	544.2	1149.4
448.715	538.2	1174.8
449.126	529.4	1186.6
449.537	543.6	1172.4
449.948	536.4	1157.2
450.338	538.6	1183.6
450.75	545.8	1191
451.161	541.2	1184.6
451.572	544.6	1186
451.984	535.8	1202.2
452.374	526.2	1191.6
452.786	529.4	1210.4
453.197	539.4	1212.6
453.609	541.4	1220.2
453.999	528.4	1210.8
454.411	531.8	1210.4
454.823	551.4	1227.8
455.235	533	1224.6
455.647	522.6	1217.2
456.037	542	1228.4
456.449	520.8	1225.2
456.862	532.2	1228.8
457.274	535.2	1219.6
457.665	521.6	1218.6
458.077	533.8	1236.2
458.489	555.4	1259.6
458.902	521.6	1228.2
459.293	534.2	1219.4
459.705	530.4	1221
460.118	535.4	1228.2
460.53	531	1239.8
460.921	525.4	1229.8
461.334	529.4	1242.6
461.747	529.8	1233.4
462.16	541.4	1232.4
462.551	535.8	1238.8
462.964	536.2	1227.6
463.377	522.8	1226.2
463.79	527.6	1243.8
464.182	533.8	1239.8
464.595	523.2	1220
465.008	535	1245.4
465.421	535	1238.8
465.813	515	1219.2
466.226	528.6	1226
466.64	527.2	1225.6
467.053	552.8	1261.4
467.445	532.4	1230.6
467.859	530.8	1249.6
468.272	525.8	1226.6
468.686	532.2	1246.8
469.078	517.8	1234.2
469.492	508.8	1234.8
469.906	524.4	1236.4
470.298	519	1237.8
470.712	513	1215.4
471.126	542.8	1244
471.54	509.6	1219.6
471.933	514.2	1217.6
472.347	511	1226
472.761	510	1210.6
473.175	509	1210.6
473.568	511.8	1223.8
473.982	504.2	1207.4
474.397	519.4	1220.2
474.79	519	1205.2
475.204	520.2	1218.8
475.619	516	1210.4
476.033	520.8	1218.2
476.426	522	1191.8
476.841	521.4	1177.2
477.256	528.2	1208.6
477.649	520.4	1173.6
478.064	510.2	1159
478.479	507.8	1161.4
478.872	508	1174.4
479.287	510.2	1154
479.702	514.8	1169.6
480.118	515.6	1152.4
480.511	510.8	1151.4
480.927	517.8	1155.8
481.342	516.6	1150
481.736	519	1164
482.151	508	1135
482.566	527.4	1154.8
482.96	520.2	1151
483.376	522.6	1145
483.792	512.4	1128.8
484.186	526	1135.2
484.602	513.4	1126.6
485.017	520.4	1138.6
485.412	516	1130
485.827	522.2	1134.4
486.243	523	1115.8
486.638	531.6	1129.8
487.054	518	1121.4
487.47	536.2	1128.2
487.865	510.4	1103.6
488.281	517.2	1096
488.697	503.2	1074
489.092	514.4	1087.6
489.508	501.6	1081
489.925	526.4	1082.8
490.32	508.6	1066.4
490.736	526.8	1059.6
491.153	520	1064.6
491.548	527.2	1055.8
491.964	523	1068.2
492.381	508.8	1040
492.776	520.6	1049.8
493.193	525.8	1039.6
493.61	520.2	1029.8
494.006	523.8	1049.4
494.422	522.6	1048.4
494.84	511.2	1017.4
495.235	520	1041.8
495.652	512.2	1023
496.069	514.2	1027
496.465	511	1015.2
496.883	518.8	1003.2
497.3	526	1020.2
497.696	521.6	1002
498.113	527	992.4
498.509	505.4	973
498.927	514.4	972.4
499.344	513.8	976.2
499.741	506.2	974.4
500.158	526	968.6
500.576	526.4	976.2
500.973	522.4	969.4
501.39	512.2	941.6
501.787	506.8	942.4
502.205	523.8	955.6
502.623	515.2	937.8
503.02	512	926.2
503.438	517.2	934
503.856	520	934.4
504.253	518.8	928.8
504.671	517	915
505.068	516.2	910
505.486	510	915.6
505.905	526.2	931.8
506.302	519.6	903.2
506.72	528.6	919.4
507.118	509.4	899
507.536	515.2	893.8
507.955	516.2	896.2
508.352	524.8	883.6
508.771	521.8	896.2
509.169	530.6	888.6
509.587	518.6	875
510.006	519	882.8
510.404	511.2	854.2
510.823	519	855.2
511.221	517.8	853
511.64	518	858.6
512.038	531.6	865
512.457	519.6	857.6
512.877	520.6	844.6
513.275	514.8	836.2
513.694	510.4	842.2
514.092	513.8	830.8
514.512	529.2	836
514.91	532.2	841.6
515.33	524.2	825.2
515.749	514.6	823.2
516.148	531.2	818.4
516.568	521.6	812.8
516.966	524.8	821.8
517.386	517.2	816.8
517.785	514.8	802.2
518.205	507	806.8
518.603	516.2	788.4
519.024	512.6	799.4
519.444	515.2	786.4
519.843	526.8	789
520.263	524.8	803.2
520.662	523.6	784
521.082	518.8	772.6
521.481	531.2	773.6
521.902	524.4	776.6
522.301	523	768.2
522.722	522.2	767.2
523.121	519.6	761.6
523.542	522.2	763.6
523.963	517	755.8
524.362	521.2	755.6
524.783	523.8	742.6
525.183	525	758.8
525.604	516	750.8
526.003	525.4	737
526.425	516	740.6
526.824	521.2	749.8
527.246	535.2	746.4
527.646	528.2	739
528.067	520.4	733.8
528.467	525.8	734.2
528.888	525	729
529.289	526	714.4
529.71	521	727.2
530.11	526.4	719.8
530.532	516.2	717.2
530.932	517.2	702
531.354	520.6	701.2
531.755	554.2	737.6
532.176	535.6	721.4
532.577	521	702.8
532.999	522.8	710
533.4	529	705.8
533.822	525.2	717
534.223	522.8	691.8
534.645	520.8	691.2
535.046	518.4	684
535.468	531.4	685.6
535.869	534	703.4
536.292	515.6	679.4
536.693	548.8	706.6
537.115	533.4	685.8
537.516	520.4	674
537.939	521.4	678.8
538.34	531.4	692.6
538.742	539.2	686.8
539.165	515.8	674.2
539.566	516.2	673
539.989	518.8	665.4
540.391	520.4	667.6
540.814	517.4	673.2
541.216	523.6	659
541.639	522.4	664.8
542.041	536.8	673.6
542.464	521.6	661.2
542.866	514	649.2
543.268	517.2	647.4
543.691	526	664
544.093	524.8	656.2
544.517	538.2	673
544.919	511.6	664
545.343	537	663.4
545.745	513.2	638.6
546.147	514.2	652.4
546.571	518.2	643.4
546.974	517.4	636.4
547.398	517.6	650.8
547.8	538.8	654.2
548.224	513.4	638.8
548.627	512.8	643.4
549.03	520.6	634
549.454	516.2	633.2
549.857	518	623.2
550.281	516.6	632.4
550.684	515.8	634
551.087	531.4	640.6
551.512	516.4	622.2
551.915	525.6	635
552.34	515.2	629.2
552.743	513.8	628.4
553.146	518.4	627
553.571	517.4	619.8
553.975	535.8	626.6
554.399	515	619.8
554.803	556.2	663
555.207	518.6	622
555.632	511.4	609.4
556.036	529.4	619
556.461	521.4	609.8
556.865	520.4	609.8
557.268	510.6	604
557.694	514.8	609.4
558.098	520.6	610.2
558.502	521.6	607.6
558.927	514.4	599.4
559.332	520.2	607
559.736	520.6	604.8
560.162	524.2	605.2
560.566	513.2	600.6
560.992	527.2	600.2
561.396	530.8	600.2
561.801	513.6	595
562.227	522.4	593.8
562.631	515.6	597.8
563.036	517.8	585
563.462	519.6	600.6
563.867	514.6	597.2
564.272	504.4	577.4
564.698	524.8	598.6
565.103	510.4	571.8
565.508	534.6	590
565.935	520.2	580.8
566.34	519.6	580.2
566.745	522	592.4
567.172	511.8	571.2
567.577	536.2	596.6
567.982	522.4	590.8
568.409	515.6	578.4
568.815	515.4	575.4
569.22	515.4	581.8
569.626	518.6	585.2
570.053	508	574.6
570.459	516.6	577
570.865	519.8	580.4
571.292	513.2	586.6
571.698	517.8	574
572.104	501	552.6
572.531	523.2	569
572.937	521.8	576.6
573.343	505.8	573.6
573.75	517.8	565.6
574.177	520.4	572
574.583	525.2	570.4
574.99	521.6	567.8
575.396	522.4	566.4
575.824	518.2	568.8
576.231	518.4	569.4
576.637	512	554.4
577.065	529.6	586
577.472	516	561.4
577.879	509.6	555.8
578.286	523.4	568.2
578.714	510.8	565.4
579.121	510.2	566.8
579.528	512.4	554.4
579.935	513.4	563.8
580.364	512.6	567.2
580.771	502.2	549.4
581.178	508.6	548.6
581.585	515.2	560.4
582.014	512.2	562.4
582.421	505	556.6
582.829	512.4	556.8
583.236	527.6	552.6
583.644	502	552.4
584.073	515.8	545.8
584.481	508	555.8
584.889	507.8	542.8
585.296	527	556
585.726	508.2	560.4
586.134	508.6	544
586.542	509	549.2
586.95	532.4	561.2
587.358	511.2	537
587.787	521.2	550
588.196	508.4	539.6
588.604	514.6	545.8
589.012	511.4	547.4
589.421	508.2	532.8
589.851	507.2	539
590.259	520.2	550
590.668	509.6	546.8
591.076	539.6	571.6
591.485	512.6	537.4
591.894	518.2	537.2
592.324	529	552.8
592.733	521	546.2
593.142	511.8	525
593.551	514.4	532.2
593.96	545.4	565.2
594.369	508.2	535.4
594.8	505.4	526
595.209	514.2	531
595.618	507.6	518.4
596.028	508.8	542
596.437	505.6	525.6
596.847	518	534.2
597.256	517.8	528.8
597.687	520	535.8
598.097	515.4	533.6
598.507	508.2	525.8
598.917	516.8	531.4
599.327	518	537.6
599.736	518	536.4
600.146	525.8	533
600.556	527.8	529.4
600.988	524	545
601.398	518.2	522.6
601.808	527.8	539
602.219	511.2	522
602.629	515.8	539.2
603.039	515	534.4
603.45	542.2	552.8
603.86	527.8	529.2
604.271	535.4	539.6
604.703	525	526
605.114	519.4	526.6
605.525	525.4	521.4
605.935	528.4	528.6
606.346	535	538.8
606.757	521.4	527
607.168	519	527.2
607.579	514.2	518.4
607.99	530.4	533
608.402	520.2	531.2
608.813	523.6	520.2
609.224	517.4	517
609.636	509.8	512.4
610.047	508.6	512
610.48	524.6	524.6
610.892	519	523.8
611.303	533.4	518.6
611.715	522.2	526.2
612.127	512	515
612.539	514.6	517.2
612.95	515.4	526.6
613.362	507.6	521.2
613.774	510.4	511.6
614.186	512.2	515.4
614.599	520	521.2
615.011	533	527.8
615.423	523	528.2
615.835	506.8	525.4
616.248	500.4	515.8
616.66	519.6	529.4
617.073	511	517.6
617.485	521.6	516.4
617.898	519.2	530.6
618.311	525.6	526.6
618.723	522.6	520.4
619.136	552.6	552.6
619.549	526.6	533
619.962	536	538.8
620.375	515.8	517.6
620.788	528.4	526.2
621.201	523.2	516.6
621.614	529.2	534.2
622.028	523.8	516.2
622.441	529.2	523.4
622.854	534.6	534.4
623.268	520.4	510.2
623.681	522.6	518.6
