#lambda/nm	DC	C1
208.295	465.8	461.2
208.67	432.8	434
209.045	389.6	394.6
209.419	396.6	398.6
209.794	525.8	536
210.169	524	534.8
210.544	653	655
210.919	580.8	579.6
211.295	569.2	572.4
211.67	580.4	576.8
212.045	572.6	569.8
212.421	576.2	575.8
212.796	603.6	606.2
213.172	575	574.4
213.547	590.8	573.8
213.923	579	574.6
214.299	571.2	580.8
214.675	590.6	589.2
215.051	593.6	597.6
215.427	590.2	598
215.803	600	613.6
216.179	604.2	602
216.555	594.2	595.2
216.932	612.2	615.6
217.308	608.2	609.4
217.684	609.4	606.8
218.061	607.4	616.4
218.438	614.4	613.4
218.814	606.4	612.8
219.191	625.8	634.4
219.568	622.6	620.4
219.945	620	615.6
220.322	638.8	623.4
220.699	626.2	636.2
221.076	642.6	638.2
221.453	640.4	641.8
221.83	633.4	628.8
222.208	634.8	634.4
222.585	631.4	639.4
222.962	641.6	644.6
223.34	646	649.4
223.717	652	644.8
224.095	647.2	635.6
224.473	652.2	658.4
224.851	647.6	646.4
225.229	639.4	657.4
225.607	672.8	672.2
225.985	652	663
226.363	658.2	664.2
226.741	667.2	664
227.119	668.4	664.8
227.497	684.8	679.8
227.876	667.6	665.4
228.254	690.6	680.6
228.633	681.6	688.8
229.011	680.4	683
229.39	676.2	691.6
229.769	694	700.6
230.148	685	696.4
230.527	714.6	718.4
230.905	694.8	694.2
231.284	700.6	706.8
231.664	702.6	703.8
232.043	717	724.8
232.422	713.2	718.8
232.801	719.2	712.2
233.181	728.4	731.2
233.56	718	726.2
233.94	739.4	742
234.319	727	726.4
234.699	735.6	743.4
235.079	773.6	780.8
235.458	784.8	792.4
235.838	776.2	783
236.218	761.8	763.8
236.598	757.4	767
236.978	778.4	765.4
237.358	773.6	780
237.738	777.4	787.4
238.119	798	796.4
238.499	779.6	778
238.88	798.4	784.8
239.26	813.2	810.8
239.641	787	799
240.021	798.4	798.8
240.402	807	816.6
240.783	819.8	822
241.163	823.6	809.8
241.544	817.4	825
241.925	817.4	834.8
242.306	840.8	835.6
242.687	818	813.4
243.069	829.2	824
243.45	823.2	828
243.831	811.4	813.2
244.212	801	800.6
244.594	837.6	828.6
244.975	809	802.4
245.357	788.2	794.8
245.739	782.2	782.4
246.12	790	774.4
246.502	777.8	778
246.884	760.2	762.8
247.266	753.4	749.2
247.648	745	746.6
248.03	757.8	762.8
248.412	726.2	732
248.794	718.8	728
249.176	710	714.4
249.559	711.6	715.4
249.941	689.2	695.2
250.323	691.2	683.2
250.706	678	678.4
251.089	673.6	666.2
251.471	665.2	671.2
251.854	664.8	663.6
252.237	650.2	659
252.62	652.4	655.6
253.002	641.2	643.4
253.385	629	648.4
253.769	651.2	650.8
254.152	634	628.4
254.535	621.8	634.6
254.918	621	609.4
255.301	615.8	612.4
255.685	617.4	613.2
256.068	597.4	601.8
256.452	623.8	621.8
256.835	602.8	605.8
257.219	607.2	603.8
257.603	604.4	603.4
257.986	591.2	589.2
258.37	595.2	600.8
258.754	589.2	583.2
259.138	598.8	596.6
259.522	597.2	597.6
259.906	594.6	592.8
260.29	597.6	590.2
260.675	587.2	581.2
261.059	587.6	584.4
261.443	585	572
261.828	595.2	589.6
262.212	598	591.4
262.597	577	581.2
262.981	583.6	580.8
263.366	585.2	583
263.751	584.6	582.2
264.136	578.2	568.8
264.521	578.8	587.8
264.906	576.4	580.2
265.291	590.8	596.2
265.676	580.8	584.4
266.061	591.4	590.2
266.446	588.4	601.4
266.831	585.6	591.6
267.217	594	606.8
267.602	593	589.2
267.987	592.6	587.2
268.373	578	586.8
268.759	590.6	594.2
269.144	584.4	591.6
269.53	588.8	586.2
269.916	586.6	586.2
270.302	581.6	585
270.688	590	592.4
271.074	591	594.2
271.46	595.8	598.4
271.846	610.8	612
272.232	588.2	586.4
272.618	586.2	582.4
273.004	588.4	577.4
273.391	603	608.4
273.777	592	601.4
274.164	600	589.6
274.55	589	595.4
274.937	598.8	588.2
275.324	585.6	587.4
275.71	596	595
276.097	593.8	593.2
276.484	577.2	583.6
276.871	591	585
277.258	590.8	600
277.645	575.8	580.2
278.032	590.2	587.4
278.419	585.2	586.6
278.807	592.4	590.4
279.194	584.4	578.6
279.581	585.4	588.6
279.969	592.6	596.8
280.356	598.8	586.2
280.744	581.6	580.6
281.131	606	604.4
281.519	596	604.4
281.907	591	593.2
282.295	585.8	589.2
282.682	595.4	597
283.07	590.8	588.2
283.458	589.2	595
283.846	596.2	592.6
284.235	597.8	597.2
284.623	599.2	598
285.011	577.6	585
285.399	588.4	588.4
285.788	588.8	590.6
286.176	584.8	579.6
286.565	596.4	594
286.953	577.6	582.8
287.342	584.2	590.8
287.731	588	589
288.119	583.8	584.6
288.508	593.6	588.8
288.897	587.8	587.4
289.286	583.6	576
289.675	591.4	592.6
290.064	600.4	599.6
290.453	589.6	587.6
290.821	593.4	589
291.21	603.6	606.4
291.599	585.6	586.8
291.989	597.2	589.6
292.378	597.8	599
292.768	603.6	607.6
293.157	593.2	592.2
293.547	596	593.2
293.936	595.6	585
294.326	590.4	587.6
294.716	595.8	598
295.106	583.2	590.4
295.496	588	603.6
295.886	601.2	597.4
296.276	592.4	587
296.666	592.8	584
297.056	589.6	590.2
297.446	573.8	588.2
297.836	608	608.2
298.227	582.6	594.2
298.617	595.8	593
299.008	601.4	602.2
299.398	589	589.8
299.789	590.8	589
300.179	597.4	592.8
300.57	602.8	590.8
300.961	587.4	578.6
301.352	590.4	586.2
301.742	607.2	597.2
302.133	593.8	588.8
302.524	592.8	588.4
302.915	595	584.4
303.307	580.4	586.4
303.698	600.2	596.8
304.089	589.2	597.8
304.48	580.2	583.2
304.872	591	603
305.263	577.8	592
305.655	577.4	594.6
306.046	594	594.8
306.438	593.8	594.6
306.829	578.8	581.6
307.221	593.2	606.6
307.613	590.8	595.4
308.005	596.8	597.6
308.397	600	600.8
308.789	609.6	600.4
309.181	595.6	609.6
309.573	600	608.8
309.965	603.6	596.4
310.357	587	579
310.749	597.6	604.4
311.142	580.4	584.2
311.534	587.6	586
311.926	592.6	602.2
312.319	582.2	589.6
312.711	580	588.4
313.104	603.2	606.8
313.497	590.6	585.8
313.889	615.6	625.4
314.282	608.6	604
314.675	611.4	616.2
315.068	600.6	593.8
315.461	597.4	593.4
315.854	620.6	612.4
316.247	597.4	604.6
316.64	589.4	589.4
317.033	585.2	595.2
317.405	596.4	595.2
317.798	588.6	586.6
318.192	589.6	586.2
318.585	583.2	591.4
318.979	592	596
319.372	586.8	581.4
319.766	586.2	592.6
320.16	601.6	605.8
320.553	608.8	599.4
320.947	612.4	616
321.341	589.2	591.6
321.735	588.8	590.2
322.129	576.8	582.2
322.523	617.8	609
322.917	585.4	584.8
323.311	601.8	603.2
323.705	596.4	592.6
324.099	595.6	596.6
324.494	600	594.8
324.888	602.2	597.8
325.282	588.2	583.4
325.677	602.6	610.2
326.071	601	607.6
326.466	598.2	607.6
326.861	584.8	592.2
327.255	608.2	606.4
327.65	595	595.8
328.045	611	601.6
328.44	590	595.6
328.835	597.2	591.6
329.23	578.6	586.6
329.625	605.2	615.2
330.02	584	583.6
330.415	600.4	605.2
330.81	595	600.4
331.206	596.4	596.6
331.601	589	592.2
331.996	602	609.8
332.37	612.2	614.8
332.766	581.2	589
333.161	609.4	604.6
333.557	591.6	584.8
333.953	593.6	595
334.348	923.2	933.4
334.744	593.2	595.6
335.14	591.8	589
335.536	595.4	591.2
335.932	603.8	601.4
336.328	592.4	592.4
336.724	594.4	593
337.12	598.2	582.8
337.516	604.2	588.6
337.913	591.4	591
338.309	594.2	596
338.705	593.6	596.8
339.102	603.8	603.4
339.498	589	585.8
339.895	593	597.8
340.291	595.6	587.6
340.688	605	599.8
341.085	590.4	593.8
341.481	593	589.2
341.878	598.6	589.4
342.275	606.4	608.4
342.672	578.4	591
343.069	590.2	585.8
343.466	578.6	584.6
343.842	610.4	609.4
344.239	586.4	592.6
344.636	600.8	594.8
345.033	586	588.4
345.431	591.6	584.6
345.828	591.8	594
346.225	587.8	586.8
346.623	620.6	613.6
347.02	591.4	596.2
347.418	597	596
347.816	606.6	604.2
348.213	579	591.6
348.611	592	603
349.009	584.8	592.2
349.407	604	602.8
349.805	580.8	585.6
350.203	578.6	583
350.601	596.2	604.8
350.999	586.2	578.2
351.397	629.4	633.8
351.795	594.4	594.8
352.193	594	601.4
352.57	602.8	596.6
352.969	596.6	606
353.367	590	586.6
353.766	587.4	597
354.164	584.6	589.8
354.563	597.2	602.6
354.961	592.4	592.4
355.36	589	593.4
355.759	588.8	589.4
356.158	589	582.8
356.557	586.8	586.8
356.956	588.8	585
357.355	582.8	578.8
357.754	591.8	599.6
358.153	597.2	592
358.552	610.8	608.4
358.951	587.4	590.8
359.35	609.6	599
359.75	592.6	586.8
360.149	587.6	585.8
360.527	576	579.2
360.926	588.4	582
361.326	592.6	597.2
361.726	595	589.6
362.125	585.8	584.2
362.525	590.8	595.4
362.925	584.8	584.6
363.325	585	594.8
363.724	588	591.2
364.124	584.2	593.8
364.524	590.6	590.4
364.924	589.8	591
365.324	597.2	609.4
365.725	584.8	581.4
366.125	592.8	592
366.525	582.4	592.8
366.904	589.4	587.8
367.304	576.6	588
367.705	609.6	608
368.105	598.8	601.2
368.506	589.8	590.8
368.906	594	588.6
369.307	588.8	592.8
369.708	592	602
370.108	586.4	583.2
370.509	603	605.2
370.91	595	588.4
371.311	597.4	595.4
371.712	596.8	596.6
372.113	596	602.8
372.514	585	591.2
372.894	583.4	592
373.295	583.8	593.4
373.696	606.2	600.4
374.097	591.2	612.6
374.499	624.8	629.2
374.9	602.6	596.2
375.301	582.2	588.8
375.703	605.8	598.4
376.105	592	592
376.506	602.2	610.8
376.908	609.2	599.2
377.309	599	593.2
377.711	594.8	598.6
378.113	596.4	589.8
378.493	608.2	603.8
378.895	597.8	595.6
379.297	598.4	607.8
379.699	583.8	588
380.102	595.4	603.2
380.504	598.6	590.4
380.906	595	598
381.308	620.6	621.2
381.71	598.8	606.8
382.113	603.6	611.2
382.515	600.4	603.4
382.918	603.2	607.2
383.299	603.4	597.4
383.701	609.2	610
384.104	599.6	604.6
384.507	585.4	597.2
384.909	599	605
385.312	587.8	594.8
385.715	586	591.6
386.118	594.8	604
386.521	591.4	590
386.924	616.6	611.4
387.327	600	595.6
387.709	599	586.2
388.112	588.2	588.2
388.515	598.8	606.6
388.918	598.8	597.8
389.322	603.8	610.2
389.725	603.2	599.8
390.129	624	620.2
390.532	608.2	609.2
390.936	607.2	602.4
391.339	603.4	604.6
391.743	610.8	599.6
392.125	601.6	599.6
392.529	616	615
392.933	620.6	622.4
393.337	601.8	605.4
393.74	607.4	604.2
394.144	612	608
394.548	606	598
394.953	607.6	613.4
395.357	612.6	612.2
395.761	608	606.2
396.144	615.8	611.2
396.548	605	600.2
396.952	616.4	605.2
397.357	608.8	610.8
397.761	607.2	607.6
398.166	614.8	608.6
398.57	617.2	617.6
398.975	600.2	597
399.379	622.2	619
399.763	664.8	660.2
400.168	610.4	622.4
400.572	606.6	622
400.977	614.6	619.2
401.382	628.6	628.8
401.787	622.6	624.8
402.192	640.6	640
402.597	638.6	640
403.002	617.4	614.6
403.386	637.6	649.2
403.791	645	652.6
404.197	639.6	636.6
404.602	639.2	652
405.007	649.2	654.2
405.413	651.2	651.8
405.818	654.2	659.8
406.224	656.6	660.2
406.608	672	667.2
407.014	669.8	666.8
407.42	692.8	700
407.825	692.2	701.4
408.231	716.8	712
408.637	710.8	714.2
409.043	743.6	733.4
409.449	741.4	731.8
409.834	743.2	752.8
410.24	781.2	778.6
410.646	798.4	786.8
411.052	807.4	811.6
411.458	830.6	837.2
411.865	841	861.6
412.271	880.8	890.6
412.677	897.4	893.8
413.062	934.4	924.4
413.469	928.8	948.8
413.875	993.2	995
414.282	1009.8	1010.4
414.689	1053.2	1053.6
415.095	1088.6	1103
415.502	1119.4	1115.8
415.888	1168.4	1158.4
416.294	1196	1194.4
416.701	1288.6	1296.6
417.108	1296.2	1296
417.515	1361.4	1363.4
417.923	1419.6	1432.4
418.33	1485.6	1481.4
418.715	1542.8	1546.2
419.123	1609.6	1622.6
419.53	1671.8	1688.2
419.937	1759.8	1755.4
420.345	1819.6	1855.2
420.752	1876.2	1910
421.16	1998.2	1996.6
421.546	2059.2	2083.2
421.953	2173.8	2178.8
422.361	2282.8	2266
422.769	2377.6	2382.8
423.177	2474.2	2488
423.585	2620.2	2628.6
423.992	2764.6	2764.8
424.379	2850.6	2860.6
424.787	3022.6	3016.6
425.195	3137.6	3147
425.603	3294.6	3303.4
426.011	3454.2	3459.8
426.419	3639.4	3667.6
426.806	3817	3833.8
427.214	3994.6	3981.4
427.623	4202.4	4236.4
428.031	4404	4473.2
428.44	4643.4	4644.6
428.848	4872.4	4894
429.235	5159.4	5196.8
429.644	5408.6	5417.8
430.053	5642	5685.2
430.461	5969.4	6036.6
430.87	6293.8	6361
431.279	6530.4	6632.8
431.666	6873.2	6983
432.075	7184	7283.6
432.484	7550.6	7706.2
432.893	7895.2	8091.6
433.302	8316.8	8481.4
433.711	8716.2	8916.2
434.099	9129.8	9294
434.508	9538.2	9782.4
434.918	9957.4	10258
435.327	10470.8	10750.2
435.737	10959.4	11192.4
436.125	11474.8	11716
436.534	11962	12306.4
436.944	12514	12922.8
437.353	13107	13434.4
437.763	13657.6	14073.2
438.173	14204	14685.2
438.561	14897.2	15291.2
438.971	15514.6	15900.6
439.381	16197.6	16695.2
439.791	16913	17385.4
440.201	17615.2	18125.4
440.589	18309.2	18877
440.999	19117.6	19692.8
441.409	20023.4	20535.6
441.819	20852.6	21446.6
442.23	21754.4	22361
442.619	22739.6	23400.4
443.029	23686.8	24349.8
443.439	24791.8	25436.2
443.85	25885.8	26539.6
444.26	27109.8	27677
444.649	28289.8	29046.6
445.06	29612	30324.4
445.471	30989.2	31682.8
445.881	32334.4	33040.2
446.292	33916.8	34672.8
446.682	35325.6	36119.2
447.092	36983.6	37732.4
447.503	38659	39487.2
447.914	40287.4	41025.6
448.325	41921.2	42820.2
448.715	43581.6	44507.8
449.126	45363.4	46083
449.537	46993.2	47937.4
449.948	48486.6	49497.4
450.338	50184.2	50969.6
450.75	51777.8	52648.4
451.161	53133.4	54072.2
451.572	54456.4	55455.2
451.984	55646.4	56536
452.374	56611.4	57531.2
452.786	57491.2	58361.6
453.197	58328.6	59135.8
453.609	58616.4	59584
453.999	59077.4	59872.6
454.411	58998.8	59815.6
454.823	58905.2	59853
455.235	58621.6	59628.2
455.647	58238.6	59217.6
456.037	57480	58467.6
456.449	56709.2	57669
456.862	55742.4	56776.8
457.274	54652.8	55566.6
457.665	53410.6	54487.8
458.077	52234.2	53105.6
458.489	50933.2	51895.4
458.902	49422	50365.6
459.293	48045.4	49025
459.705	46635.8	47493.6
460.118	45248.2	46109.2
460.53	43944.4	44807.4
460.921	42539.8	43507.6
461.334	41320.2	42323.4
461.747	40195.6	41079.4
462.16	39142.4	39973
462.551	38068.2	38998.2
462.964	37071.6	38006.6
463.377	36258.8	37063.4
463.79	35460.2	36258
464.182	34710.2	35610
464.595	34039.2	34817.2
465.008	33337	34226.6
465.421	32762.2	33602.4
465.813	32224	33069
466.226	31717.6	32587
466.64	31162.8	32070.4
467.053	30758.2	31684
467.445	30344.4	31093.6
467.859	29810	30626.6
468.272	29333.8	30124.4
468.686	28807.8	29686.4
469.078	28329.2	29224
469.492	27821.2	28645.2
469.906	27263.6	28170.2
470.298	26791	27666.8
470.712	26250.4	27004.2
471.126	25737.8	26491.4
471.54	25156.6	25975.8
471.933	24608.6	25322.8
472.347	23992	24781.2
472.761	23487	24255.2
473.175	22840.6	23780.6
473.568	22390.8	23170.8
473.982	21881.8	22619.8
474.397	21293.4	22044.2
474.79	20809.6	21541.4
475.204	20280	21139.8
475.619	19902.4	20630.4
476.033	19468.2	20224.2
476.426	19086.8	19796.8
476.841	18734.6	19412
477.256	18310.6	19128
477.649	18050.4	18746.2
478.064	17778.4	18469
478.479	17484.4	18263.2
478.872	17255.6	18018.2
479.287	17106	17840.8
479.702	16965	17715.8
480.118	16866	17613.2
480.511	16773.2	17502.4
480.927	16673.6	17352
481.342	16612.4	17342
481.736	16606.6	17381.8
482.151	16563.4	17324.4
482.566	16621.8	17322.4
482.96	16612.2	17307.2
483.376	16644.6	17389.8
483.792	16699.4	17421
484.186	16804.2	17396.8
484.602	16860.4	17502.4
485.017	16932.2	17589.8
485.412	16984.4	17670.8
485.827	17053.2	17718.6
486.243	17143	17849.4
486.638	17243.8	18019.6
487.054	17414.8	18091.4
487.47	17492.2	18207.6
487.865	17664.4	18293.8
488.281	17833	18469.6
488.697	17915.8	18561.4
489.092	18098.8	18729.2
489.508	18216.2	18934.4
489.925	18405.4	19122.2
490.32	18672	19254.8
490.736	18823	19485.6
491.153	19034	19703
491.548	19263.6	19887.2
491.964	19536.4	20152.8
492.381	19705.2	20309
492.776	19962	20585.2
493.193	20234.6	20875.4
493.61	20481.2	21145.2
494.006	20826.6	21475.4
494.422	21149.2	21724.2
494.84	21407	22079.2
495.235	21696.4	22335.4
495.652	22101	22665
496.069	22404.4	23108.2
496.465	22747.4	23377
496.883	23144.6	23713.8
497.3	23522.6	24158.4
497.696	23761	24462
498.113	24279.6	24871.8
498.509	24534.2	25220.4
498.927	24975.4	25562.6
499.344	25311.2	25938.6
499.741	25686	26305.2
500.158	26072.8	26648.6
500.576	26527	27030.4
500.973	26792	27430.8
501.39	27274.4	27766.6
501.787	27578.4	28131.4
502.205	27954.4	28576
502.623	28340	28904.2
503.02	28677	29320
503.438	29055	29642.8
503.856	29479	30014.6
504.253	29786.6	30371.6
504.671	30142	30673.2
505.068	30458.8	31051.4
505.486	30854	31395.8
505.905	31258	31769.6
506.302	31562.2	32125.4
506.72	31913.2	32412.6
507.118	32247.8	32803
507.536	32553.4	33115
507.955	32984.2	33542.4
508.352	33268.4	33730.2
508.771	33535.8	33999
509.169	33918.2	34350.8
509.587	34244	34773.8
510.006	34563.2	34995.6
510.404	34899.8	35321.8
510.823	35203	35633.4
511.221	35410.2	36005.6
511.64	35723.6	36239.8
512.038	36075.2	36603.4
512.457	36281.2	36863.4
512.877	36655.4	37103.2
513.275	36979	37332
513.694	37188.6	37637
514.092	37538.2	38026.2
514.512	37763.6	38253.6
514.91	37972.4	38535.2
515.33	38244.6	38833.2
515.749	38525	39045.2
516.148	38796	39266.6
516.568	39057.2	39557.6
516.966	39376.8	39869
517.386	39664.2	40106
517.785	39858.4	40324.6
518.205	40156.8	40630.6
518.603	40388	40897
519.024	40589	41027.8
519.444	40842.8	41306
519.843	41228	41607.8
520.263	41377.2	41851
520.662	41550	41991.8
521.082	41922.4	42310.6
521.481	42072.6	42549.8
521.902	42261.8	42719.4
522.301	42491.2	42962.8
522.722	42714.8	43167.6
523.121	42946.8	43311.6
523.542	43193.6	43701.8
523.963	43327	43800
524.362	43563.8	44093
524.783	43697.4	44038
525.183	43991.2	44358.8
525.604	44122.8	44514.6
526.003	44336.2	44762
526.425	44350.8	44753.4
526.824	44612	45103.4
527.246	44788.6	45295.4
527.646	44981.6	45412.6
528.067	45184.6	45609
528.467	45388.6	45690.8
528.888	45480.6	45879.4
529.289	45661.4	46086
529.71	45779.4	46198.8
530.11	45954	46402.2
530.532	46112.2	46481.4
530.932	46301.4	46771.4
531.354	46471.4	46878.8
531.755	46772.4	47073.6
532.176	46707.6	47258.6
532.577	47018	47466.8
532.999	47308.6	47658.2
533.4	47454.6	47857.4
533.822	47614.4	48090.8
534.223	47836.8	48262.8
534.645	48039	48437.8
535.046	48263.6	48604
535.468	48483.8	48873
535.869	48656.2	49057
536.292	48758	49265
536.693	49140.6	49527.8
537.115	49310.4	49649.2
537.516	49501.6	49960.2
537.939	49750.8	50015.8
538.34	49925.6	50369
538.742	50119	50528.2
539.165	50310.4	50771.8
539.566	50470	50910.2
539.989	50742	51101
540.391	50948.2	51300.2
540.814	51131.2	51522.6
541.216	51314.4	51750.6
541.639	51549.8	51742.8
542.041	51633.8	52192.4
542.464	51921.8	52217.4
542.866	52079.4	52511.6
543.268	52251.8	52668.6
543.691	52472	52820.4
544.093	52695	52956
544.517	52878.4	53216.4
544.919	52925	53385.8
545.343	53168.8	53549.4
545.745	53264	53685.6
546.147	53458.2	53873.4
546.571	53704	54031
546.974	53787.4	54134
547.398	53943.8	54338.4
547.8	54256	54584.8
548.224	54319.4	54758.6
548.627	54581.4	54991.8
549.03	54730	55050.2
549.454	54904.2	55313
549.857	55151.8	55451.2
550.281	55272.2	55669
550.684	55461.6	55803.4
551.087	55579.6	56054
551.512	55679.4	56177.2
551.915	55838.8	56297.8
552.34	56006.6	56427.2
552.743	56199	56556.8
553.146	56266.8	56716.4
553.571	56510	56965
553.975	56817	57024.2
554.399	56969	57208.4
554.803	57180.2	57674.2
555.207	57310.8	57715.6
555.632	57487.2	57821
556.036	57629.8	58128
556.461	57814	58257.4
556.865	57983	58360
557.268	58130.6	58434.4
557.694	58407	58806
558.098	58501	58880.8
558.502	58727.4	59129.2
558.927	58985.8	59324.6
559.332	59137.6	59582.6
559.736	59358.8	59685.2
560.162	59574.4	59866.2
560.566	59719	60198.4
560.992	59931.2	60255.4
561.396	60269	60528.6
561.801	60423.8	60725
562.227	60524.2	60823.8
562.631	60745	61135.6
563.036	60911.4	61269.6
563.462	61123	61521.2
563.867	61338.2	61763
564.272	61560.8	61951.2
564.698	61771.8	62229.4
565.103	61974	62274.6
565.508	62198.8	62620.8
565.935	62403.4	62805.4
566.34	62637.4	63043
566.745	62875.6	63136.4
567.172	63086	63352.4
567.577	63306.2	63558.6
567.982	63478.4	63856.8
568.409	63693.8	63922.8
568.815	63887.8	64206.8
569.22	63853.4	64218.2
569.626	64193.4	64584.8
570.053	64386.2	64744.2
570.459	64585.6	65029.4
570.865	64804	65122
571.292	64929.8	65264.8
571.698	65028.4	65599
572.104	65272	65610.6
572.531	65539.8	65925.4
572.937	65626	65993.2
573.343	65854.2	66227.2
573.75	65988.6	66334
574.177	66189.2	66493
574.583	66339	66678.6
574.99	66444.2	66823.8
575.396	66817.2	67036.4
575.824	66807	67206.2
576.231	67081	67427
576.637	67032.4	67356
577.065	67362.2	67834.6
577.472	67372	67731.2
577.879	67742.6	68007.2
578.286	67794.4	68165.6
578.714	67775.8	68126.4
579.121	67920.4	68192.2
579.528	68192.2	68641.2
579.935	68360.6	68580.4
580.364	68256.4	68460
580.771	68560.4	68898.2
581.178	68732	69078.4
581.585	68673.4	69209
582.014	68648.4	68940.8
582.421	69054	69382.2
582.829	69145.6	69422.6
583.236	68934	69100.8
583.644	69463.4	69708.8
584.073	69194.2	69622.6
584.481	69387	69818.6
584.889	69663.4	70001.4
585.296	69259.2	69577.2
585.726	69670.4	69868
586.134	69418.2	69646.4
586.542	69866.8	70157
586.95	69823	70231.8
587.358	69621.8	69919.2
587.787	69471.2	69771.6
588.196	69316.8	69499
588.604	69838.2	70130.2
589.012	70006	70308.6
589.421	69740.8	70044.2
589.851	70160	70436.8
590.259	70060.4	70437.8
590.668	70122	70329.8
591.076	69792.6	70220.8
