#lambda/nm	C1
208.295	467
208.67	434.6
209.045	400
209.419	402.6
209.794	538
210.169	525
210.544	629.8
210.919	536.2
211.295	537
211.67	530.8
212.045	531.6
212.421	535
212.796	561.2
213.172	535.6
213.547	539.2
213.923	537.4
214.299	530.2
214.675	545.4
215.051	534.8
215.427	547.8
215.803	555.2
216.179	539.8
216.555	528.6
216.932	541
217.308	541.6
217.684	536.6
218.061	539.8
218.438	538.8
218.814	529.4
219.191	535
219.568	522.6
219.945	532.4
220.322	543
220.699	534.2
221.076	546.8
221.453	531.6
221.83	529.2
222.208	529.4
222.585	528.2
222.962	529
223.34	532.2
223.717	540.8
224.095	527.6
224.473	543.6
224.851	532.8
225.229	526
225.607	545.4
225.985	528.2
226.363	533.4
226.741	528
227.119	535.6
227.497	540.6
227.876	527.4
228.254	543.8
228.633	540
229.011	534
229.39	536
229.769	544.4
230.148	540.8
230.527	554.4
230.905	540.8
231.284	532.6
231.664	535.2
232.043	543
232.422	541.4
232.801	531.8
233.181	537.4
233.56	536.4
233.94	540.2
234.319	525.6
234.699	536.6
235.079	565
235.458	568.2
235.838	546.4
236.218	533.6
236.598	525.4
236.978	525
237.358	532
237.738	528.4
238.119	544
238.499	526.8
238.88	532.2
239.26	553.6
239.641	526.6
240.021	526.2
240.402	532
240.783	531.6
241.163	537.6
241.544	536.2
241.925	525.2
242.306	550.6
242.687	533.2
243.069	543
243.45	547.2
243.831	531.6
244.212	529
244.594	553.2
244.975	543
245.357	531.6
245.739	530
246.12	536.8
246.502	548.6
246.884	540.4
247.266	530.8
247.648	541.8
248.03	553
248.412	540
248.794	542
249.176	527.8
249.559	544.2
249.941	529.4
250.323	528.8
250.706	531.4
251.089	533
251.471	541.2
251.854	538.6
252.237	531.4
252.62	543.2
253.002	538.6
253.385	531
253.769	541.4
254.152	533.4
254.535	534.4
254.918	529.4
255.301	532.6
255.685	532.6
256.068	531.8
256.452	550.6
256.835	541.2
257.219	536.2
257.603	547.4
257.986	521.4
258.37	532.6
258.754	527.2
259.138	539.4
259.522	535.2
259.906	533.4
260.29	537.6
260.675	541.4
261.059	525.8
261.443	523.8
261.828	538.4
262.212	536
262.597	525.8
262.981	528.8
263.366	535.4
263.751	532.6
264.136	524.2
264.521	525.4
264.906	533
265.291	538.2
265.676	528.6
266.061	544
266.446	554.8
266.831	537
267.217	557.8
267.602	544
267.987	540
268.373	529.4
268.759	546.2
269.144	537
269.53	541.4
269.916	539.2
270.302	538.4
270.688	539.6
271.074	538.2
271.46	542.2
271.846	560.8
272.232	530.4
272.618	532
273.004	536.2
273.391	549.8
273.777	555.4
274.164	541.6
274.55	546.2
274.937	529.6
275.324	535.2
275.71	540.8
276.097	546.8
276.484	528.2
276.871	543.6
277.258	544.8
277.645	526.8
278.032	525
278.419	530.2
278.807	539.2
279.194	530.6
279.581	529
279.969	537
280.356	537.8
280.744	539.8
281.131	557.6
281.519	550
281.907	526.6
282.295	532.2
282.682	536.8
283.07	536.6
283.458	553.6
283.846	550.2
284.235	533.6
284.623	534.8
285.011	529
285.399	543.4
285.788	531.8
286.176	522.6
286.565	544
286.953	539.6
287.342	537
287.731	530.2
288.119	532.8
288.508	537.2
288.897	535
289.286	528.8
289.675	534.6
290.064	545.2
290.453	532.4
290.821	533.2
291.21	552.8
291.599	537.8
291.989	540.6
292.378	540.2
292.768	554.2
293.157	538.2
293.547	544.8
293.936	530.8
294.326	533.2
294.716	532.4
295.106	533
295.496	541.6
295.886	541.8
296.276	540.8
296.666	539.4
297.056	526.2
297.446	520.6
297.836	544.8
298.227	532.8
298.617	533.8
299.008	539.6
299.398	528
299.789	527.4
300.179	536
300.57	540.2
300.961	532.4
301.352	525
301.742	541.6
302.133	525
302.524	528.6
302.915	529.6
303.307	537.4
303.698	541
304.089	538.6
304.48	534.4
304.872	542
305.263	534
305.655	531.6
306.046	544
306.438	545.4
306.829	537.2
307.221	547.8
307.613	545.2
308.005	537.4
308.397	541
308.789	554.4
309.181	553
309.573	551.4
309.965	547.4
310.357	534.4
310.749	548.8
311.142	538.8
311.534	525.8
311.926	539.2
312.319	540.4
312.711	523.8
313.104	545.6
313.497	528.4
313.889	573.6
314.282	548.6
314.675	558.2
315.068	532.6
315.461	538.8
315.854	565.8
316.247	535.8
316.64	529.6
317.033	540
317.405	540.6
317.798	535.2
318.192	535.6
318.585	525.4
318.979	541.4
319.372	527.8
319.766	534.4
320.16	540.4
320.553	543.8
320.947	546.8
321.341	526.8
321.735	533.8
322.129	530.8
322.523	554.6
322.917	530.2
323.311	539
323.705	536.2
324.099	534.6
324.494	545
324.888	547
325.282	532.8
325.677	550.4
326.071	540.8
326.466	543.2
326.861	535.4
327.255	541
327.65	545
328.045	547.6
328.44	537.8
328.835	540.6
329.23	530.2
329.625	548.6
330.02	530
330.415	553.8
330.81	531
331.206	539.2
331.601	528.2
331.996	546
332.37	546.4
332.766	520
333.161	548.6
333.557	527.8
333.953	535.6
334.348	716.2
334.744	537.6
335.14	531.8
335.536	532.2
335.932	548.6
336.328	530.2
336.724	546.4
337.12	533
337.516	538.2
337.913	540.2
338.309	545.2
338.705	535.8
339.102	536.6
339.498	526
339.895	546.6
340.291	525.6
340.688	541.6
341.085	524
341.481	538.2
341.878	531.2
342.275	551.6
342.672	527.4
343.069	529
343.466	531.2
343.842	541.2
344.239	523.2
344.636	532.2
345.033	526
345.431	529
345.828	535.6
346.225	526.6
346.623	563
347.02	530
347.418	544
347.816	543.6
348.213	531.2
348.611	536
349.009	532.6
349.407	541.6
349.805	527.8
350.203	530.2
350.601	548
350.999	530.4
351.397	571.2
351.795	524.2
352.193	535.6
352.57	541.6
352.969	535.8
353.367	524.4
353.766	526
354.164	531.4
354.563	526.4
354.961	527.2
355.36	527.2
355.759	537.8
356.158	523.2
356.557	521.4
356.956	527.8
357.355	520.8
357.754	532.2
358.153	533.6
358.552	543.8
358.951	529.6
359.35	538
359.75	525.4
360.149	515.4
360.527	512
360.926	522.2
361.326	530
361.726	530.6
362.125	522.2
362.525	538.2
362.925	528.4
363.325	529.6
363.724	530.8
364.124	519.2
364.524	521.6
364.924	523.2
365.324	540.8
365.725	516.8
366.125	525.4
366.525	532.6
366.904	519.8
367.304	520.6
367.705	539.6
368.105	543.8
368.506	528.8
368.906	534.6
369.307	532.8
369.708	546.8
370.108	523.2
370.509	534
370.91	523
371.311	531
371.712	528.4
372.113	524.4
372.514	521
372.894	536.6
373.295	527.6
373.696	535.8
374.097	531.4
374.499	552.6
374.9	526.8
375.301	525.6
375.703	532.6
376.105	517
376.506	529
376.908	532
377.309	528.4
377.711	525.8
378.113	527.8
378.493	524.8
378.895	523.4
379.297	537.2
379.699	519.8
380.102	528.8
380.504	526.8
380.906	529.4
381.308	547.6
381.71	529.6
382.113	533.8
382.515	531
382.918	530.4
383.299	523
383.701	536.2
384.104	523.8
384.507	512.4
384.909	523.8
385.312	525.8
385.715	524
386.118	529.6
386.521	515
386.924	537.2
387.327	530
387.709	512.2
388.112	520
388.515	528.8
388.918	527.6
389.322	532.6
389.725	521.8
390.129	544.8
390.532	536.4
390.936	531.6
391.339	522.4
391.743	529.2
392.125	528.6
392.529	535
392.933	532.4
393.337	524.2
393.74	529.2
394.144	527.8
394.548	524
394.953	530
395.357	534.2
395.761	532.2
396.144	525.4
396.548	526.4
396.952	521
397.357	526.8
397.761	525.4
398.166	529.4
398.57	532.2
398.975	517.2
399.379	525
399.763	566.8
400.168	528
400.572	523.6
400.977	522.4
401.382	539.2
401.787	538.4
402.192	540
402.597	544.2
403.002	508.8
403.386	535
403.791	540.6
404.197	524.4
404.602	530.6
405.007	526
405.413	514.4
405.818	531.2
406.224	515.2
406.608	526.8
407.014	521.2
407.42	540
407.825	526
408.231	536.2
408.637	530.6
409.043	536.2
409.449	520.4
409.834	524.8
410.24	529.2
410.646	536.8
411.052	539.8
411.458	525.8
411.865	538
412.271	531.8
412.677	526.8
413.062	533.8
413.469	518.8
413.875	550.8
414.282	538.2
414.689	533.6
415.095	531.8
415.502	526.2
415.888	531
416.294	516.2
416.701	558
417.108	519.2
417.515	535.4
417.923	531.8
418.33	543.6
418.715	523.4
419.123	527.8
419.53	530
419.937	528
420.345	540.4
420.752	523
421.16	530.8
421.546	532
421.953	528.4
422.361	521.2
422.769	536.2
423.177	520.2
423.585	551.8
423.992	544.4
424.379	532.8
424.787	542.4
425.195	546.8
425.603	528.6
426.011	539.6
426.419	536.4
426.806	534.6
427.214	529.6
427.623	542.2
428.031	544.8
428.44	540
428.848	555.2
429.235	556
429.644	545.2
430.053	554
430.461	565.6
430.87	574.6
431.279	577.6
431.666	583.8
432.075	580.8
432.484	599.4
432.893	608.8
433.302	622.4
433.711	668.8
434.099	643.2
434.508	657.4
434.918	654.4
435.327	684.6
435.737	705.8
436.125	708.6
436.534	729.6
436.944	747.8
437.353	767.4
437.763	790
438.173	781.6
438.561	810
438.971	811.6
439.381	822
439.791	838.6
440.201	846.2
440.589	866
440.999	890.2
441.409	888.4
441.819	884.6
442.23	927.8
442.619	911.8
443.029	938
443.439	940.4
443.85	953.8
444.26	962.4
444.649	964.8
445.06	973.4
445.471	958.2
445.881	988.8
446.292	1010.2
446.682	1011.6
447.092	1007.2
447.503	1052.6
447.914	1016.4
448.325	1018.2
448.715	1021.4
449.126	1023
449.537	1012.8
449.948	1028.8
450.338	1031.4
450.75	1032
451.161	1036.4
451.572	1049
451.984	1049
452.374	1030.8
452.786	1045.2
453.197	1069.6
453.609	1057.4
453.999	1056.6
454.411	1053.4
454.823	1071
455.235	1050.8
455.647	1054.2
456.037	1056.8
456.449	1066
456.862	1056.6
457.274	1055.4
457.665	1064
458.077	1063.8
458.489	1086.6
458.902	1071.4
459.293	1075.6
459.705	1065
460.118	1070.8
460.53	1059.4
460.921	1069.6
461.334	1077.8
461.747	1074.2
462.16	1064.8
462.551	1076.6
462.964	1085.4
463.377	1064.6
463.79	1067
464.182	1070.6
464.595	1061.2
465.008	1078.8
465.421	1076.6
465.813	1076.8
466.226	1073.4
466.64	1063.6
467.053	1093.6
467.445	1062
467.859	1074.2
468.272	1078.8
468.686	1098.2
469.078	1070.4
469.492	1067.6
469.906	1073.6
470.298	1075
470.712	1066.6
471.126	1088.6
471.54	1053.2
471.933	1067
472.347	1063.8
472.761	1060.2
473.175	1057.2
473.568	1059.2
473.982	1051.4
474.397	1065.8
474.79	1060.8
475.204	1052.2
475.619	1033.8
476.033	1059.6
476.426	1044
476.841	1035.4
477.256	1050.4
477.649	1032.4
478.064	1017.4
478.479	1025.2
478.872	1016.4
479.287	1010.2
479.702	1013.6
480.118	1008.6
480.511	1016.4
480.927	1010.8
481.342	1007.6
481.736	1015
482.151	996.4
482.566	1005.6
482.96	1003.6
483.376	1000.8
483.792	991.8
484.186	996.2
484.602	985.8
485.017	993.4
485.412	995.4
485.827	982.4
486.243	982
486.638	988.6
487.054	973.8
487.47	981
487.865	969.2
488.281	970.8
488.697	954.6
489.092	958
489.508	943.4
489.925	951.8
490.32	940.2
490.736	952.4
491.153	944.4
491.548	930.2
491.964	927.8
492.381	921.4
492.776	930.6
493.193	916.4
493.61	920
494.006	913.4
494.422	916.4
494.84	915.2
495.235	919
495.652	913.8
496.069	904
496.465	891.2
496.883	902.2
497.3	909.8
497.696	890.4
498.113	886.4
498.509	877.2
498.927	869.6
499.344	875.2
499.741	862.6
500.158	869.4
500.576	883.2
500.973	869.4
501.39	847
501.787	851.6
502.205	849.4
502.623	847
503.02	835.2
503.438	833.8
503.856	841
504.253	836.8
504.671	838.6
505.068	828.2
505.486	822.4
505.905	835.6
506.302	825.4
506.72	823.2
507.118	810.4
507.536	803.4
507.955	810
508.352	807
508.771	808.2
509.169	805.6
509.587	799.6
510.006	797.6
510.404	779
510.823	793.2
511.221	793.2
511.64	782.8
512.038	793.6
512.457	779.2
512.877	770.4
513.275	760
513.694	767.4
514.092	772.2
514.512	758.6
514.91	765.6
515.33	761
515.749	750.4
516.148	760.2
516.568	763.6
516.966	747.8
517.386	746.2
517.785	744.6
518.205	737.6
518.603	729
519.024	734.2
519.444	737.2
519.843	733
520.263	738
520.662	728
521.082	727.6
521.481	719
521.902	724
522.301	723
522.722	720.8
523.121	722.8
523.542	707.2
523.963	701.2
524.362	700.6
524.783	705
525.183	697.6
525.604	694
526.003	695.2
526.425	693
526.824	691.4
527.246	689.8
527.646	701.6
528.067	693.4
528.467	684.2
528.888	687.6
529.289	667.6
529.71	681
530.11	671.8
530.532	669
530.932	665.2
531.354	662.8
531.755	698
532.176	671
532.577	659.8
532.999	661.6
533.4	662
533.822	663.4
534.223	655
534.645	653.2
535.046	656.2
535.468	652.6
535.869	662.2
536.292	641.4
536.693	670.6
537.115	652.6
537.516	644.4
537.939	632
538.34	651.6
538.742	649.8
539.165	641
539.566	642
539.989	631.6
540.391	630.2
540.814	639.2
541.216	639.8
541.639	636
542.041	645.8
542.464	626.8
542.866	624.2
543.268	625.6
543.691	632.2
544.093	638.6
544.517	633.2
544.919	618.2
545.343	645.6
545.745	613.8
546.147	619
546.571	614
546.974	609.6
547.398	610.4
547.8	625.8
548.224	622.4
548.627	615.2
549.03	619.2
549.454	598.8
549.857	599.8
550.281	603.6
550.684	601.2
551.087	614
551.512	606.4
551.915	612.8
552.34	590.8
552.743	592.6
553.146	593
553.571	596.2
553.975	605.4
554.399	592
554.803	635.6
555.207	586
555.632	584.6
556.036	600.2
556.461	580.4
556.865	591.8
557.268	586.6
557.694	585
558.098	597
558.502	588.4
558.927	589.4
559.332	584.4
559.736	580.2
560.162	584.4
560.566	583.8
560.992	587.4
561.396	584.8
561.801	578.6
562.227	574.4
562.631	582.2
563.036	575.4
563.462	579.6
563.867	578.8
564.272	568
564.698	576.2
565.103	563.4
565.508	584.6
565.935	570.4
566.34	565.2
566.745	577.4
567.172	570.4
567.577	580.6
567.982	575.2
568.409	571.2
568.815	560.4
569.22	562.8
569.626	576.8
570.053	550.8
570.459	564.2
570.865	564.2
571.292	571.2
571.698	561
572.104	552.8
572.531	564
572.937	573.2
573.343	560.6
573.75	559.6
574.177	562.6
574.583	558.2
574.99	561.8
575.396	562.8
575.824	560.4
576.231	561.2
576.637	550.8
577.065	581.2
577.472	544
577.879	553.6
578.286	560.4
578.714	549.6
579.121	546
579.528	551.8
579.935	563.2
580.364	549.4
580.771	541.6
581.178	546.8
581.585	557.8
582.014	556
582.421	548.6
582.829	540.6
583.236	557.6
583.644	542.6
584.073	543
584.481	550.4
584.889	540.2
585.296	543.4
585.726	537.2
586.134	533.2
586.542	543.4
586.95	550.8
587.358	540.4
587.787	546
588.196	536.2
588.604	533.8
589.012	541.6
589.421	533
589.851	529
590.259	541.6
590.668	526.8
591.076	563.4
591.485	537.8
591.894	537.6
592.324	537
592.733	544.2
593.142	527.6
593.551	537
593.96	537.8
594.369	529.2
594.8	535.6
595.209	532.2
595.618	523.8
596.028	534.2
596.437	537.6
596.847	530.8
597.256	532.8
597.687	532.4
598.097	528.4
598.507	521.8
598.917	529.6
599.327	536.6
599.736	525.6
600.146	538
600.556	522.6
600.988	541.2
601.398	529.2
601.808	535.4
602.219	519.8
602.629	532.8
603.039	531.8
603.45	545.8
603.86	532.6
604.271	548.8
604.703	532.2
605.114	535.4
605.525	530.4
605.935	534.6
606.346	548.4
606.757	535.2
607.168	530.8
607.579	523.8
607.99	538
608.402	530.4
608.813	538.2
609.224	523.8
609.636	521.6
610.047	520.2
610.48	526.4
610.892	537.8
611.303	538.6
611.715	526.8
612.127	527.2
612.539	526.2
612.95	533.6
613.362	524.6
613.774	517.4
614.186	523.8
614.599	520.8
615.011	537.4
615.423	535.2
615.835	530.6
616.248	522.4
616.66	541.2
617.073	521.6
617.485	529.4
617.898	534
618.311	532.4
618.723	532.6
619.136	551.4
619.549	548
619.962	549.4
620.375	529.2
620.788	529.4
621.201	529.2
621.614	531.8
622.028	529.4
622.441	540.6
622.854	551.4
623.268	524.8
623.681	539
624.095	531.6
624.509	537
624.922	536.8
625.336	531
625.728	537
626.142	546
626.556	548.2
626.97	533.2
627.384	531.6
627.799	534
628.213	538.8
628.627	529.4
629.041	525
629.456	522.4
629.87	534.6
630.285	534.4
630.699	539.4
631.093	529.8
631.507	537.8
631.922	528.8
632.337	540.6
632.752	519.2
633.167	530.4
633.582	537.4
633.997	522.8
634.412	523.4
634.806	528.4
635.221	521.6
635.637	532.2
636.052	524.6
636.468	525.4
636.883	542.4
637.299	527.8
637.715	510.4
638.109	522.8
638.525	514.8
638.941	540.2
639.357	528
639.773	538.6
640.189	523
640.584	527
641	521.2
641.416	517.2
641.832	520.4
642.249	520.4
642.665	518.8
643.06	527
643.477	528
643.894	518.4
644.31	529
644.727	523.2
645.123	523
645.54	512.2
645.957	528
646.374	524.6
646.77	525.2
647.187	541.2
647.604	526.8
648.021	504.8
648.439	502.2
648.835	520.2
649.252	523.4
649.67	516.8
650.088	516.4
650.484	516
650.902	515.6
651.32	509.6
651.738	516
652.134	508.6
652.552	540.8
652.971	528.8
653.389	513.8
653.786	515.2
654.204	523.8
654.622	512.2
655.019	513.4
655.438	524.4
655.857	519.6
656.275	520.4
656.673	512.2
657.091	527.2
657.51	512.8
657.908	515.4
658.327	523
658.746	507.6
659.144	511.4
659.563	531.4
659.982	519.2
660.38	512.6
660.8	517.4
661.219	526
661.617	517.4
662.037	505.2
662.457	524.6
662.855	492
663.275	535.4
663.695	512.4
664.094	512.6
664.514	519
664.934	507.4
665.333	518.4
665.753	518.4
666.152	507.2
666.572	507.8
666.993	517.2
667.392	510.6
667.812	512.8
668.212	510.6
668.632	525.2
669.053	511.2
669.453	519.2
669.874	511.6
670.273	509.2
670.694	502.6
671.116	514.6
671.515	516
671.937	512.2
672.337	510.2
672.758	507.4
673.158	509.8
673.58	492.4
673.98	507
674.402	522
674.824	509.8
675.224	504.8
675.646	505.4
676.047	502.4
676.469	506.2
676.869	511
677.292	518.8
677.693	497
678.115	504.6
678.516	523
678.939	512.8
679.34	511.6
679.762	517.6
680.164	510.2
680.586	499
680.988	515
681.411	519.8
681.812	503.2
682.236	502.4
682.637	502.8
683.061	495.6
683.462	509.2
683.864	505.8
684.288	510.2
684.69	497
685.114	522.8
685.516	512.4
685.94	499.6
686.342	512
686.766	496.8
687.168	495.4
687.571	521.2
687.995	505.8
688.398	496.6
688.822	509.4
689.225	516.8
689.628	517.4
690.052	500.8
690.456	506.8
690.88	500
691.284	496.8
691.687	511.8
692.112	498.6
692.515	501.6
692.919	505.6
693.344	507.2
693.747	501.8
694.173	496.4
694.577	508.4
694.98	505.4
695.406	504.4
695.81	500
696.214	509
696.64	512.2
697.044	506.4
697.448	509.8
697.874	496.6
698.279	504.2
698.684	492.2
699.11	488.6
699.514	502
699.919	509.2
700.324	492.4
700.75	505.2
701.156	500.2
701.561	518.6
701.987	512.4
702.393	511.6
702.798	517.4
703.203	500.8
703.63	503.4
704.036	496.8
704.442	507.2
704.847	501.6
705.274	508.6
705.68	507
706.086	508.6
706.492	492.4
706.92	497.4
707.326	508.2
707.732	495.6
708.139	498
708.545	491.8
708.973	495.6
709.38	501.2
709.786	500.2
710.193	512.6
710.6	504.2
711.028	502.6
711.435	508.2
711.842	499.6
712.249	501.6
712.656	505.2
713.064	515.4
713.492	502.2
713.9	501.6
714.307	510.8
714.715	504.2
715.123	505.8
715.53	511.6
715.938	512.8
716.367	503.6
716.775	498.8
717.184	498.2
717.592	495.4
718	515
718.408	536.2
718.816	534.8
719.225	505.8
719.633	511.4
720.042	493.6
720.472	499
720.881	528.2
721.29	506.8
721.699	495.8
722.108	499.8
722.517	503.2
722.926	506.8
723.335	510.2
723.744	501.6
724.154	502.8
724.563	504.2
724.973	506.6
725.382	500.2
725.792	503
726.202	496.2
726.612	509.4
727.022	500.4
727.432	503.6
779.813	497.2
780.223	534.6
780.634	498.2
781.044	497
781.454	504.6
781.865	518
782.276	499.4
782.686	514.8
783.097	498.6
783.508	500.4
783.919	504.6
784.33	511.6
784.741	515.6
785.152	495.4
785.563	488.2
785.974	491.8
786.386	508.4
786.776	500.8
787.188	499.8
787.599	496
788.011	508
788.423	504.6
788.835	500
789.247	490.8
789.659	503.4
790.071	503.6
790.483	540.6
790.874	499
791.286	509.2
791.699	496.2
792.111	500
792.524	505.4
792.937	494.4
793.349	501.2
793.741	503
794.154	500
794.567	524.4
794.98	499.8
795.393	494.6
795.785	512
796.198	495.6
796.612	499.2
797.026	504.6
797.439	489
797.831	498
798.245	494.2
798.659	496.6
799.073	488.6
799.487	491
799.88	493.4
800.294	501
800.708	503.4
801.123	500.8
801.516	510.4
801.93	498
802.345	500.2
802.76	497.6
803.153	506.6
803.568	513.4
803.983	507.4
804.377	495
804.792	491.8
805.207	487.2
805.601	500
806.016	527.4
806.432	494.4
806.826	528.6
807.242	514.4
807.658	496
808.052	501
808.468	497.2
808.884	494.2
809.279	504.2
809.695	507.2
810.111	516.4
810.506	499.8
810.922	513
811.339	496.4
811.734	505.6
812.151	499
812.546	495.6
812.963	494
813.38	513.8
813.776	496.2
814.193	516
814.589	497.4
815.006	504
815.402	490.8
815.82	496.2
816.237	502.4
816.633	502.8
817.051	495.2
817.448	506.4
817.866	492
818.262	517.4
818.68	499.8
819.077	496
819.495	497
819.892	542.6
820.311	488
820.708	500.2
821.127	495.2
821.524	510.8
821.943	501.4
822.34	515.8
822.759	497
823.157	493.4
823.576	501.4
823.974	508.2
824.393	584.2
824.791	493
825.189	491.8
825.609	501
826.007	501.6
826.427	490
826.826	501.4
827.246	504.6
827.644	490.4
828.043	507.4
828.463	496.2
828.862	506.6
829.261	506.6
829.682	488.6
830.081	501.8
830.502	500
830.901	503.8
831.301	491.8
831.722	502.8
832.121	501
832.521	489.6
832.943	503.8
833.342	500
833.742	487.8
834.164	492.2
834.564	490.8
834.965	499.6
835.386	493.6
835.787	488.6
836.188	487.2
836.588	500.6
837.01	493
837.411	488.2
837.812	500.2
838.213	501.6
838.636	492.4
839.037	555.6
839.438	506.8
839.84	497.2
840.263	504.6
840.664	496.4
841.066	501.2
841.468	496.6
841.891	495.6
842.293	508.4
842.695	491.8
843.098	507.6
843.5	487.4
843.902	504.2
844.326	502.2
844.729	496.6
845.131	506.6
845.534	496
845.937	500.6
846.34	509.4
846.764	492
847.167	491.8
847.571	493.4
847.974	498.8
848.377	491.4
848.781	535
849.184	508
849.588	492.2
849.992	491.2
850.396	494.6
850.821	515.6
851.225	513
851.63	493.6
852.034	511
852.438	499.4
852.843	522.2
