#lambda/nm	C1
208.295	465
208.67	438.2
209.045	393.4
209.419	400.2
209.794	544.4
210.169	522.8
210.544	625.2
210.919	541.6
211.295	532
211.67	538.6
212.045	531.6
212.421	537.4
212.796	564.8
213.172	530.4
213.547	528.2
213.923	532
214.299	536.2
214.675	539.6
215.051	538.4
215.427	540.2
215.803	552.4
216.179	541.2
216.555	533.8
216.932	547.8
217.308	540
217.684	537.2
218.061	542
218.438	548
218.814	539.6
219.191	542.6
219.568	531.6
219.945	530.8
220.322	541.6
220.699	544
221.076	540.6
221.453	537.4
221.83	524.6
222.208	530.2
222.585	528
222.962	535.6
223.34	544.8
223.717	541.8
224.095	528.4
224.473	532.4
224.851	544.6
225.229	526.8
225.607	554.2
225.985	527.4
226.363	537.6
226.741	539.2
227.119	540.6
227.497	554
227.876	528.2
228.254	546.8
228.633	547.8
229.011	540.8
229.39	537.8
229.769	538.2
230.148	543.8
230.527	550
230.905	544
231.284	541
231.664	532.6
232.043	547.6
232.422	547.2
232.801	534
233.181	535.8
233.56	533.8
233.94	534.4
234.319	530.4
234.699	535.8
235.079	570
235.458	563.2
235.838	553.8
236.218	534.6
236.598	523.8
236.978	533.8
237.358	529.4
237.738	528.4
238.119	542.4
238.499	524.8
238.88	532.2
239.26	551
239.641	535.2
240.021	534.4
240.402	533.2
240.783	527.6
241.163	537
241.544	540.2
241.925	537.6
242.306	549.2
242.687	529.6
243.069	541
243.45	534.8
243.831	537.4
244.212	525.8
244.594	564.2
244.975	545
245.357	538.8
245.739	540.2
246.12	539.4
246.502	549
246.884	527.4
247.266	528
247.648	539.8
248.03	557
248.412	536
248.794	526.6
249.176	533.2
249.559	541.2
249.941	531
250.323	521.2
250.706	533.2
251.089	534.8
251.471	539.8
251.854	540.4
252.237	535.4
252.62	540.6
253.002	543.4
253.385	538.2
253.769	546.8
254.152	541.8
254.535	534.8
254.918	529.4
255.301	533
255.685	543
256.068	525.6
256.452	550.6
256.835	535.6
257.219	541.6
257.603	542.2
257.986	521.8
258.37	541.6
258.754	522
259.138	539.2
259.522	542.6
259.906	527
260.29	540.4
260.675	528.6
261.059	536.4
261.443	525.4
261.828	542
262.212	546
262.597	526.4
262.981	536.8
263.366	542.8
263.751	539
264.136	533.8
264.521	527.6
264.906	528.2
265.291	546.4
265.676	535.6
266.061	533
266.446	557.6
266.831	540.6
267.217	549.2
267.602	539.6
267.987	535.4
268.373	534.2
268.759	542.6
269.144	532.8
269.53	531.4
269.916	524.2
270.302	535.4
270.688	534.4
271.074	535.4
271.46	543.4
271.846	557.2
272.232	532.8
272.618	521.2
273.004	539.2
273.391	547.2
273.777	547.8
274.164	543.4
274.55	544.4
274.937	538.2
275.324	538
275.71	542.8
276.097	536.4
276.484	536.4
276.871	541
277.258	541.8
277.645	523.8
278.032	545.8
278.419	534.4
278.807	541.2
279.194	530.8
279.581	525.6
279.969	539
280.356	538.8
280.744	538.8
281.131	561.6
281.519	543
281.907	533.6
282.295	539.4
282.682	543
283.07	543
283.458	538.6
283.846	542.4
284.235	549
284.623	540.8
285.011	524.4
285.399	534.8
285.788	526.2
286.176	527.8
286.565	541.4
286.953	524.4
287.342	534
287.731	528.6
288.119	522.8
288.508	530.4
288.897	536.2
289.286	528.8
289.675	543.4
290.064	542.4
290.453	529.8
290.821	535.4
291.21	549.4
291.599	538.4
291.989	530.8
292.378	545.6
292.768	551.2
293.157	539.6
293.547	542.4
293.936	534
294.326	539.6
294.716	537.4
295.106	535.6
295.496	544
295.886	543.4
296.276	542.8
296.666	530.2
297.056	532.4
297.446	525
297.836	551.6
298.227	535.4
298.617	534
299.008	544.6
299.398	537.4
299.789	532.4
300.179	541.4
300.57	549.2
300.961	534.4
301.352	540.6
301.742	546.8
302.133	541
302.524	531.2
302.915	542.2
303.307	526.8
303.698	542.6
304.089	531.8
304.48	536.8
304.872	541.8
305.263	544.4
305.655	534.2
306.046	541.6
306.438	543.6
306.829	537.6
307.221	554.6
307.613	549.8
308.005	544.8
308.397	540.4
308.789	556.2
309.181	555.2
309.573	557.2
309.965	548.6
310.357	536
310.749	552.2
311.142	533.8
311.534	533.4
311.926	545
312.319	541.4
312.711	538.8
313.104	552.6
313.497	540.6
313.889	565.2
314.282	553.8
314.675	558.4
315.068	538.2
315.461	540.8
315.854	563.6
316.247	538.2
316.64	532.2
317.033	536.4
317.405	543.2
317.798	528.2
318.192	546.8
318.585	531.6
318.979	537.4
319.372	535.8
319.766	531.6
320.16	548.2
320.553	552.8
320.947	550.2
321.341	533.4
321.735	542.4
322.129	531.2
322.523	562.4
322.917	533.2
323.311	536.4
323.705	535.8
324.099	547.4
324.494	551.8
324.888	543
325.282	541.8
325.677	547.8
326.071	544.8
326.466	542.8
326.861	535.8
327.255	546.8
327.65	550
328.045	546.2
328.44	530.6
328.835	537.6
329.23	536.4
329.625	551.8
330.02	533.2
330.415	550.6
330.81	534
331.206	544.8
331.601	541
331.996	542
332.37	550.8
332.766	530.6
333.161	555.8
333.557	532.4
333.953	536.4
334.348	762.6
334.744	533.6
335.14	533.6
335.536	535
335.932	544.4
336.328	532.4
336.724	545.2
337.12	538.6
337.516	541.2
337.913	542.6
338.309	545.8
338.705	542.2
339.102	541.4
339.498	532.6
339.895	547
340.291	528.2
340.688	544.2
341.085	528.6
341.481	532.4
341.878	532.6
342.275	548.2
342.672	531.4
343.069	537.6
343.466	525
343.842	538.8
344.239	534.2
344.636	539.2
345.033	527
345.431	529.4
345.828	533.8
346.225	533
346.623	564.4
347.02	538.6
347.418	539.6
347.816	549.2
348.213	521.8
348.611	547
349.009	533.2
349.407	552.8
349.805	529.8
350.203	530.6
350.601	540.6
350.999	534.6
351.397	588.8
351.795	540.6
352.193	535.6
352.57	538.2
352.969	547
353.367	528.6
353.766	529.8
354.164	533.4
354.563	538.4
354.961	534.4
355.36	531.4
355.759	531.6
356.158	523.6
356.557	526.6
356.956	516.6
357.355	513.8
357.754	529.4
358.153	536.8
358.552	552.6
358.951	532.4
359.35	537.2
359.75	534.6
360.149	526
360.527	524
360.926	528.4
361.326	536.4
361.726	527
362.125	530.4
362.525	539.4
362.925	521.8
363.325	525
363.724	530.2
364.124	518.2
364.524	526.2
364.924	525.2
365.324	540
365.725	520.6
366.125	534
366.525	526.6
366.904	525
367.304	519.2
367.705	538.4
368.105	537.8
368.506	524.2
368.906	525.8
369.307	533
369.708	537.6
370.108	517.8
370.509	540.6
370.91	525
371.311	532
371.712	526.6
372.113	523.4
372.514	519.4
372.894	531
373.295	521.2
373.696	533.8
374.097	536.6
374.499	556.4
374.9	536.4
375.301	531
375.703	533.2
376.105	526.6
376.506	533.4
376.908	533.8
377.309	527.4
377.711	533.2
378.113	525.4
378.493	528.6
378.895	523.6
379.297	542.2
379.699	516
380.102	525
380.504	537.8
380.906	523
381.308	543
381.71	527
382.113	532
382.515	528.8
382.918	531.4
383.299	529.4
383.701	533.4
384.104	534.2
384.507	508
384.909	526
385.312	515.6
385.715	520.6
386.118	526.8
386.521	514.8
386.924	539.4
387.327	522.6
387.709	521
388.112	514.4
388.515	528
388.918	525.6
389.322	527.4
389.725	522
390.129	548.6
390.532	526.6
390.936	521.2
391.339	524.2
391.743	531.8
392.125	520.2
392.529	539.8
392.933	535.6
393.337	533.8
393.74	527.4
394.144	529.8
394.548	525
394.953	527.8
395.357	533.6
395.761	525.2
396.144	525
396.548	516.8
396.952	527.2
397.357	522.6
397.761	517.8
398.166	525.2
398.57	514.2
398.975	519.2
399.379	535.2
399.763	565.6
400.168	527.2
400.572	521.8
400.977	519.8
401.382	541.6
401.787	531.6
402.192	545.8
402.597	541.2
403.002	526.6
403.386	535.4
403.791	545.2
404.197	523.8
404.602	523.2
405.007	527.2
405.413	516.6
405.818	527.4
406.224	508.2
406.608	523
407.014	523
407.42	540.2
407.825	526.2
408.231	526.2
408.637	530.8
409.043	532.4
409.449	522.4
409.834	523
410.24	524
410.646	534.4
411.052	541.4
411.458	528.8
411.865	537.6
412.271	536.8
412.677	529.4
413.062	543.2
413.469	524.2
413.875	547
414.282	535
414.689	522.4
415.095	531.8
415.502	527.4
415.888	534
416.294	518.8
416.701	557.8
417.108	528.2
417.515	535.8
417.923	522.2
418.33	549.8
418.715	542
419.123	529.4
419.53	527.2
419.937	530.2
420.345	539.4
420.752	523.8
421.16	534.2
421.546	523
421.953	543
422.361	528
422.769	529.6
423.177	529.6
423.585	548.6
423.992	556
424.379	539.4
424.787	545.8
425.195	547
425.603	532
426.011	541
426.419	536.2
426.806	534
427.214	538
427.623	549.4
428.031	552
428.44	544
428.848	551
429.235	558
429.644	556
430.053	549
430.461	579.6
430.87	587.8
431.279	586.6
431.666	582.8
432.075	590.8
432.484	618.4
432.893	613.4
433.302	631.6
433.711	692.4
434.099	667.4
434.508	671.8
434.918	683.8
435.327	718.2
435.737	730.2
436.125	743
436.534	759.2
436.944	770.4
437.353	805.2
437.763	834.4
438.173	830
438.561	848
438.971	851.6
439.381	866.4
439.791	894
440.201	897.2
440.589	921.4
440.999	940.6
441.409	941.2
441.819	956
442.23	989
442.619	993.4
443.029	1004
443.439	1018
443.85	1029.4
444.26	1029.8
444.649	1023
445.06	1035.2
445.471	1035.8
445.881	1070.4
446.292	1080.4
446.682	1080.8
447.092	1065
447.503	1126.6
447.914	1085.2
448.325	1101.8
448.715	1105.4
449.126	1099
449.537	1119.4
449.948	1120.8
450.338	1110.4
450.75	1135.6
451.161	1133.4
451.572	1127
451.984	1138.6
452.374	1120.6
452.786	1140.4
453.197	1150.8
453.609	1162.4
453.999	1137.4
454.411	1136.4
454.823	1156
455.235	1147.8
455.647	1149
456.037	1144.6
456.449	1138
456.862	1143.4
457.274	1153.6
457.665	1149.2
458.077	1154.2
458.489	1171.8
458.902	1158.8
459.293	1168.4
459.705	1145.2
460.118	1137.8
460.53	1162.2
460.921	1158.6
461.334	1166.6
461.747	1168.8
462.16	1179.4
462.551	1190.6
462.964	1183.4
463.377	1152.8
463.79	1164
464.182	1167.4
464.595	1165
465.008	1168.2
465.421	1161.2
465.813	1162.8
466.226	1179.6
466.64	1145.4
467.053	1182.6
467.445	1181.2
467.859	1177.8
468.272	1187.6
468.686	1181.6
469.078	1160.2
469.492	1169.8
469.906	1183
470.298	1171.4
470.712	1150.6
471.126	1198.2
471.54	1154.2
471.933	1155.2
472.347	1166.6
472.761	1142.2
473.175	1135.8
473.568	1148.6
473.982	1134.4
474.397	1134.8
474.79	1145
475.204	1143
475.619	1127.8
476.033	1141.6
476.426	1128
476.841	1123
477.256	1148
477.649	1119.4
478.064	1122.4
478.479	1116
478.872	1099.4
479.287	1104
479.702	1101.8
480.118	1107.6
480.511	1107
480.927	1111.4
481.342	1092
481.736	1096.8
482.151	1092
482.566	1090.6
482.96	1082.4
483.376	1079.6
483.792	1061.2
484.186	1074.6
484.602	1063.8
485.017	1065.6
485.412	1056.2
485.827	1059.4
486.243	1059.2
486.638	1078.2
487.054	1063.4
487.47	1059.2
487.865	1036.2
488.281	1027.6
488.697	1029.2
489.092	1029.4
489.508	1021.8
489.925	1035.6
490.32	1006.4
490.736	1015.8
491.153	1016.4
491.548	1025.2
491.964	1019.2
492.381	995.6
492.776	999
493.193	1004
493.61	1008.4
494.006	981.2
494.422	988.8
494.84	976.6
495.235	977.6
495.652	966.8
496.069	964.8
496.465	958
496.883	955.6
497.3	984.6
497.696	951
498.113	962.2
498.509	934
498.927	934.8
499.344	929.4
499.741	913
500.158	934.2
500.576	933.8
500.973	922.8
501.39	918.8
501.787	915.8
502.205	909.8
502.623	899.6
503.02	885.4
503.438	899.8
503.856	889.8
504.253	888.8
504.671	887
505.068	877.2
505.486	883.4
505.905	885.2
506.302	874.4
506.72	870.2
507.118	856.6
507.536	866.4
507.955	862.6
508.352	862.4
508.771	859.4
509.169	859.8
509.587	837.6
510.006	845.4
510.404	833.2
510.823	822.6
511.221	832.6
511.64	822.6
512.038	840
512.457	819.8
512.877	821.8
513.275	807.2
513.694	815.6
514.092	813.6
514.512	801.2
514.91	817.8
515.33	802.4
515.749	785.8
516.148	798.4
516.568	785.4
516.966	792.4
517.386	786.6
517.785	786.6
518.205	775.6
518.603	772.8
519.024	759.6
519.444	760.8
519.843	774.8
520.263	777.2
520.662	759.8
521.082	763.2
521.481	752.2
521.902	754
522.301	756.8
522.722	749.6
523.121	748.4
523.542	740.4
523.963	738.2
524.362	735.8
524.783	735.6
525.183	735.8
525.604	734.6
526.003	724.2
526.425	712.2
526.824	736.4
527.246	722
527.646	719.2
528.067	717.4
528.467	709.4
528.888	711
529.289	708.2
529.71	704
530.11	694
530.532	703.4
530.932	692.2
531.354	695.8
531.755	721.4
532.176	694.6
532.577	691.2
532.999	690.6
533.4	687.6
533.822	699
534.223	688.4
534.645	678.6
535.046	682.4
535.468	688.4
535.869	690.2
536.292	678.8
536.693	709.2
537.115	670.4
537.516	676
537.939	666
538.34	689.2
538.742	677.4
539.165	669.2
539.566	657.6
539.989	650.6
540.391	649
540.814	658.8
541.216	661.8
541.639	654.2
542.041	669
542.464	653.6
542.866	648.4
543.268	641.2
543.691	646.4
544.093	647.2
544.517	659.6
544.919	640.6
545.343	661.2
545.745	631.6
546.147	642.6
546.571	637
546.974	629.6
547.398	629
547.8	648.2
548.224	625.2
548.627	625.6
549.03	629.6
549.454	616.4
549.857	618.2
550.281	617
550.684	629.2
551.087	621
551.512	625.4
551.915	622.2
552.34	620.6
552.743	614
553.146	618.8
553.571	610.6
553.975	622.4
554.399	605.4
554.803	652.8
555.207	594.4
555.632	603.2
556.036	609.2
556.461	599.4
556.865	601.8
557.268	592.6
557.694	599.8
558.098	605.6
558.502	597.4
558.927	588.6
559.332	592.4
559.736	599.2
560.162	601.2
560.566	596.4
560.992	594.6
561.396	595.2
561.801	590.2
562.227	586.2
562.631	582.8
563.036	586.8
563.462	592.8
563.867	593.4
564.272	571.8
564.698	594.6
565.103	577.8
565.508	600.4
565.935	584.2
566.34	584.8
566.745	590
567.172	581.8
567.577	591.4
567.982	589.2
568.409	576
568.815	567.6
569.22	581
569.626	571.6
570.053	560.8
570.459	576.2
570.865	570.4
571.292	581.8
571.698	574.6
572.104	564.6
572.531	562.6
572.937	573.2
573.343	576.2
573.75	558.8
574.177	567.4
574.583	568.4
574.99	564.2
575.396	574
575.824	559
576.231	568.2
576.637	566.4
577.065	586.8
577.472	565
577.879	557.4
578.286	574.4
578.714	556.2
579.121	559.4
579.528	555.2
579.935	565
580.364	568.4
580.771	544.8
581.178	553
581.585	560.6
582.014	562.8
582.421	547
582.829	556
583.236	560.8
583.644	551.4
584.073	547.6
584.481	559.6
584.889	552.6
585.296	549.2
585.726	552
586.134	546.4
586.542	546
586.95	554.6
587.358	539.4
587.787	545.8
588.196	541
588.604	546.2
589.012	551.8
589.421	538.2
589.851	540
590.259	543.6
590.668	535.8
591.076	580.8
591.485	537.2
591.894	551.2
592.324	555.8
592.733	555
593.142	541
593.551	540.4
593.96	564
594.369	529.8
594.8	528.6
595.209	529.2
595.618	529
596.028	527
596.437	533
596.847	535.6
597.256	549.2
597.687	547.6
598.097	537.4
598.507	536
598.917	536.6
599.327	541
599.736	536
600.146	541.4
600.556	541.8
600.988	546.6
601.398	542
601.808	540
602.219	528.2
602.629	534.6
603.039	540.2
603.45	550.8
603.86	536.6
604.271	548.4
604.703	537
605.114	529.6
605.525	540.2
605.935	542.8
606.346	551.6
606.757	540
607.168	537.6
607.579	532
607.99	548
608.402	538.8
608.813	533.6
609.224	531.8
609.636	529.4
610.047	531.2
610.48	536.4
610.892	541.6
611.303	548.6
611.715	531.6
612.127	528.2
612.539	532.8
612.95	529.8
613.362	534.2
613.774	529.2
614.186	529
614.599	533.4
615.011	537.8
615.423	543.6
615.835	535
616.248	528.8
616.66	543.4
617.073	529
617.485	538.8
617.898	545.6
618.311	535.4
618.723	540
619.136	558.8
619.549	554
619.962	556.8
620.375	536.4
620.788	539
621.201	528.6
621.614	539.2
622.028	529
622.441	538.8
622.854	550
623.268	530.6
623.681	536.4
624.095	535.2
624.509	541.6
624.922	536.6
625.336	523.8
625.728	542.4
626.142	546.8
626.556	549
626.97	538.8
627.384	533.8
627.799	538.6
628.213	540.4
628.627	531.2
629.041	530.6
629.456	529.4
629.87	530.2
630.285	534.8
630.699	541.6
631.093	527.4
631.507	530.6
631.922	535
632.337	537.6
632.752	522
633.167	527.6
633.582	526.2
633.997	531.2
634.412	523.8
634.806	535.8
635.221	518
635.637	543.6
636.052	521.2
636.468	530
636.883	539.8
637.299	527.8
637.715	513.6
638.109	520
638.525	525.6
638.941	537.6
639.357	529.8
639.773	533.2
640.189	516.8
640.584	526.2
641	530.4
641.416	509.2
641.832	519
642.249	526
642.665	516.8
643.06	529.6
643.477	526.6
643.894	509.6
644.31	523
644.727	521.4
645.123	518.6
645.54	512
645.957	525.8
646.374	532.8
646.77	524
647.187	540.2
647.604	518.8
648.021	512
648.439	508.4
648.835	528.6
649.252	524
649.67	510.2
650.088	520.2
650.484	520.4
650.902	525.4
651.32	517.2
651.738	508.8
652.134	515.8
652.552	535
652.971	523.6
653.389	514
653.786	530.2
654.204	519
654.622	508.6
655.019	515
655.438	518
655.857	515.6
656.275	509.8
656.673	510
657.091	517
657.51	513
657.908	521.8
658.327	519.2
658.746	507.4
659.144	516.8
659.563	525.8
659.982	511.2
660.38	506.2
660.8	507.6
661.219	523.2
661.617	519.8
662.037	511.6
662.457	520.4
662.855	503.6
663.275	538
663.695	509.8
664.094	515.8
664.514	507.2
664.934	507.6
665.333	514.4
665.753	503
666.152	504.6
666.572	514.4
666.993	511.4
667.392	510.2
667.812	506
668.212	507.8
668.632	522
669.053	499.4
669.453	514
669.874	509.8
670.273	510.6
670.694	505.8
671.116	518.4
671.515	510.8
671.937	507.2
672.337	506
672.758	506.2
673.158	517.8
673.58	502.2
673.98	516
674.402	516.6
674.824	508.2
675.224	514.6
675.646	503.6
676.047	509.2
676.469	509
676.869	507
677.292	508.6
677.693	502
678.115	507
678.516	517.4
678.939	515.2
679.34	508
679.762	514
680.164	508.6
680.586	502
680.988	508.8
681.411	532.8
681.812	513.4
682.236	505.6
682.637	493.2
683.061	498.2
683.462	516.8
683.864	512
684.288	522.6
684.69	503.2
685.114	523.6
685.516	507.6
685.94	501.8
686.342	513.6
686.766	509.6
687.168	509.6
687.571	525.4
687.995	513.4
688.398	497.4
688.822	516
689.225	520.6
689.628	526.4
690.052	512.2
690.456	514
690.88	517.6
691.284	503.2
691.687	509.6
692.112	503
692.515	502.4
692.919	499.6
693.344	519.6
693.747	501.6
694.173	504.8
694.577	523.2
694.98	503.4
695.406	504.2
695.81	511
696.214	513
696.64	512.2
697.044	512.8
697.448	515.8
697.874	507.4
698.279	508.8
698.684	502.6
699.11	507.4
699.514	500.2
699.919	501.8
700.324	498.2
700.75	514
701.156	506.2
701.561	515.6
701.987	515.2
702.393	517.8
702.798	515
703.203	512
703.63	503.2
704.036	498.2
704.442	510.8
704.847	508.8
705.274	508.6
705.68	510.2
706.086	504.8
706.492	500.2
706.92	506.6
707.326	515.8
707.732	505.6
708.139	494.2
708.545	502
708.973	501.6
709.38	503.8
709.786	494.2
710.193	518.2
710.6	506
711.028	499
711.435	507.2
711.842	512.2
712.249	499.8
712.656	505.2
713.064	511.8
713.492	488.8
713.9	498
714.307	515.2
714.715	502.2
715.123	508.6
715.53	508.4
715.938	508.6
716.367	505.8
716.775	508.2
717.184	495.4
717.592	504.8
718	515.8
718.408	535.2
718.816	537.8
719.225	510.2
719.633	506.4
720.042	496.4
720.472	495
720.881	518.8
721.29	506.6
721.699	494.4
722.108	503.8
722.517	502.6
722.926	499.4
723.335	509
723.744	499.6
724.154	498.2
724.563	511
724.973	513
725.382	509.6
725.792	504.4
726.202	494.4
726.612	505.2
727.022	499
727.432	501.6
779.813	505.4
780.223	535.6
780.634	505.8
781.044	501.2
781.454	502.6
781.865	516.4
782.276	500.2
782.686	516.8
783.097	510
783.508	506.6
783.919	505.6
784.33	512.4
784.741	527
785.152	510
785.563	501.8
785.974	498.4
786.386	507.2
786.776	503.6
787.188	497.2
787.599	498.4
788.011	513
788.423	506.8
788.835	498.6
789.247	500.4
789.659	503
790.071	498.6
790.483	540
790.874	506.6
791.286	508.2
791.699	501
792.111	503
792.524	503.4
792.937	498.8
793.349	494.8
793.741	494.8
794.154	496
794.567	521
794.98	503.6
795.393	493
795.785	509.8
796.198	496.8
796.612	500.6
797.026	499.4
797.439	485.2
797.831	493.2
798.245	489
798.659	499.6
799.073	492.4
799.487	499.2
799.88	501.2
800.294	499
800.708	497.8
801.123	504.8
801.516	520.4
801.93	490.8
802.345	489.6
802.76	499.8
803.153	509.6
803.568	507.8
803.983	508.8
804.377	495
804.792	489.4
805.207	488.8
805.601	497.8
806.016	527
806.432	487.6
806.826	523.8
807.242	518.4
807.658	500
808.052	503
808.468	502.8
808.884	496.4
809.279	501
809.695	515.4
810.111	520.8
810.506	513.4
810.922	518.6
811.339	505
811.734	508.6
812.151	500.2
812.546	487
812.963	502.2
813.38	500
813.776	505.2
814.193	518.2
814.589	495.8
815.006	498.4
815.402	492.4
815.82	494
816.237	498.6
816.633	503.4
817.051	493
817.448	497.2
817.866	494.8
818.262	514.8
818.68	501.2
819.077	498
819.495	494
819.892	524.2
820.311	495.2
820.708	497.8
821.127	490.2
821.524	505.8
821.943	501.4
822.34	518.2
822.759	505.2
823.157	493.4
823.576	514.8
823.974	503.2
824.393	582
824.791	494.8
825.189	492.4
825.609	496.8
826.007	494.2
826.427	487
826.826	503.2
827.246	499
827.644	484.6
828.043	512.8
828.463	492.4
828.862	501.8
829.261	514.8
829.682	488.2
830.081	498.8
830.502	496.2
830.901	505
831.301	498
831.722	495.6
832.121	501.8
832.521	497.8
832.943	499
833.342	499.2
833.742	496.6
834.164	500
834.564	500.4
834.965	496.2
835.386	502.8
835.787	499.4
836.188	500.2
836.588	500.2
837.01	497.8
837.411	493.2
837.812	495.4
838.213	496.6
838.636	496.8
839.037	560.2
839.438	497.6
839.84	501.8
840.263	510.8
840.664	505.8
841.066	493.6
841.468	503.4
841.891	492.4
842.293	510.6
842.695	502.8
843.098	508.2
843.5	501.8
843.902	507
844.326	500
844.729	503
845.131	511.6
845.534	510.8
845.937	507.6
846.34	506.6
846.764	503.2
847.167	499.2
847.571	489.4
847.974	501.2
848.377	498
848.781	537
849.184	511.8
849.588	498.6
849.992	500
850.396	504.6
850.821	513.2
851.225	508.4
851.63	498.6
852.034	511
852.438	493.4
