#lambda/nm	C1
208.295	464.6
208.67	435.8
209.045	396.6
209.419	401.6
209.794	537.6
210.169	519
210.544	624.6
210.919	540.8
211.295	529.2
211.67	537.8
212.045	530
212.421	529.4
212.796	560.4
213.172	525.8
213.547	528.2
213.923	530
214.299	535.8
214.675	540.8
215.051	542.2
215.427	543.4
215.803	554.6
216.179	539
216.555	529.8
216.932	540.2
217.308	539
217.684	539.8
218.061	538.6
218.438	549.8
218.814	533.2
219.191	547.8
219.568	536.4
219.945	536.8
220.322	545
220.699	543.2
221.076	545.6
221.453	534.2
221.83	530
222.208	530
222.585	525
222.962	530.2
223.34	542.8
223.717	533.6
224.095	534.2
224.473	535.6
224.851	527
225.229	529
225.607	550.4
225.985	532
226.363	536.4
226.741	538.2
227.119	540.8
227.497	541.2
227.876	525.6
228.254	543.4
228.633	541.2
229.011	532
229.39	546.2
229.769	529.4
230.148	542.6
230.527	543.4
230.905	531.8
231.284	536.2
231.664	539.8
232.043	552.2
232.422	543
232.801	532.8
233.181	542
233.56	532.6
233.94	534.4
234.319	527.6
234.699	535
235.079	574.6
235.458	564.2
235.838	546
236.218	525.6
236.598	530.6
236.978	533.2
237.358	535.2
237.738	534.4
238.119	542
238.499	535.8
238.88	543.6
239.26	553.8
239.641	530.2
240.021	534.4
240.402	535
240.783	532.2
241.163	535.2
241.544	546.4
241.925	547
242.306	547.2
242.687	535.6
243.069	540.8
243.45	549.4
243.831	545
244.212	535.2
244.594	567.8
244.975	547.4
245.357	548.4
245.739	533.6
246.12	538.2
246.502	553.2
246.884	535.4
247.266	543
247.648	533
248.03	555.6
248.412	541.6
248.794	542.8
249.176	533.8
249.559	547.6
249.941	531.2
250.323	530.6
250.706	534.8
251.089	539.2
251.471	534.2
251.854	534
252.237	534.2
252.62	542.2
253.002	536
253.385	537.2
253.769	552.6
254.152	530
254.535	546
254.918	531
255.301	531.4
255.685	536.2
256.068	531
256.452	554.2
256.835	538.4
257.219	533
257.603	540
257.986	536.2
258.37	540.8
258.754	525
259.138	540
259.522	550.6
259.906	532.8
260.29	543.6
260.675	530.4
261.059	539.8
261.443	530.2
261.828	540
262.212	534.4
262.597	521.8
262.981	535.6
263.366	540.8
263.751	541
264.136	527.2
264.521	529.8
264.906	526.6
265.291	544.2
265.676	533
266.061	542.2
266.446	547.6
266.831	537.8
267.217	549.6
267.602	539
267.987	540.2
268.373	537.6
268.759	546.2
269.144	539.2
269.53	533
269.916	531.2
270.302	534.4
270.688	545.6
271.074	535.6
271.46	551.8
271.846	560.4
272.232	531.8
272.618	531.4
273.004	534.8
273.391	543.8
273.777	549.8
274.164	542.2
274.55	548.2
274.937	535.2
275.324	535.6
275.71	543.4
276.097	543
276.484	530.2
276.871	541.2
277.258	538
277.645	529.8
278.032	533.6
278.419	536.2
278.807	540
279.194	528.8
279.581	531.4
279.969	540.6
280.356	536.6
280.744	529.6
281.131	558.4
281.519	541
281.907	532.2
282.295	532.2
282.682	545
283.07	540.6
283.458	547.6
283.846	538
284.235	540.6
284.623	547.6
285.011	536
285.399	540
285.788	540.8
286.176	532.4
286.565	543.6
286.953	535.8
287.342	532.6
287.731	528.2
288.119	533.4
288.508	538.2
288.897	541.4
289.286	529
289.675	537.8
290.064	547.2
290.453	541.4
290.821	538.6
291.21	545.2
291.599	531.2
291.989	545.6
292.378	550.2
292.768	550
293.157	542.4
293.547	542.8
293.936	536.8
294.326	528.4
294.716	536
295.106	539.2
295.496	541.4
295.886	543.4
296.276	537
296.666	529.8
297.056	539.4
297.446	530
297.836	550.4
298.227	532.6
298.617	540
299.008	547.6
299.398	540.4
299.789	536.2
300.179	533.6
300.57	544.2
300.961	529.2
301.352	537.2
301.742	539
302.133	537.4
302.524	538.8
302.915	536.2
303.307	525.8
303.698	555
304.089	542.8
304.48	532.6
304.872	535.6
305.263	538.8
305.655	525.2
306.046	536.8
306.438	536.4
306.829	530.6
307.221	551.4
307.613	528
308.005	539.2
308.397	546.4
308.789	552.8
309.181	552
309.573	549.4
309.965	549.8
310.357	534.6
310.749	546.2
311.142	529
311.534	530.2
311.926	541.6
312.319	541
312.711	531.2
313.104	546.6
313.497	533
313.889	571.6
314.282	555
314.675	556.4
315.068	535.4
315.461	546.8
315.854	564.4
316.247	540.4
316.64	531.2
317.033	539.2
317.405	542.8
317.798	533.8
318.192	541.4
318.585	526.8
318.979	540.6
319.372	528.6
319.766	538.2
320.16	553
320.553	553.6
320.947	549.8
321.341	534.2
321.735	530.4
322.129	525.4
322.523	558.4
322.917	531.4
323.311	543.2
323.705	539.2
324.099	538.4
324.494	544.2
324.888	540.2
325.282	539
325.677	550.8
326.071	535.6
326.466	543.8
326.861	534.2
327.255	539
327.65	546.2
328.045	550.8
328.44	535.8
328.835	537.6
329.23	527.2
329.625	550.6
330.02	536.4
330.415	548
330.81	533.2
331.206	536.6
331.601	536
331.996	547.4
332.37	554.6
332.766	524.6
333.161	552.6
333.557	528.8
333.953	539.2
334.348	712.4
334.744	536.4
335.14	535.6
335.536	529
335.932	539.8
336.328	535.6
336.724	553.8
337.12	540.8
337.516	533.6
337.913	535.2
338.309	550
338.705	537.2
339.102	547.6
339.498	530.6
339.895	542
340.291	533.4
340.688	547.4
341.085	532
341.481	538.2
341.878	538
342.275	551
342.672	535.8
343.069	530.4
343.466	523.2
343.842	539.4
344.239	526
344.636	533.6
345.033	532.2
345.431	527.6
345.828	533.4
346.225	528.8
346.623	565.6
347.02	529
347.418	539.4
347.816	544.2
348.213	532
348.611	534.6
349.009	528.4
349.407	547
349.805	532.6
350.203	527.4
350.601	545.6
350.999	535.2
351.397	574.4
351.795	530.8
352.193	540.8
352.57	536.6
352.969	537.2
353.367	525.6
353.766	524.8
354.164	533.4
354.563	538
354.961	532.4
355.36	532.2
355.759	534.6
356.158	530.4
356.557	531.4
356.956	522.6
357.355	516.4
357.754	531
358.153	538.2
358.552	551.8
358.951	538.2
359.35	540.8
359.75	526.4
360.149	530.4
360.527	519.8
360.926	523.8
361.326	539.8
361.726	526
362.125	521.2
362.525	525.2
362.925	527.4
363.325	537.8
363.724	527.2
364.124	524.6
364.524	530.8
364.924	529.6
365.324	536.4
365.725	516.2
366.125	532.8
366.525	527.8
366.904	529.6
367.304	516.4
367.705	544.8
368.105	542.6
368.506	526.4
368.906	532.6
369.307	531.8
369.708	536
370.108	523.6
370.509	540
370.91	511.8
371.311	528.8
371.712	534.8
372.113	533.4
372.514	517.6
372.894	529.4
373.295	522
373.696	541.6
374.097	536.8
374.499	558
374.9	533
375.301	534
375.703	531.6
376.105	515.4
376.506	539.6
376.908	530.4
377.309	528.8
377.711	530.4
378.113	520.2
378.493	525
378.895	530.2
379.297	540.8
379.699	530.4
380.102	528.6
380.504	530.2
380.906	521.6
381.308	545.4
381.71	531.4
382.113	530.2
382.515	521
382.918	531.2
383.299	531.8
383.701	536.8
384.104	532.6
384.507	511.2
384.909	535
385.312	520.4
385.715	521.8
386.118	528.4
386.521	513.8
386.924	527.8
387.327	527
387.709	514
388.112	513.6
388.515	524
388.918	530.8
389.322	530.4
389.725	523.6
390.129	539.6
390.532	529.4
390.936	519.4
391.339	514
391.743	530.4
392.125	525
392.529	533.6
392.933	533.2
393.337	529.2
393.74	531.8
394.144	525.6
394.548	525.2
394.953	532
395.357	533.4
395.761	523.8
396.144	524.2
396.548	523.4
396.952	529.4
397.357	535
397.761	528.8
398.166	522.8
398.57	521.4
398.975	522.6
399.379	533
399.763	572.4
400.168	531.8
400.572	524.4
400.977	525.6
401.382	551
401.787	531.8
402.192	544.2
402.597	533.2
403.002	514.4
403.386	536.4
403.791	541.4
404.197	520.4
404.602	522.6
405.007	524.2
405.413	522.4
405.818	542
406.224	524.6
406.608	523.8
407.014	521.4
407.42	539
407.825	529.2
408.231	528.6
408.637	526.6
409.043	534.4
409.449	521.8
409.834	521.2
410.24	524.8
410.646	539
411.052	538.6
411.458	534.6
411.865	529.2
412.271	534
412.677	537.2
413.062	532.2
413.469	524
413.875	543.8
414.282	542
414.689	534.2
415.095	530.4
415.502	522.6
415.888	530.4
416.294	516.4
416.701	556.2
417.108	522
417.515	539
417.923	526.4
418.33	542.4
418.715	539.6
419.123	524.2
419.53	528.6
419.937	530.2
420.345	546.8
420.752	522.2
421.16	538.8
421.546	533.8
421.953	537.6
422.361	521.2
422.769	528
423.177	519.2
423.585	550.8
423.992	537.2
424.379	532.2
424.787	535.4
425.195	542.8
425.603	524.6
426.011	537.8
426.419	545.2
426.806	529.2
427.214	533
427.623	545.6
428.031	556.2
428.44	545.2
428.848	556.8
429.235	567.4
429.644	559
430.053	566.6
430.461	588.4
430.87	609
431.279	601.8
431.666	610.6
432.075	627.8
432.484	638.8
432.893	651.4
433.302	684.6
433.711	728.2
434.099	711.4
434.508	737.8
434.918	748
435.327	776.4
435.737	798.4
436.125	819
436.534	842.2
436.944	862.2
437.353	895.8
437.763	928.4
438.173	931.4
438.561	960.8
438.971	957.8
439.381	995.8
439.791	1020.6
440.201	1023.6
440.589	1046.4
440.999	1080.4
441.409	1098.4
441.819	1085.8
442.23	1138.4
442.619	1132.4
443.029	1139.6
443.439	1168.8
443.85	1188.6
444.26	1185.4
444.649	1198
445.06	1198.8
445.471	1199.6
445.881	1243.8
446.292	1256
446.682	1270
447.092	1246.4
447.503	1310.8
447.914	1275.4
448.325	1286.6
448.715	1288.6
449.126	1299.8
449.537	1301.6
449.948	1318.4
450.338	1305
450.75	1334.8
451.161	1331.6
451.572	1330.6
451.984	1331.4
452.374	1315
452.786	1335.8
453.197	1340.8
453.609	1333.6
453.999	1346.4
454.411	1348.6
454.823	1359.4
455.235	1352.8
455.647	1362.2
456.037	1359.8
456.449	1339.4
456.862	1366.6
457.274	1364.2
457.665	1349.6
458.077	1352.2
458.489	1380.6
458.902	1371.2
459.293	1356.8
459.705	1363.8
460.118	1347.4
460.53	1367.2
460.921	1375.2
461.334	1374.2
461.747	1375.6
462.16	1377.4
462.551	1385
462.964	1384.6
463.377	1356.2
463.79	1362.6
464.182	1386.8
464.595	1377
465.008	1373.2
465.421	1378.4
465.813	1387.6
466.226	1369.8
466.64	1366.8
467.053	1406.6
467.445	1388.4
467.859	1392.6
468.272	1404
468.686	1387.8
469.078	1386.2
469.492	1394.4
469.906	1373.2
470.298	1393
470.712	1367.6
471.126	1394.2
471.54	1362.2
471.933	1364
472.347	1361.4
472.761	1362.4
473.175	1347.2
473.568	1347.6
473.982	1333.4
474.397	1357.8
474.79	1351.8
475.204	1345.6
475.619	1347.8
476.033	1335
476.426	1332.4
476.841	1311.8
477.256	1336.4
477.649	1303.4
478.064	1304.8
478.479	1297.2
478.872	1299.4
479.287	1296.2
479.702	1300
480.118	1309
480.511	1286
480.927	1297.4
481.342	1293.4
481.736	1284.2
482.151	1274.8
482.566	1276
482.96	1269
483.376	1271.6
483.792	1259.2
484.186	1267.8
484.602	1255.2
485.017	1252
485.412	1242.6
485.827	1243.4
486.243	1225
486.638	1247.6
487.054	1231
487.47	1233.8
487.865	1215.8
488.281	1220.8
488.697	1202.2
489.092	1191.8
489.508	1195.8
489.925	1196.2
490.32	1177.6
490.736	1191.6
491.153	1184.8
491.548	1173
491.964	1176.2
492.381	1154.8
492.776	1162.8
493.193	1145
493.61	1143.8
494.006	1127
494.422	1140.4
494.84	1130.8
495.235	1117.6
495.652	1119.6
496.069	1101.6
496.465	1102
496.883	1111.6
497.3	1126.8
497.696	1085.6
498.113	1080.8
498.509	1072.8
498.927	1068.6
499.344	1062.4
499.741	1073.6
500.158	1059.4
500.576	1062.8
500.973	1065.8
501.39	1039
501.787	1041
502.205	1038.6
502.623	1021.2
503.02	1027.2
503.438	1003.4
503.856	1013.2
504.253	999.8
504.671	1023.4
505.068	998.6
505.486	995.2
505.905	1001.4
506.302	988.8
506.72	990.2
507.118	964
507.536	970.4
507.955	970.4
508.352	967.2
508.771	966
509.169	971
509.587	942.8
510.006	952.6
510.404	927
510.823	939.6
511.221	920.4
511.64	919.8
512.038	931.6
512.457	910.8
512.877	912
513.275	898.6
513.694	887.6
514.092	899.4
514.512	894.4
514.91	892.2
515.33	885.2
515.749	889
516.148	892.2
516.568	881.4
516.966	871.8
517.386	872.2
517.785	875
518.205	853.6
518.603	857.2
519.024	840.2
519.444	845.4
519.843	854.8
520.263	851.6
520.662	842.4
521.082	836.8
521.481	832.2
521.902	830.2
522.301	833.6
522.722	837
523.121	816
523.542	810.2
523.963	817.6
524.362	812.2
524.783	804.6
525.183	798
525.604	801
526.003	795.8
526.425	786.2
526.824	801.6
527.246	789.2
527.646	794.2
528.067	772.6
528.467	788.8
528.888	777.4
529.289	779.4
529.71	775.6
530.11	762.8
530.532	764.8
530.932	759.4
531.354	753.6
531.755	781.8
532.176	765.2
532.577	751.4
532.999	735.6
533.4	744.6
533.822	750.2
534.223	727.8
534.645	725.4
535.046	729.8
535.468	725.6
535.869	748.6
536.292	728
536.693	749.2
537.115	721.8
537.516	722.2
537.939	715.4
538.34	741.8
538.742	723.6
539.165	717.8
539.566	714.8
539.989	716
540.391	716.4
540.814	712
541.216	711.8
541.639	707.4
542.041	714
542.464	703.6
542.866	686
543.268	692.4
543.691	705.8
544.093	698
544.517	711.6
544.919	691
545.343	694.8
545.745	672.8
546.147	685.8
546.571	672
546.974	668.8
547.398	680
547.8	684
548.224	670
548.627	656.8
549.03	667.6
549.454	652.6
549.857	659.6
550.281	663.8
550.684	651.8
551.087	665.4
551.512	660.2
551.915	665
552.34	655
552.743	659.4
553.146	654.2
553.571	648.2
553.975	663
554.399	642
554.803	681.6
555.207	631.4
555.632	625
556.036	640.2
556.461	633.4
556.865	636.8
557.268	627.8
557.694	628.4
558.098	640
558.502	633.2
558.927	625.6
559.332	624.2
559.736	628
560.162	623.6
560.566	629.4
560.992	623.6
561.396	617.8
561.801	613.8
562.227	617.4
562.631	614.2
563.036	611.8
563.462	626.4
563.867	613.4
564.272	598.4
564.698	611.2
565.103	603.6
565.508	628.4
565.935	600
566.34	596
566.745	618
567.172	607.8
567.577	608
567.982	612.6
568.409	612.2
568.815	592.6
569.22	606.2
569.626	604.8
570.053	590.2
570.459	595.2
570.865	594.6
571.292	592.8
571.698	593.4
572.104	575
572.531	591.4
572.937	601.6
573.343	587.2
573.75	581.4
574.177	588
574.583	590
574.99	582.8
575.396	589.6
575.824	581.6
576.231	584.2
576.637	581
577.065	597.4
577.472	581.8
577.879	574.4
578.286	588.4
578.714	567.8
579.121	569.8
579.528	576.2
579.935	579
580.364	574.6
580.771	566.8
581.178	568
581.585	574.4
582.014	584.2
582.421	565.6
582.829	563
583.236	575.8
583.644	560
584.073	570.4
584.481	569.2
584.889	565.6
585.296	570
585.726	563.6
586.134	551
586.542	561
586.95	578.2
587.358	552.4
587.787	568.2
588.196	547
588.604	557.6
589.012	552.8
589.421	549.4
589.851	555.6
590.259	561.8
590.668	559.8
591.076	586.6
591.485	557
591.894	554.2
592.324	565.8
592.733	564.2
593.142	547.6
593.551	551
593.96	551.4
594.369	546.8
594.8	541
595.209	546.2
595.618	533.4
596.028	545.8
596.437	540.6
596.847	550.4
597.256	552.4
597.687	550.2
598.097	548.4
598.507	533.6
598.917	549
599.327	545.8
599.736	541.6
600.146	556.2
600.556	541.4
600.988	551.2
601.398	537
601.808	553
602.219	529
602.629	547.8
603.039	540.4
603.45	563.2
603.86	540
604.271	550.6
604.703	544.6
605.114	536.2
605.525	538.2
605.935	546.2
606.346	563.8
606.757	543.8
607.168	537.4
607.579	533.4
607.99	546
608.402	545.4
608.813	546.6
609.224	538.6
609.636	527.4
610.047	529.4
610.48	543.4
610.892	539.2
611.303	543
611.715	538.4
612.127	534.2
612.539	533.2
612.95	544.8
613.362	539.2
613.774	526
614.186	531.6
614.599	536
615.011	548.4
615.423	544.8
615.835	531.4
616.248	527.4
616.66	544.8
617.073	536
617.485	536.4
617.898	543.6
618.311	541.8
618.723	539.4
619.136	564.6
619.549	547.4
619.962	558
620.375	541.8
620.788	547
621.201	538
621.614	544.2
622.028	538.4
622.441	539.2
622.854	552.8
623.268	529.2
623.681	546
624.095	545.2
624.509	550.4
624.922	548.2
625.336	534.2
625.728	535.4
626.142	553.2
626.556	554.8
626.97	547.2
627.384	539.8
627.799	535.4
628.213	548.4
628.627	541.4
629.041	544.4
629.456	532.8
629.87	543.4
630.285	541.8
630.699	543.8
631.093	539.2
631.507	549.4
631.922	539.4
632.337	549
632.752	528
633.167	535.6
633.582	535.2
633.997	534.6
634.412	529
634.806	537.6
635.221	523.2
635.637	544.4
636.052	530.6
636.468	533.2
636.883	551
637.299	534.4
637.715	523.6
638.109	527.8
638.525	526.6
638.941	538.8
639.357	529.2
639.773	542.4
640.189	524.4
640.584	530
641	525.6
641.416	519
641.832	524
642.249	521.6
642.665	531.6
643.06	525.4
643.477	529.4
643.894	516.4
644.31	510.6
644.727	525
645.123	522
645.54	525.4
645.957	524
646.374	536.6
646.77	521.2
647.187	544.6
647.604	526
648.021	510.4
648.439	517.4
648.835	523.2
649.252	525
649.67	526.8
650.088	518.2
650.484	527.6
650.902	523.6
651.32	530.8
651.738	516
652.134	517.6
652.552	529.8
652.971	521.6
653.389	515.8
653.786	534.4
654.204	523.4
654.622	507.6
655.019	522.4
655.438	524.6
655.857	521.4
656.275	520
656.673	514
657.091	529.4
657.51	518
657.908	531.8
658.327	532
658.746	506.4
659.144	524.6
659.563	531.2
659.982	528.8
660.38	506
660.8	513.6
661.219	526.6
661.617	519.4
662.037	514.6
662.457	531.8
662.855	502
663.275	537.8
663.695	514
664.094	523.4
664.514	514.6
664.934	517
665.333	523.6
665.753	516.6
666.152	502.8
666.572	510.2
666.993	524.4
667.392	513.8
667.812	502.4
668.212	515.2
668.632	516.2
669.053	512.8
669.453	515.4
669.874	515.6
670.273	516
670.694	516
671.116	519.4
671.515	522.2
671.937	511.8
672.337	509
672.758	508.8
673.158	518.2
673.58	503
673.98	511.6
674.402	519.8
674.824	515
675.224	507.2
675.646	504.6
676.047	505.8
676.469	505.8
676.869	515.6
677.292	510
677.693	507.6
678.115	512.4
678.516	514.4
678.939	521.4
679.34	507
679.762	527
680.164	508.4
680.586	506.4
680.988	509.2
681.411	518.2
681.812	511.4
682.236	505.4
682.637	504
683.061	502.6
683.462	515
683.864	519.4
684.288	512.2
684.69	502.6
685.114	513.6
685.516	521.4
685.94	499.2
686.342	516.8
686.766	507.2
687.168	504.8
687.571	523.6
687.995	513.8
688.398	501
688.822	508.2
689.225	526.4
689.628	525.4
690.052	507.2
690.456	523.6
690.88	513.6
691.284	500.2
691.687	510.6
692.112	513.6
692.515	504.4
692.919	509
693.344	499.2
693.747	503.4
694.173	505
694.577	518.2
694.98	499.8
695.406	499.8
695.81	506
696.214	513
696.64	505
697.044	508.4
697.448	511.2
697.874	500.2
698.279	506.8
698.684	495.2
699.11	495
699.514	508.4
699.919	497.8
700.324	501.4
700.75	511.6
701.156	504
701.561	517.4
701.987	512.8
702.393	514.2
702.798	513
703.203	507.2
703.63	504.2
704.036	504.4
704.442	509.6
704.847	509
705.274	503.4
705.68	514.6
706.086	515
706.492	493.4
706.92	499.6
707.326	511.6
707.732	502.8
708.139	495.8
708.545	499
708.973	499.8
709.38	501
709.786	496.4
710.193	515.8
710.6	504.4
711.028	493.6
711.435	497.4
711.842	503.8
712.249	501.2
712.656	502.6
713.064	510.8
713.492	490
713.9	508.8
714.307	500.8
714.715	504.4
715.123	507.4
715.53	510.8
715.938	510.4
716.367	508
716.775	511.4
717.184	502.2
717.592	505.2
718	508.8
718.408	534.8
718.816	536.8
719.225	508.8
719.633	506.4
720.042	495
720.472	501.8
720.881	516
721.29	511.4
721.699	496
722.108	508.6
722.517	506.2
722.926	500
723.335	513.8
723.744	506.6
724.154	504.2
724.563	502.8
724.973	512.8
725.382	511.2
725.792	495.2
726.202	496.2
726.612	511
727.022	506.2
727.432	504.2
779.813	500.6
780.223	547.6
780.634	506.6
781.044	492.8
781.454	505.4
781.865	512.4
782.276	496.8
782.686	512.6
783.097	510.2
783.508	512.6
783.919	511.4
784.33	511.2
784.741	519.2
785.152	504.4
785.563	499.8
785.974	500.4
786.386	507
786.776	502.8
787.188	500.2
787.599	495.8
788.011	509.4
788.423	502.4
788.835	496.2
789.247	498.6
789.659	497.8
790.071	496.8
790.483	536.2
790.874	500.2
791.286	504.8
791.699	496.8
792.111	504
792.524	507.2
792.937	504.2
793.349	501.4
793.741	497
794.154	495.2
794.567	512.2
794.98	497.2
795.393	491.4
795.785	508.8
796.198	498.8
796.612	508.4
797.026	497
797.439	485.8
797.831	511
798.245	494.8
798.659	497.8
799.073	499.6
799.487	495.4
799.88	497.8
800.294	493
800.708	509
801.123	500
801.516	514.2
801.93	489.8
802.345	487
802.76	494.6
803.153	513.2
803.568	512.6
803.983	512.4
804.377	505.2
804.792	496
805.207	490.4
805.601	506.4
806.016	531
806.432	491.8
806.826	531.8
807.242	511.4
807.658	502.4
808.052	495.2
808.468	509.4
808.884	498.6
809.279	498.8
809.695	514.8
810.111	518
810.506	510.2
810.922	509.8
811.339	506
811.734	503.2
812.151	501.6
812.546	491.6
812.963	502.6
813.38	506.2
813.776	506.8
814.193	511
814.589	501.4
815.006	501.8
815.402	495.6
815.82	487.2
816.237	503.4
816.633	494.6
817.051	500.2
817.448	500.2
817.866	491
818.262	516.8
818.68	492.6
819.077	499.6
819.495	499.8
819.892	532.2
820.311	500
820.708	491.8
821.127	498.8
821.524	512.8
821.943	504.4
822.34	519.6
822.759	502.8
823.157	502.4
823.576	512
823.974	505.6
824.393	550.2
824.791	494.2
825.189	490.2
825.609	499.2
826.007	502
826.427	491.2
826.826	497.2
827.246	504.6
827.644	498
828.043	504.4
828.463	500.4
828.862	504.4
829.261	505.2
829.682	491.8
830.081	508.6
830.502	495.4
830.901	501.6
831.301	500.2
831.722	492.8
832.121	508.4
832.521	496.2
832.943	497.6
833.342	499
833.742	499.8
834.164	496
834.564	491
834.965	498.4
835.386	495.4
835.787	501
836.188	508.2
836.588	505.4
837.01	494.4
837.411	491.6
837.812	503.4
838.213	508
838.636	495.4
839.037	555.2
839.438	501
839.84	502.4
840.263	504.8
840.664	502.2
841.066	500.2
841.468	495.2
841.891	493.8
842.293	509.4
842.695	498.8
843.098	507.6
843.5	495.2
843.902	502.2
844.326	500.6
844.729	503.2
845.131	509.6
845.534	503.2
845.937	511
846.34	518.8
846.764	499.2
847.167	504
847.571	489.4
847.974	498.4
848.377	495.6
848.781	532.8
849.184	503
849.588	498
849.992	499.2
850.396	501.2
850.821	514.2
