#lambda/nm	C1
208.295	462.4
208.67	430.8
209.045	391.6
209.419	400
209.794	539.4
210.169	525.2
210.544	628.8
210.919	543.2
211.295	523.2
211.67	535.4
212.045	544
212.421	524.6
212.796	564.4
213.172	536.4
213.547	540
213.923	534.4
214.299	530.6
214.675	540
215.051	541.4
215.427	550
215.803	549.6
216.179	542.6
216.555	531.4
216.932	548
217.308	532.4
217.684	538.4
218.061	545.6
218.438	548.8
218.814	533
219.191	551.4
219.568	532.2
219.945	534
220.322	538.4
220.699	542.2
221.076	545.4
221.453	539.2
221.83	526.6
222.208	526.6
222.585	529.4
222.962	538
223.34	533
223.717	534
224.095	544.2
224.473	537.6
224.851	531.8
225.229	528.2
225.607	552.2
225.985	525.2
226.363	538
226.741	537
227.119	532.6
227.497	547.8
227.876	525.6
228.254	535.2
228.633	549.4
229.011	546.8
229.39	538.4
229.769	541.4
230.148	552.2
230.527	555
230.905	540.2
231.284	542.2
231.664	535.6
232.043	547.2
232.422	547.8
232.801	534.6
233.181	533
233.56	537.2
233.94	540.6
234.319	529.4
234.699	539.2
235.079	578
235.458	573.8
235.838	555.6
236.218	534
236.598	539.8
236.978	532
237.358	529.6
237.738	532.4
238.119	544.6
238.499	529.6
238.88	539.8
239.26	546.8
239.641	520.4
240.021	525
240.402	542
240.783	532.4
241.163	539
241.544	537.2
241.925	533.4
242.306	553.8
242.687	532.4
243.069	534.8
243.45	540
243.831	539.2
244.212	532.4
244.594	566.2
244.975	549
245.357	547.6
245.739	530
246.12	543.2
246.502	549.2
246.884	538.8
247.266	534.2
247.648	538.2
248.03	564.4
248.412	528.4
248.794	539.6
249.176	536.8
249.559	544.6
249.941	531
250.323	520.6
250.706	530.8
251.089	540.8
251.471	541.6
251.854	531.6
252.237	537.2
252.62	547
253.002	545
253.385	534
253.769	552.6
254.152	537.6
254.535	538.8
254.918	530.8
255.301	534
255.685	534.4
256.068	530.8
256.452	552.8
256.835	548.6
257.219	541.6
257.603	543.4
257.986	530.8
258.37	534
258.754	528
259.138	541.8
259.522	540.2
259.906	534.4
260.29	543
260.675	536
261.059	537.4
261.443	525.2
261.828	534.6
262.212	539.6
262.597	529.6
262.981	532.6
263.366	542
263.751	534.6
264.136	531.2
264.521	533.4
264.906	530.8
265.291	546
265.676	531.8
266.061	548.8
266.446	557.8
266.831	549.6
267.217	554.8
267.602	541.8
267.987	539
268.373	537
268.759	542.2
269.144	537.8
269.53	542.6
269.916	527.8
270.302	536.2
270.688	542
271.074	548.6
271.46	545.6
271.846	568
272.232	547
272.618	534.2
273.004	537
273.391	548.2
273.777	546.4
274.164	538.8
274.55	555
274.937	538.6
275.324	528.8
275.71	548.6
276.097	544
276.484	532.4
276.871	546.4
277.258	543.8
277.645	522.4
278.032	540.6
278.419	534
278.807	544.2
279.194	540.2
279.581	532.2
279.969	546.2
280.356	534.4
280.744	533.6
281.131	561.2
281.519	544.2
281.907	543.6
282.295	542
282.682	545
283.07	539.4
283.458	545.8
283.846	547
284.235	551.2
284.623	542.8
285.011	525.4
285.399	537.6
285.788	533.8
286.176	526.2
286.565	555.4
286.953	529.4
287.342	534.2
287.731	527.6
288.119	528
288.508	539.6
288.897	541.4
289.286	530
289.675	541.8
290.064	541.4
290.453	541.2
290.821	530.6
291.21	543.8
291.599	533.6
291.989	549
292.378	542.2
292.768	550.8
293.157	545.4
293.547	547.4
293.936	537.2
294.326	533.2
294.716	536.4
295.106	541
295.496	540.2
295.886	540.4
296.276	541.8
296.666	532.2
297.056	535.4
297.446	533.4
297.836	558.6
298.227	544.8
298.617	538.8
299.008	548
299.398	530.2
299.789	529.8
300.179	537.2
300.57	550.2
300.961	527
301.352	530.8
301.742	541.6
302.133	536.8
302.524	533.4
302.915	537.4
303.307	530.2
303.698	544.4
304.089	546.6
304.48	536.8
304.872	549.8
305.263	530.2
305.655	531.6
306.046	541.2
306.438	539.6
306.829	528.4
307.221	538.2
307.613	541.4
308.005	541.6
308.397	542.8
308.789	553.8
309.181	555.8
309.573	554.4
309.965	544.2
310.357	542.2
310.749	545
311.142	526.8
311.534	531.6
311.926	542.2
312.319	537.2
312.711	529.2
313.104	551
313.497	534.2
313.889	569.8
314.282	554
314.675	554.8
315.068	540.6
315.461	548.4
315.854	561.8
316.247	544
316.64	539
317.033	541.2
317.405	541.6
317.798	531.4
318.192	550.6
318.585	530
318.979	540.2
319.372	538
319.766	535.2
320.16	548.2
320.553	551.4
320.947	556.4
321.341	538.4
321.735	539
322.129	531.6
322.523	553.4
322.917	525.2
323.311	536
323.705	537.4
324.099	538
324.494	545.2
324.888	544.8
325.282	537.2
325.677	552.6
326.071	538.4
326.466	549.8
326.861	538.2
327.255	549.8
327.65	547.6
328.045	549.6
328.44	541.8
328.835	540.2
329.23	530
329.625	560
330.02	536.8
330.415	561.6
330.81	544
331.206	540
331.601	533.2
331.996	552.4
332.37	555.6
332.766	526.8
333.161	548
333.557	533.4
333.953	536.8
334.348	889.2
334.744	538.8
335.14	535.6
335.536	534.2
335.932	546.4
336.328	533.8
336.724	540.6
337.12	535.6
337.516	534.4
337.913	527.8
338.309	550
338.705	529.2
339.102	542.6
339.498	533.4
339.895	544.6
340.291	528.8
340.688	546.2
341.085	528
341.481	525.6
341.878	545.2
342.275	549.8
342.672	533.8
343.069	529
343.466	521.6
343.842	543.2
344.239	534.4
344.636	537
345.033	524
345.431	535.4
345.828	533.4
346.225	525.6
346.623	559.8
347.02	529.4
347.418	544.2
347.816	547.2
348.213	527.2
348.611	538
349.009	533
349.407	554.2
349.805	524.6
350.203	523.6
350.601	543.8
350.999	534.4
351.397	579.4
351.795	534.2
352.193	536.4
352.57	535.6
352.969	542
353.367	524.4
353.766	526.8
354.164	533.6
354.563	540.6
354.961	532.2
355.36	536.2
355.759	536.8
356.158	525.2
356.557	528
356.956	520.2
357.355	517
357.754	532
358.153	536
358.552	551.6
358.951	528.6
359.35	537.2
359.75	522.8
360.149	521
360.527	521.2
360.926	519.4
361.326	529.2
361.726	530.4
362.125	527
362.525	540.4
362.925	523.2
363.325	534.8
363.724	541.8
364.124	525.6
364.524	531.4
364.924	529.4
365.324	544.8
365.725	524.2
366.125	540
366.525	530
366.904	527
367.304	523
367.705	542.2
368.105	542.4
368.506	529.6
368.906	530.6
369.307	524.8
369.708	528.2
370.108	524.2
370.509	532.4
370.91	517.6
371.311	532
371.712	537.4
372.113	534.2
372.514	523.6
372.894	528.8
373.295	526.4
373.696	542.4
374.097	541.4
374.499	547
374.9	534.6
375.301	527.6
375.703	536.6
376.105	530.2
376.506	533.6
376.908	531
377.309	532.8
377.711	529.2
378.113	525.6
378.493	532.8
378.895	515.2
379.297	538.4
379.699	518.4
380.102	533.8
380.504	533.4
380.906	523.4
381.308	549.2
381.71	535.4
382.113	530.4
382.515	531.6
382.918	535.8
383.299	529.6
383.701	533.8
384.104	535
384.507	527.4
384.909	530.8
385.312	519.8
385.715	522.6
386.118	533.2
386.521	518.8
386.924	540.6
387.327	526.6
387.709	522
388.112	522.6
388.515	530.2
388.918	520.8
389.322	524
389.725	532.6
390.129	542.8
390.532	530.6
390.936	521.6
391.339	524.2
391.743	537.4
392.125	527
392.529	547
392.933	544.8
393.337	527.8
393.74	530
394.144	530.8
394.548	526.8
394.953	531.8
395.357	528
395.761	527
396.144	531.8
396.548	521.6
396.952	524.6
397.357	527.2
397.761	524.6
398.166	524
398.57	529.8
398.975	514.4
399.379	527
399.763	564.4
400.168	523.6
400.572	515.2
400.977	524.2
401.382	546
401.787	535.4
402.192	539.2
402.597	533.8
403.002	515.8
403.386	532.4
403.791	535
404.197	523.2
404.602	521.6
405.007	531.6
405.413	522.6
405.818	533.8
406.224	522
406.608	522.2
407.014	518
407.42	542.6
407.825	526.2
408.231	545
408.637	535.4
409.043	541.2
409.449	520.2
409.834	520.2
410.24	529
410.646	541.6
411.052	536.4
411.458	533.2
411.865	532.2
412.271	532.8
412.677	528.4
413.062	532.2
413.469	531.2
413.875	550.8
414.282	536.6
414.689	532.4
415.095	534.2
415.502	523.6
415.888	534.6
416.294	520.8
416.701	557.6
417.108	530.4
417.515	536
417.923	534
418.33	548.8
418.715	539.8
419.123	525
419.53	527.6
419.937	527
420.345	540.6
420.752	524
421.16	542.2
421.546	534.2
421.953	542.2
422.361	523.8
422.769	530.8
423.177	523.2
423.585	542.6
423.992	541.8
424.379	534.4
424.787	539.8
425.195	549.8
425.603	530.4
426.011	546.6
426.419	541.8
426.806	540.2
427.214	544.6
427.623	554
428.031	552
428.44	546
428.848	565.6
429.235	562.6
429.644	556.6
430.053	567.6
430.461	582.4
430.87	602.2
431.279	603.8
431.666	604.6
432.075	616.2
432.484	636.6
432.893	650.8
433.302	678.4
433.711	703.4
434.099	703.4
434.508	709.2
434.918	722.6
435.327	770.2
435.737	779.2
436.125	797.4
436.534	822.6
436.944	847
437.353	870.2
437.763	908.2
438.173	895.6
438.561	933.6
438.971	936.6
439.381	967.4
439.791	988.8
440.201	1007.6
440.589	1021.4
440.999	1036.8
441.409	1062
441.819	1053.4
442.23	1106.4
442.619	1102
443.029	1102.4
443.439	1122.6
443.85	1126.8
444.26	1146.6
444.649	1147.4
445.06	1170
445.471	1181
445.881	1209.8
446.292	1201
446.682	1224.6
447.092	1188.4
447.503	1272.2
447.914	1236.8
448.325	1235.2
448.715	1232.2
449.126	1227.2
449.537	1235.6
449.948	1242.4
450.338	1253.6
450.75	1275
451.161	1270.4
451.572	1286.2
451.984	1267.4
452.374	1276.6
452.786	1286.4
453.197	1294
453.609	1308.4
453.999	1278.4
454.411	1280.2
454.823	1310.2
455.235	1305.2
455.647	1288.4
456.037	1300.2
456.449	1289.8
456.862	1320.2
457.274	1320.4
457.665	1311.8
458.077	1303.8
458.489	1343
458.902	1318.2
459.293	1310.4
459.705	1306.4
460.118	1315
460.53	1324.4
460.921	1327.6
461.334	1327.8
461.747	1332.4
462.16	1339.4
462.551	1345.8
462.964	1330
463.377	1315
463.79	1323.6
464.182	1333
464.595	1305.4
465.008	1327.4
465.421	1329.6
465.813	1306
466.226	1320.6
466.64	1316
467.053	1355
467.445	1363
467.859	1362
468.272	1326.8
468.686	1359.6
469.078	1326.4
469.492	1321.6
469.906	1335
470.298	1325.6
470.712	1329.4
471.126	1348.2
471.54	1322.6
471.933	1322
472.347	1343
472.761	1319.4
473.175	1307
473.568	1316.4
473.982	1309.6
474.397	1306.6
474.79	1301.4
475.204	1319.2
475.619	1287.6
476.033	1290.2
476.426	1285.6
476.841	1274.8
477.256	1294.2
477.649	1254.8
478.064	1254.4
478.479	1257.6
478.872	1264.2
479.287	1253.6
479.702	1255.6
480.118	1245.6
480.511	1258.4
480.927	1259.4
481.342	1230.4
481.736	1233.6
482.151	1230.4
482.566	1241.2
482.96	1241.6
483.376	1224.8
483.792	1218.2
484.186	1217.4
484.602	1220.4
485.017	1202.2
485.412	1203.2
485.827	1200
486.243	1190.2
486.638	1221.8
487.054	1185
487.47	1207.2
487.865	1173.8
488.281	1172.8
488.697	1169
489.092	1155.2
489.508	1144.8
489.925	1174.4
490.32	1138.8
490.736	1152.8
491.153	1143.4
491.548	1141.6
491.964	1152.8
492.381	1113.6
492.776	1130.6
493.193	1119.2
493.61	1114.2
494.006	1110.4
494.422	1099
494.84	1096.6
495.235	1100.2
495.652	1091.2
496.069	1089.2
496.465	1062.8
496.883	1069.4
497.3	1089.6
497.696	1054
498.113	1058.8
498.509	1055.2
498.927	1046.8
499.344	1030.4
499.741	1037.2
500.158	1041.8
500.576	1047
500.973	1018.2
501.39	1010.2
501.787	1004.4
502.205	1010.4
502.623	1006.4
503.02	971
503.438	989
503.856	991.2
504.253	976.2
504.671	982
505.068	966
505.486	973.2
505.905	976.6
506.302	952.4
506.72	975.2
507.118	949.4
507.536	956.6
507.955	951.4
508.352	946
508.771	934
509.169	929.6
509.587	935.8
510.006	923
510.404	911.6
510.823	904.6
511.221	908.8
511.64	902.4
512.038	905.8
512.457	902.2
512.877	900.6
513.275	892.6
513.694	869
514.092	877.6
514.512	885
514.91	877.4
515.33	851.6
515.749	868.6
516.148	859.6
516.568	863.4
516.966	852.8
517.386	834.4
517.785	837.8
518.205	839.6
518.603	844.8
519.024	838.8
519.444	834.8
519.843	830.4
520.263	838
520.662	838.4
521.082	814.6
521.481	818.8
521.902	816.8
522.301	804
522.722	805
523.121	800.4
523.542	798.8
523.963	796.8
524.362	795
524.783	793.2
525.183	797.6
525.604	781.2
526.003	773.2
526.425	780.4
526.824	786
527.246	778.6
527.646	778.6
528.067	776.2
528.467	761.2
528.888	766
529.289	767
529.71	764.6
530.11	745.6
530.532	747.2
530.932	743.6
531.354	732
531.755	763.6
532.176	748.8
532.577	735.8
532.999	730.6
533.4	738.4
533.822	733.6
534.223	727
534.645	725.2
535.046	720.2
535.468	713.2
535.869	725.8
536.292	709
536.693	748
537.115	724.6
537.516	719.4
537.939	704.6
538.34	725.4
538.742	715.6
539.165	710
539.566	703
539.989	695.2
540.391	692.2
540.814	700.4
541.216	701.4
541.639	686.6
542.041	697.2
542.464	684.8
542.866	679.6
543.268	678.8
543.691	686
544.093	686.6
544.517	694.6
544.919	669.8
545.343	698
545.745	677
546.147	672.2
546.571	672.2
546.974	670.4
547.398	673.6
547.8	673.6
548.224	656.8
548.627	648
549.03	657.2
549.454	654
549.857	644.6
550.281	650.2
550.684	647.8
551.087	659.8
551.512	646.4
551.915	654.2
552.34	646.6
552.743	633.2
553.146	646.8
553.571	638.6
553.975	653.6
554.399	636.6
554.803	674
555.207	637
555.632	629.6
556.036	627
556.461	620.6
556.865	635.4
557.268	619
557.694	628.4
558.098	635.4
558.502	639.4
558.927	621.8
559.332	623
559.736	624.2
560.162	623.8
560.566	620
560.992	622.2
561.396	619.8
561.801	617.8
562.227	613.4
562.631	608.8
563.036	607.4
563.462	620.8
563.867	606.2
564.272	594.2
564.698	611.4
565.103	594.4
565.508	623.8
565.935	603.4
566.34	603.8
566.745	610.2
567.172	596.8
567.577	612.4
567.982	607
568.409	597.4
568.815	588
569.22	591
569.626	601.6
570.053	585.6
570.459	590.2
570.865	594.4
571.292	591.4
571.698	590.2
572.104	572
572.531	585
572.937	588
573.343	585
573.75	576.2
574.177	585.8
574.583	587
574.99	580.4
575.396	586.8
575.824	577.8
576.231	578
576.637	567.6
577.065	596.8
577.472	580.6
577.879	580.6
578.286	588.2
578.714	579.4
579.121	563.2
579.528	580.8
579.935	577.2
580.364	574.2
580.771	563.8
581.178	566.6
581.585	573.4
582.014	569.2
582.421	572.4
582.829	562.4
583.236	572.4
583.644	556.4
584.073	568.2
584.481	562.6
584.889	563.2
585.296	567.8
585.726	562.6
586.134	556
586.542	555
586.95	566.2
587.358	558.2
587.787	559.8
588.196	547.8
588.604	558
589.012	551.4
589.421	551.2
589.851	549.6
590.259	550.2
590.668	545
591.076	582.4
591.485	547.8
591.894	557
592.324	558.2
592.733	556.8
593.142	543.8
593.551	549
593.96	546.4
594.369	549
594.8	538
595.209	540
595.618	529.4
596.028	535.8
596.437	537
596.847	542.2
597.256	543.8
597.687	543.8
598.097	542.6
598.507	528.4
598.917	535
599.327	548
599.736	547.4
600.146	548.8
600.556	543
600.988	549.2
601.398	539.4
601.808	551.4
602.219	527.6
602.629	537.4
603.039	542
603.45	556.8
603.86	540
604.271	543.6
604.703	538.8
605.114	527.2
605.525	544.4
605.935	540.4
606.346	556
606.757	534.8
607.168	533
607.579	532.6
607.99	540.6
608.402	538
608.813	528.4
609.224	529.8
609.636	534
610.047	521.8
610.48	536
610.892	542.4
611.303	540.2
611.715	533.8
612.127	526.6
612.539	529.4
612.95	536.4
613.362	524.6
613.774	529.6
614.186	530.4
614.599	528
615.011	538.8
615.423	533.6
615.835	529.6
616.248	529
616.66	541
617.073	535.8
617.485	534.8
617.898	539.2
618.311	532.4
618.723	536.8
619.136	555.2
619.549	550.6
619.962	559.2
620.375	539.2
620.788	539.4
621.201	534
621.614	546
622.028	532.6
622.441	543
622.854	543
623.268	537
623.681	546.4
624.095	532.8
624.509	540.2
624.922	542.8
625.336	530.8
625.728	533.8
626.142	537.8
626.556	546.8
626.97	535.8
627.384	530.6
627.799	535.6
628.213	541.8
628.627	529.6
629.041	527
629.456	537.6
629.87	532.4
630.285	545.6
630.699	545.4
631.093	533.4
631.507	545.8
631.922	536.6
632.337	543.6
632.752	533.6
633.167	540.8
633.582	530.6
633.997	529.8
634.412	532.8
634.806	532.8
635.221	522.2
635.637	536.2
636.052	523.6
636.468	530.6
636.883	549
637.299	530.6
637.715	521
638.109	536.6
638.525	512.8
638.941	534.2
639.357	527
639.773	541
640.189	524
640.584	521
641	528.4
641.416	519.8
641.832	530.6
642.249	521.8
642.665	524
643.06	529.2
643.477	529.4
643.894	512.6
644.31	524
644.727	524.4
645.123	521
645.54	510
645.957	528.8
646.374	532.2
646.77	520.8
647.187	547.4
647.604	519.4
648.021	517.6
648.439	517.6
648.835	533.8
649.252	527.8
649.67	522.6
650.088	527.6
650.484	530.2
650.902	527.2
651.32	524.2
651.738	521.4
652.134	517.2
652.552	538.4
652.971	527.4
653.389	527
653.786	528.4
654.204	525.4
654.622	517.8
655.019	525.8
655.438	526.8
655.857	517.6
656.275	520.8
656.673	521.2
657.091	524.4
657.51	508.4
657.908	525.2
658.327	531
658.746	515.8
659.144	523.8
659.563	533.4
659.982	519
660.38	505.8
660.8	514.8
661.219	531
661.617	519.6
662.037	524.2
662.457	522
662.855	503.8
663.275	535
663.695	514.6
664.094	515
664.514	525.2
664.934	509
665.333	520.2
665.753	513
666.152	514.4
666.572	514.8
666.993	524.8
667.392	516.2
667.812	514.2
668.212	517.4
668.632	519
669.053	509
669.453	520.2
669.874	521.8
670.273	521.4
670.694	513.2
671.116	522.2
671.515	525.2
671.937	503.8
672.337	508.8
672.758	512.6
673.158	518.2
673.58	507.8
673.98	508.6
674.402	522.6
674.824	510.4
675.224	508.8
675.646	501.6
676.047	513
676.469	518.4
676.869	514.6
677.292	510.6
677.693	505
678.115	512.4
678.516	523.8
678.939	516.6
679.34	517
679.762	518
680.164	521.2
680.586	502.4
680.988	513.2
681.411	533.6
681.812	507.6
682.236	498
682.637	510
683.061	503
683.462	507.8
683.864	506
684.288	521.8
684.69	505.2
685.114	524.8
685.516	514
685.94	497.2
686.342	521.6
686.766	511.2
687.168	507.4
687.571	518
687.995	511.6
688.398	503
688.822	506
689.225	516.6
689.628	528.2
690.052	505.2
690.456	513
690.88	504.4
691.284	504.6
691.687	519.2
692.112	499.4
692.515	498.6
692.919	508.4
693.344	501
693.747	500.8
694.173	504
694.577	518.6
694.98	509.2
695.406	509
695.81	512.6
696.214	504.4
696.64	511.6
697.044	509.8
697.448	516.2
697.874	514.6
698.279	507.4
698.684	494.4
699.11	499.4
699.514	503
699.919	503
700.324	504.6
700.75	505.8
701.156	505.6
701.561	512.4
701.987	512
702.393	521.6
702.798	520
703.203	502.8
703.63	504
704.036	504.6
704.442	501
704.847	499.6
705.274	508.6
705.68	514
706.086	516.2
706.492	494.8
706.92	504
707.326	516
707.732	497.4
708.139	499.6
708.545	495.4
708.973	503.4
709.38	504.4
709.786	498.6
710.193	511
710.6	507.4
711.028	493.4
711.435	508.2
711.842	505.8
712.249	504.4
712.656	504
713.064	510.8
713.492	503
713.9	499.8
714.307	509.8
714.715	504
715.123	513.2
715.53	508
715.938	512.2
716.367	508.6
716.775	503.6
717.184	500.4
717.592	507.8
718	517
718.408	537.6
718.816	543
719.225	512.8
719.633	509.4
720.042	502
720.472	507.8
720.881	525.8
721.29	504.6
721.699	491.6
722.108	511.6
722.517	501
722.926	496.4
723.335	512.2
723.744	503.6
724.154	502.4
724.563	504.8
724.973	506.2
725.382	509.6
725.792	509.2
726.202	503
726.612	519.4
727.022	505
727.432	506.4
779.813	506.8
780.223	537.8
780.634	501
781.044	499.2
781.454	499.4
781.865	521.6
782.276	505.4
782.686	507.4
783.097	506.6
783.508	501
783.919	509.6
784.33	508.4
784.741	510.8
785.152	494.4
785.563	497.4
785.974	497.6
786.386	509.4
786.776	502
787.188	504.2
787.599	501
788.011	514
788.423	506.2
788.835	501.4
789.247	498.8
789.659	495.6
790.071	501.4
790.483	539.6
790.874	501.6
791.286	508.2
791.699	498.6
792.111	501.8
792.524	504.8
792.937	513.4
793.349	494.8
793.741	499.6
794.154	501.4
794.567	519.2
794.98	498.4
795.393	496.4
795.785	517.2
796.198	503.2
796.612	502
797.026	503.8
797.439	483.4
797.831	497.8
798.245	493.6
798.659	495.4
799.073	502
799.487	498.8
799.88	501.8
800.294	511
800.708	505.8
801.123	510
801.516	513.4
801.93	491
802.345	504.6
802.76	497
803.153	511.2
803.568	519
803.983	511.2
804.377	505
804.792	497.4
805.207	501.2
805.601	507.4
806.016	537.2
806.432	498.4
806.826	527
807.242	515.6
807.658	504
808.052	502.2
808.468	498.6
808.884	498.4
809.279	501.2
809.695	520.2
810.111	519.6
810.506	507
810.922	521.8
811.339	497.4
811.734	507.8
812.151	505.2
812.546	504.8
812.963	497.2
813.38	507.6
813.776	504.4
814.193	514.6
814.589	505
815.006	503.8
815.402	494.2
815.82	497
816.237	502.6
816.633	512.4
817.051	500.6
817.448	502.8
817.866	499.2
818.262	516.6
818.68	500.2
819.077	492.6
819.495	502.6
819.892	536.4
820.311	502.6
820.708	508.2
821.127	501.6
821.524	506.2
821.943	503.8
822.34	516
822.759	505.2
823.157	501.4
823.576	514.2
823.974	516
824.393	560.2
824.791	505.6
825.189	495.2
825.609	501.2
826.007	507
826.427	494.6
826.826	495.8
827.246	501.4
827.644	493.8
828.043	505.8
828.463	496
828.862	508.2
829.261	511.8
829.682	488.4
830.081	504.8
830.502	499.8
830.901	505.6
831.301	488.2
831.722	491
832.121	501
832.521	491
832.943	497
833.342	501.6
833.742	492.8
834.164	498.8
834.564	491.8
834.965	494.4
835.386	494.2
835.787	498.6
836.188	497.6
836.588	497.8
837.01	507.2
837.411	495.4
837.812	511.6
838.213	498.6
838.636	495.2
839.037	551.6
839.438	504.2
839.84	500.4
840.263	497.8
840.664	504
841.066	487.4
841.468	501
841.891	498
842.293	512.4
842.695	498.2
843.098	502
843.5	489.2
843.902	500.6
844.326	505.8
844.729	502
845.131	509
845.534	505.2
845.937	507.6
846.34	509.8
846.764	491.2
847.167	495.2
847.571	492.2
847.974	494.8
848.377	497.4
848.781	538.6
849.184	514.6
849.588	497.2
849.992	497
850.396	500
850.821	517.6
851.225	500.2
851.63	501.2
852.034	507
852.438	506.6
852.843	565.2
