#lambda/nm	C1
208.295	465.2
208.67	436.2
209.045	393.4
209.419	403.6
209.794	546.6
210.169	529.6
210.544	633.4
210.919	537.4
211.295	530.6
211.67	544.4
212.045	539
212.421	538.8
212.796	574.4
213.172	530.2
213.547	541.8
213.923	531
214.299	537.8
214.675	543
215.051	537
215.427	548
215.803	551.6
216.179	548.4
216.555	530
216.932	546.8
217.308	544.4
217.684	538.4
218.061	548
218.438	542.8
218.814	528.8
219.191	541.2
219.568	532.8
219.945	534.4
220.322	541.2
220.699	536.4
221.076	542.2
221.453	543.8
221.83	539.8
222.208	536.8
222.585	536
222.962	539.8
223.34	540.6
223.717	538.8
224.095	537
224.473	543.4
224.851	532
225.229	533.8
225.607	552.8
225.985	530.8
226.363	533.6
226.741	536.8
227.119	534.6
227.497	558.6
227.876	528
228.254	541.2
228.633	542.8
229.011	545.2
229.39	547
229.769	535.8
230.148	549.2
230.527	553.8
230.905	538.4
231.284	535.8
231.664	532.2
232.043	546.8
232.422	537.8
232.801	533.8
233.181	540.8
233.56	536.8
233.94	531.2
234.319	528.6
234.699	535.6
235.079	569.8
235.458	570.6
235.838	554.6
236.218	535.2
236.598	533.4
236.978	532.2
237.358	542.4
237.738	537.8
238.119	549.8
238.499	531
238.88	542.4
239.26	559
239.641	530.2
240.021	543.8
240.402	539
240.783	534.4
241.163	542.6
241.544	548
241.925	546.8
242.306	553.4
242.687	530.2
243.069	541.6
243.45	549.2
243.831	538.4
244.212	544
244.594	571
244.975	548
245.357	541.6
245.739	541.2
246.12	534.6
246.502	551.8
246.884	538
247.266	539.6
247.648	535.6
248.03	557.4
248.412	541.2
248.794	544.2
249.176	541.2
249.559	541
249.941	526.4
250.323	530.2
250.706	532.6
251.089	538.2
251.471	541.2
251.854	532.6
252.237	534.6
252.62	543
253.002	539.2
253.385	537.8
253.769	550
254.152	539.4
254.535	541.4
254.918	532.2
255.301	542.4
255.685	540
256.068	538
256.452	562.4
256.835	543.4
257.219	547.4
257.603	548.2
257.986	537.6
258.37	545.6
258.754	536.2
259.138	546.6
259.522	546.6
259.906	534.6
260.29	546
260.675	544.4
261.059	537
261.443	529.6
261.828	543.8
262.212	542.2
262.597	531.4
262.981	536.6
263.366	537
263.751	534.8
264.136	533.8
264.521	535.6
264.906	538.6
265.291	544.2
265.676	531.2
266.061	545.2
266.446	544.2
266.831	536.8
267.217	549
267.602	537.2
267.987	541
268.373	540.8
268.759	550
269.144	538.2
269.53	544.6
269.916	542.8
270.302	541.6
270.688	547.6
271.074	537.4
271.46	550
271.846	566.6
272.232	537.2
272.618	534.4
273.004	539.6
273.391	551.6
273.777	552
274.164	543.6
274.55	548.6
274.937	549.2
275.324	541.8
275.71	541.6
276.097	538.4
276.484	539
276.871	543.6
277.258	548.2
277.645	530.8
278.032	538.6
278.419	539.4
278.807	543.8
279.194	540.4
279.581	529.4
279.969	552
280.356	543.6
280.744	530.4
281.131	565
281.519	539.8
281.907	537.4
282.295	535.4
282.682	552.4
283.07	539.6
283.458	543.2
283.846	551
284.235	545.8
284.623	543.4
285.011	527.6
285.399	548.4
285.788	539.2
286.176	534.4
286.565	553
286.953	532.4
287.342	538.8
287.731	527.6
288.119	535.8
288.508	541.6
288.897	541.2
289.286	534
289.675	532
290.064	541.8
290.453	529.8
290.821	539.2
291.21	551.8
291.599	535.4
291.989	536
292.378	539
292.768	547.8
293.157	540.4
293.547	553.6
293.936	535.4
294.326	540.8
294.716	538.8
295.106	537.4
295.496	539.6
295.886	543.2
296.276	542.4
296.666	538
297.056	531
297.446	527.6
297.836	553.2
298.227	544.4
298.617	534.8
299.008	550
299.398	533.4
299.789	529.4
300.179	534.2
300.57	538.8
300.961	539.2
301.352	535.2
301.742	545.6
302.133	538
302.524	532
302.915	526
303.307	539.4
303.698	542.8
304.089	538.8
304.48	535.8
304.872	539.4
305.263	532.4
305.655	526.8
306.046	538.2
306.438	539.2
306.829	529.6
307.221	548
307.613	541.6
308.005	545.2
308.397	552
308.789	549.4
309.181	554.4
309.573	554.6
309.965	544.6
310.357	535.6
310.749	552.4
311.142	532.4
311.534	538.2
311.926	542.2
312.319	543
312.711	530.6
313.104	554
313.497	537.6
313.889	576.6
314.282	552.4
314.675	565
315.068	543.6
315.461	543.2
315.854	565.4
316.247	545.8
316.64	544.4
317.033	540
317.405	544.6
317.798	542.8
318.192	541.8
318.585	536.6
318.979	545.4
319.372	531.8
319.766	539.8
320.16	548
320.553	541
320.947	558.6
321.341	536.6
321.735	541.8
322.129	528.8
322.523	555.6
322.917	531.2
323.311	549.2
323.705	541.2
324.099	538.4
324.494	551.6
324.888	544.6
325.282	529
325.677	541.2
326.071	545.6
326.466	546.6
326.861	543.6
327.255	544.6
327.65	550
328.045	555.8
328.44	546.6
328.835	534.2
329.23	537.4
329.625	564
330.02	534.4
330.415	552.8
330.81	536.6
331.206	540.8
331.601	529.8
331.996	545.6
332.37	560.8
332.766	522
333.161	557
333.557	533.4
333.953	534.4
334.348	801
334.744	539.8
335.14	536.6
335.536	534.4
335.932	549.4
336.328	541.4
336.724	543
337.12	540.4
337.516	545.4
337.913	531.4
338.309	554.6
338.705	541
339.102	549.4
339.498	537.8
339.895	553.6
340.291	540.4
340.688	550.8
341.085	533.6
341.481	536.4
341.878	543.6
342.275	553.6
342.672	532.6
343.069	538.8
343.466	527.8
343.842	549.2
344.239	535.6
344.636	531.6
345.033	530.4
345.431	521
345.828	537.2
346.225	529.6
346.623	563
347.02	535.2
347.418	537.2
347.816	547.6
348.213	529.2
348.611	539.4
349.009	534.2
349.407	540.2
349.805	530.8
350.203	530
350.601	546.6
350.999	532.4
351.397	593
351.795	539
352.193	542.2
352.57	546
352.969	545.8
353.367	528
353.766	532.8
354.164	530.4
354.563	542.6
354.961	534.8
355.36	534.8
355.759	540.4
356.158	526.6
356.557	528.8
356.956	526.8
357.355	524.4
357.754	539.2
358.153	541
358.552	551.2
358.951	533.2
359.35	537.8
359.75	535.8
360.149	523
360.527	515.6
360.926	522.4
361.326	531.8
361.726	534
362.125	527.4
362.525	545
362.925	536
363.325	531.2
363.724	532.2
364.124	531.6
364.524	521.4
364.924	531.6
365.324	543.8
365.725	518.2
366.125	535.6
366.525	533.4
366.904	532
367.304	520.2
367.705	548.4
368.105	543.6
368.506	526.6
368.906	529.6
369.307	535.6
369.708	530.6
370.108	516
370.509	541.6
370.91	530.6
371.311	530
371.712	541.4
372.113	533.6
372.514	527.6
372.894	539.8
373.295	528.8
373.696	540.8
374.097	533
374.499	560.2
374.9	530
375.301	524.2
375.703	537
376.105	526.6
376.506	534.6
376.908	538.4
377.309	538.4
377.711	540.2
378.113	534.4
378.493	532
378.895	530.4
379.297	541.6
379.699	521.6
380.102	531.2
380.504	532
380.906	526.4
381.308	546
381.71	525.6
382.113	539.4
382.515	530.2
382.918	539
383.299	536.4
383.701	533.6
384.104	533.6
384.507	515.2
384.909	529.8
385.312	516.2
385.715	522.6
386.118	526.4
386.521	525.6
386.924	529
387.327	523.6
387.709	523.4
388.112	518.2
388.515	533.4
388.918	525.8
389.322	533.4
389.725	531.2
390.129	542.2
390.532	526.8
390.936	525.8
391.339	522.4
391.743	534.8
392.125	519.6
392.529	538.4
392.933	536.4
393.337	533.6
393.74	525.2
394.144	527.4
394.548	520.6
394.953	523.6
395.357	529.4
395.761	524
396.144	530.2
396.548	526.8
396.952	522.8
397.357	527.2
397.761	532.6
398.166	527
398.57	522.2
398.975	524.2
399.379	527
399.763	560.8
400.168	528.4
400.572	524.8
400.977	531.6
401.382	540.8
401.787	531.6
402.192	543.4
402.597	533.2
403.002	514
403.386	534.2
403.791	544.4
404.197	519.4
404.602	531.8
405.007	526.8
405.413	528.2
405.818	530
406.224	529.6
406.608	532
407.014	520.2
407.42	539.4
407.825	525.4
408.231	539
408.637	538.2
409.043	545.4
409.449	524.2
409.834	522.2
410.24	533.8
410.646	541.8
411.052	540.6
411.458	533.4
411.865	530.6
412.271	537.4
412.677	531.6
413.062	534
413.469	520.8
413.875	549.6
414.282	530.8
414.689	528
415.095	540.6
415.502	523.4
415.888	528.2
416.294	507.6
416.701	564.2
417.108	530
417.515	535.2
417.923	522
418.33	543.6
418.715	543.8
419.123	529.2
419.53	523.4
419.937	534.6
420.345	540.8
420.752	532.2
421.16	544.6
421.546	533
421.953	541.2
422.361	523.6
422.769	533.6
423.177	533.2
423.585	553.6
423.992	547.2
424.379	543.6
424.787	540.4
425.195	544.8
425.603	533
426.011	535.2
426.419	547.4
426.806	534
427.214	544.6
427.623	543.2
428.031	550.2
428.44	549.6
428.848	552.6
429.235	557.6
429.644	551.8
430.053	561.4
430.461	583.6
430.87	603
431.279	597.2
431.666	595
432.075	610.8
432.484	630.6
432.893	638.4
433.302	664.8
433.711	690
434.099	687.4
434.508	699.4
434.918	711.4
435.327	748
435.737	760.6
436.125	788.4
436.534	798.6
436.944	828.4
437.353	856.4
437.763	879
438.173	870.8
438.561	903.6
438.971	907.2
439.381	923
439.791	961
440.201	943
440.589	988.2
440.999	1007.8
441.409	1007
441.819	1016.2
442.23	1058.8
442.619	1069.2
443.029	1067.6
443.439	1080
443.85	1096.2
444.26	1117.4
444.649	1121
445.06	1118.4
445.471	1142.8
445.881	1143.2
446.292	1173.6
446.682	1197.8
447.092	1174.8
447.503	1229.2
447.914	1189.8
448.325	1191.6
448.715	1180.6
449.126	1191.6
449.537	1202.4
449.948	1213.8
450.338	1217.6
450.75	1233.6
451.161	1222
451.572	1244.6
451.984	1235.4
452.374	1232.2
452.786	1247.2
453.197	1255.8
453.609	1249
453.999	1234.4
454.411	1250
454.823	1257
455.235	1262
455.647	1263
456.037	1283
456.449	1263
456.862	1262
457.274	1276.6
457.665	1258.2
458.077	1256.8
458.489	1284.2
458.902	1262.6
459.293	1268.4
459.705	1274.2
460.118	1257.6
460.53	1256.8
460.921	1272.4
461.334	1288.4
461.747	1286.2
462.16	1291.4
462.551	1276.4
462.964	1294.2
463.377	1257.2
463.79	1270.2
464.182	1297.6
464.595	1278.2
465.008	1273.4
465.421	1268.8
465.813	1282.2
466.226	1267.2
466.64	1267.6
467.053	1326.2
467.445	1277.8
467.859	1284.6
468.272	1277.6
468.686	1281.2
469.078	1254.6
469.492	1271
469.906	1281
470.298	1266.8
470.712	1263
471.126	1296.2
471.54	1260.8
471.933	1256.8
472.347	1272.4
472.761	1254.2
473.175	1254
473.568	1251.6
473.982	1246.2
474.397	1238.6
474.79	1252.8
475.204	1240.4
475.619	1236.4
476.033	1229.2
476.426	1233.8
476.841	1224.6
477.256	1246.6
477.649	1219
478.064	1204
478.479	1210.6
478.872	1201
479.287	1199.8
479.702	1191.4
480.118	1187.6
480.511	1186
480.927	1194.8
481.342	1194.6
481.736	1190.2
482.151	1166.8
482.566	1193.6
482.96	1173.4
483.376	1186.4
483.792	1166.8
484.186	1165.6
484.602	1154.2
485.017	1146.4
485.412	1154.4
485.827	1157.8
486.243	1149.4
486.638	1157.8
487.054	1138.8
487.47	1153.6
487.865	1132.8
488.281	1122.8
488.697	1116.2
489.092	1124
489.508	1096.4
489.925	1100.6
490.32	1101
490.736	1090.8
491.153	1112
491.548	1103.6
491.964	1094
492.381	1075.4
492.776	1081
493.193	1061.8
493.61	1071.4
494.006	1060
494.422	1061.4
494.84	1057.6
495.235	1059
495.652	1029
496.069	1049.2
496.465	1020.4
496.883	1029
497.3	1048.2
497.696	1032.6
498.113	1029.6
498.509	1001.8
498.927	997.2
499.344	995.4
499.741	998.4
500.158	1000
500.576	1001.4
500.973	988.4
501.39	987.6
501.787	966
502.205	973.2
502.623	962.8
503.02	955.6
503.438	955.4
503.856	958.4
504.253	965.6
504.671	950
505.068	947.6
505.486	935.6
505.905	945.2
506.302	939.4
506.72	940.8
507.118	910.8
507.536	914.6
507.955	911.8
508.352	903.8
508.771	915.2
509.169	905.8
509.587	887
510.006	894.6
510.404	871.8
510.823	880
511.221	880.8
511.64	883.4
512.038	887.4
512.457	875.4
512.877	872.8
513.275	865.2
513.694	862.2
514.092	853.2
514.512	865
514.91	864.6
515.33	849.8
515.749	841.8
516.148	855.4
516.568	840.6
516.966	839
517.386	821
517.785	826
518.205	810.4
518.603	816.6
519.024	806
519.444	824
519.843	823.6
520.263	814.6
520.662	798.6
521.082	789.6
521.481	792
521.902	803.2
522.301	788.4
522.722	796.4
523.121	791.4
523.542	775.8
523.963	785.2
524.362	780.6
524.783	773
525.183	770.8
525.604	762.6
526.003	756.8
526.425	762.6
526.824	773.4
527.246	772.4
527.646	762.2
528.067	751
528.467	748.8
528.888	745.2
529.289	747.2
529.71	744.2
530.11	734.4
530.532	738.6
530.932	728.6
531.354	727
531.755	755.8
532.176	742.2
532.577	719.8
532.999	724.4
533.4	713.2
533.822	724.4
534.223	712.2
534.645	710
535.046	713.4
535.468	711.6
535.869	715.8
536.292	696.8
536.693	740.6
537.115	710
537.516	699.8
537.939	697.6
538.34	709.6
538.742	703.4
539.165	697.4
539.566	690.2
539.989	677
540.391	694.6
540.814	685.4
541.216	686.2
541.639	686.4
542.041	687.4
542.464	678.4
542.866	673.8
543.268	674.4
543.691	680.8
544.093	682
544.517	685
544.919	660.8
545.343	681.2
545.745	648.6
546.147	662.8
546.571	666.4
546.974	646.6
547.398	659.2
547.8	672.2
548.224	653
548.627	652.2
549.03	659.4
549.454	659
549.857	643.4
550.281	647.2
550.684	652.2
551.087	653.4
551.512	648.6
551.915	642.4
552.34	645.2
552.743	632.6
553.146	634.4
553.571	635.2
553.975	653.6
554.399	625.2
554.803	668.2
555.207	631.2
555.632	618
556.036	638.4
556.461	616.8
556.865	634
557.268	616.8
557.694	617
558.098	628.6
558.502	625.2
558.927	612.2
559.332	619.8
559.736	617.8
560.162	629.2
560.566	611.6
560.992	621.8
561.396	609.8
561.801	608.6
562.227	605.8
562.631	611.2
563.036	602.6
563.462	611.6
563.867	616.4
564.272	592
564.698	603.8
565.103	593.6
565.508	624.2
565.935	595
566.34	601.4
566.745	611.4
567.172	599.8
567.577	605.8
567.982	611.2
568.409	601.6
568.815	580.4
569.22	597.4
569.626	602
570.053	580.2
570.459	585.2
570.865	599.4
571.292	591.8
571.698	592
572.104	572.8
572.531	574.2
572.937	584.4
573.343	590.2
573.75	577.4
574.177	579.4
574.583	585.8
574.99	571.6
575.396	580.8
575.824	573.8
576.231	568
576.637	568.8
577.065	596
577.472	571.4
577.879	566.2
578.286	573.4
578.714	569.4
579.121	570.2
579.528	574.2
579.935	575.8
580.364	566.8
580.771	556.2
581.178	555.6
581.585	574.6
582.014	570.6
582.421	567.4
582.829	561.6
583.236	567
583.644	557.4
584.073	555.2
584.481	553
584.889	558.4
585.296	567
585.726	567.2
586.134	548.8
586.542	549.4
586.95	572.6
587.358	555
587.787	555.2
588.196	547.6
588.604	558
589.012	551.4
589.421	552
589.851	549.2
590.259	558
590.668	540.4
591.076	581.6
591.485	547.6
591.894	545.6
592.324	559.4
592.733	557.4
593.142	535.8
593.551	548.2
593.96	577.2
594.369	530.8
594.8	539.4
595.209	550
595.618	537.2
596.028	535.2
596.437	532.2
596.847	540
597.256	538.8
597.687	544.2
598.097	543.8
598.507	541.2
598.917	543.6
599.327	542.8
599.736	539.6
600.146	553
600.556	540.6
600.988	546
601.398	534
601.808	551
602.219	526.4
602.629	536.4
603.039	534.6
603.45	556.2
603.86	538
604.271	544.8
604.703	536.4
605.114	530.6
605.525	541.8
605.935	537.4
606.346	557.6
606.757	539.8
607.168	536.4
607.579	531.2
607.99	543.8
608.402	532.2
608.813	538.4
609.224	527
609.636	526.4
610.047	526.8
610.48	530.6
610.892	542
611.303	530.6
611.715	526.6
612.127	526.2
612.539	530.6
612.95	531.4
613.362	523
613.774	526.2
614.186	524.6
614.599	528.8
615.011	538
615.423	530.2
615.835	536.2
616.248	525.2
616.66	533.2
617.073	525.8
617.485	529.6
617.898	546.4
618.311	526
618.723	526.6
619.136	549.4
619.549	530.4
619.962	542.6
620.375	533.8
620.788	525.6
621.201	518.8
621.614	534.4
622.028	521.8
622.441	527.4
622.854	545
623.268	520.2
623.681	531
624.095	526.6
624.509	532.2
624.922	536.8
625.336	518.4
625.728	528
626.142	535.4
626.556	540.4
626.97	535
627.384	525.4
627.799	521.4
628.213	541.4
628.627	524
629.041	518.2
629.456	528.8
629.87	526.2
630.285	531
630.699	536.8
631.093	520.8
631.507	533
631.922	524.2
632.337	542.4
632.752	521.8
633.167	522.6
633.582	523.4
633.997	524.8
634.412	526.8
634.806	521.8
635.221	519.6
635.637	532
636.052	511.8
636.468	522.2
636.883	537.6
637.299	525.8
637.715	513.2
638.109	518.4
638.525	514.2
638.941	532.8
639.357	527.2
639.773	533
640.189	521.6
640.584	519
641	531
641.416	508.4
641.832	522.8
642.249	523.2
642.665	515
643.06	528.2
643.477	529.8
643.894	504.6
644.31	519.8
644.727	522.4
645.123	521
645.54	517.4
645.957	524.8
646.374	530.8
646.77	522.4
647.187	543.2
647.604	524.8
648.021	503.8
648.439	516.4
648.835	521.4
649.252	515
649.67	515
650.088	516.6
650.484	524
650.902	523.6
651.32	526.8
651.738	511.8
652.134	516.2
652.552	532.2
652.971	529
653.389	520.2
653.786	524.8
654.204	523.6
654.622	512.8
655.019	517.6
655.438	524.4
655.857	524.2
656.275	518.4
656.673	510.4
657.091	516.4
657.51	520.6
657.908	522
658.327	519.8
658.746	510.2
659.144	520.2
659.563	531.2
659.982	516
660.38	511.2
660.8	518.8
661.219	522.2
661.617	522
662.037	519.8
662.457	524
662.855	501.8
663.275	541
663.695	516.2
664.094	516.8
664.514	517
664.934	512
665.333	519.8
665.753	512.8
666.152	507.2
666.572	512.8
666.993	528.2
667.392	516.6
667.812	515.6
668.212	511.6
668.632	527
669.053	504.8
669.453	518.2
669.874	511.8
670.273	512.4
670.694	507.2
671.116	515.6
671.515	517.2
671.937	511.6
672.337	509.2
672.758	510.4
673.158	524.2
673.58	502
673.98	519.2
674.402	526.2
674.824	511.2
675.224	504.6
675.646	505.4
676.047	508
676.469	515.2
676.869	516.8
677.292	517
677.693	510.2
678.115	507
678.516	517
678.939	509
679.34	508.8
679.762	521.8
680.164	513.4
680.586	504.2
680.988	517
681.411	531.4
681.812	515.2
682.236	505
682.637	505.6
683.061	506.6
683.462	504
683.864	508.4
684.288	516.8
684.69	503.4
685.114	522.8
685.516	521.4
685.94	508
686.342	515.2
686.766	500.6
687.168	503.4
687.571	524.4
687.995	504.6
688.398	497.4
688.822	509.6
689.225	525.2
689.628	529.4
690.052	508.4
690.456	509.2
690.88	505.4
691.284	505.2
691.687	512.2
692.112	497.6
692.515	495.8
692.919	507.8
693.344	506.2
693.747	502
694.173	502
694.577	520.6
694.98	509.4
695.406	501
695.81	513.8
696.214	517.4
696.64	511
697.044	515.4
697.448	512.4
697.874	511.6
698.279	509.8
698.684	500
699.11	503.4
699.514	505
699.919	505
700.324	508.8
700.75	503
701.156	505.6
701.561	517.4
701.987	510.2
702.393	518.4
702.798	521
703.203	502.4
703.63	503.6
704.036	503.4
704.442	516.2
704.847	504
705.274	505.6
705.68	512.6
706.086	512
706.492	490.6
706.92	502.6
707.326	512.4
707.732	508.2
708.139	501.6
708.545	497.8
708.973	504.6
709.38	512.6
709.786	506
710.193	522
710.6	505.6
711.028	505.6
711.435	512
711.842	514.8
712.249	505
712.656	515
713.064	513.4
713.492	498.6
713.9	507.4
714.307	508.4
714.715	503.8
715.123	511
715.53	509.6
715.938	518.2
716.367	508.8
716.775	502.2
717.184	502.8
717.592	504.8
718	516.4
718.408	533.6
718.816	534.2
719.225	503.2
719.633	513.6
720.042	501.8
720.472	506.4
720.881	526
721.29	512.2
721.699	503
722.108	509.8
722.517	514.4
722.926	502
723.335	518
723.744	508
724.154	507.8
724.563	502.8
724.973	508
725.382	511.6
725.792	498.4
726.202	501.2
726.612	518.4
727.022	502
727.432	503.6
779.813	507.4
780.223	546.6
780.634	503.2
781.044	503
781.454	504
781.865	517
782.276	501.2
782.686	514.4
783.097	504.8
783.508	506.8
783.919	507
784.33	525.2
784.741	519.2
785.152	503
785.563	500.8
785.974	499.4
786.386	510.4
786.776	508.4
787.188	509
787.599	503
788.011	513
788.423	508.4
788.835	501.8
789.247	498.2
789.659	498.8
790.071	504.4
790.483	534.6
790.874	506.2
791.286	514
791.699	504.4
792.111	511.4
792.524	510.4
792.937	505.8
793.349	497.6
793.741	507
794.154	497.4
794.567	519.8
794.98	500.6
795.393	496.8
795.785	516.8
796.198	498.4
796.612	498.8
797.026	504.4
797.439	489.8
797.831	504
798.245	496.8
798.659	504.6
799.073	503.2
799.487	497.4
799.88	504.4
800.294	496.4
800.708	508.6
801.123	506
801.516	522.4
801.93	504.2
802.345	501
802.76	503.6
803.153	514.8
803.568	524.6
803.983	517.4
804.377	505
804.792	495.8
805.207	487.8
805.601	505.8
806.016	533.6
806.432	496
806.826	529.8
807.242	510
807.658	508
808.052	511.2
808.468	495.2
808.884	496.8
809.279	506.4
809.695	509.2
810.111	520.6
810.506	502.2
810.922	518
811.339	501.4
811.734	514.2
812.151	501.2
812.546	504.4
812.963	500.8
813.38	510.2
813.776	498.8
814.193	521.6
814.589	498.6
815.006	499.2
815.402	506
815.82	496.8
816.237	508
816.633	505.6
817.051	499.8
817.448	498
817.866	500.2
818.262	519.8
818.68	496.4
819.077	502.6
819.495	503
819.892	522.8
820.311	495.6
820.708	492.8
821.127	493.2
821.524	506.6
821.943	502.6
822.34	512.2
822.759	508.8
823.157	505.8
823.576	514.8
823.974	511.4
824.393	584.4
824.791	499
825.189	501
825.609	499.2
826.007	507.2
826.427	485.8
826.826	500
827.246	500.8
827.644	493.2
828.043	511.6
828.463	498
828.862	510
829.261	508.2
829.682	489.2
830.081	499.6
830.502	501
830.901	502.2
831.301	503.6
831.722	492.8
832.121	509.8
832.521	498.2
832.943	496.8
833.342	507.6
833.742	494.8
834.164	499
834.564	491
834.965	503.4
835.386	499.6
835.787	499.8
836.188	492.4
836.588	502.2
837.01	504
837.411	492.2
837.812	502.2
838.213	513.2
838.636	502.4
839.037	558
839.438	502.6
839.84	497.8
840.263	507
840.664	499.6
841.066	495
841.468	501.2
841.891	495.6
842.293	507.8
842.695	507.8
843.098	516.2
843.5	503.8
843.902	508
844.326	501.6
844.729	497.2
845.131	505
845.534	502.8
845.937	511.2
846.34	513.6
846.764	499.4
847.167	503.2
847.571	491.2
847.974	499.8
848.377	498.8
848.781	545
849.184	506.6
849.588	502.8
849.992	493.8
850.396	507.6
850.821	515.8
851.225	497.6
851.63	499.6
