#lambda/nm	C1
208.295	472.4
208.67	432.8
209.045	395.4
209.419	402.8
209.794	538.6
210.169	525.4
210.544	625.4
210.919	539
211.295	522
211.67	529
212.045	527.6
212.421	524.2
212.796	559
213.172	529
213.547	529
213.923	531.2
214.299	532.4
214.675	533.6
215.051	540
215.427	545.4
215.803	555.6
216.179	537.6
216.555	528.4
216.932	540
217.308	534.4
217.684	539.6
218.061	539.8
218.438	535.6
218.814	531.4
219.191	542.6
219.568	533.8
219.945	535.4
220.322	541
220.699	538.8
221.076	551
221.453	538.6
221.83	526.6
222.208	531.4
222.585	534.8
222.962	533.6
223.34	539.8
223.717	532.6
224.095	529
224.473	540
224.851	532.6
225.229	528.6
225.607	541.8
225.985	522.8
226.363	537.2
226.741	533.4
227.119	532.6
227.497	550.6
227.876	526.8
228.254	548.8
228.633	536.8
229.011	537.2
229.39	541.4
229.769	545
230.148	542.2
230.527	553.2
230.905	527.6
231.284	544
231.664	524.2
232.043	546.2
232.422	542.4
232.801	530.8
233.181	543
233.56	535
233.94	541.2
234.319	531
234.699	533
235.079	569
235.458	567.4
235.838	555.2
236.218	534.6
236.598	527.4
236.978	524
237.358	527.8
237.738	527
238.119	536.8
238.499	519.8
238.88	532.8
239.26	541.2
239.641	525.4
240.021	532.6
240.402	524
240.783	527.6
241.163	527.2
241.544	534
241.925	532.6
242.306	541.6
242.687	522.8
243.069	523.2
243.45	540.2
243.831	526.4
244.212	535.2
244.594	563.4
244.975	542.2
245.357	533
245.739	527
246.12	535.2
246.502	536.8
246.884	535.8
247.266	538.8
247.648	530.2
248.03	551
248.412	540.8
248.794	539.2
249.176	527
249.559	541.6
249.941	527
250.323	525.6
250.706	529.2
251.089	533.8
251.471	534.6
251.854	543
252.237	536.2
252.62	540.6
253.002	534.6
253.385	534.4
253.769	542.2
254.152	537
254.535	539.6
254.918	527.4
255.301	535.4
255.685	536.4
256.068	531.6
256.452	548
256.835	533.2
257.219	538
257.603	550.4
257.986	522.6
258.37	539.6
258.754	524.6
259.138	537.6
259.522	542.8
259.906	532.4
260.29	538.2
260.675	527.4
261.059	537.4
261.443	529
261.828	536
262.212	532
262.597	522.6
262.981	526.6
263.366	540
263.751	538
264.136	531.8
264.521	521.2
264.906	526.8
265.291	540.8
265.676	526.4
266.061	544.6
266.446	551.4
266.831	542
267.217	548.4
267.602	533.8
267.987	537.2
268.373	532
268.759	536.8
269.144	534.2
269.53	531.6
269.916	532.4
270.302	531.8
270.688	536.8
271.074	534.2
271.46	544.4
271.846	555.4
272.232	525.4
272.618	537.2
273.004	532.6
273.391	546.4
273.777	541
274.164	536.4
274.55	541.8
274.937	538.4
275.324	525.4
275.71	537.6
276.097	537.4
276.484	530.4
276.871	533.4
277.258	534.8
277.645	517.8
278.032	530.2
278.419	536
278.807	533
279.194	528.8
279.581	530.4
279.969	541.2
280.356	543.4
280.744	537.6
281.131	557
281.519	542.2
281.907	532.2
282.295	536.2
282.682	542.4
283.07	541.8
283.458	543.8
283.846	544.4
284.235	540.4
284.623	536.6
285.011	530.8
285.399	542
285.788	538.8
286.176	525
286.565	542.8
286.953	535.4
287.342	533.8
287.731	531.2
288.119	528.6
288.508	534
288.897	537.8
289.286	521.8
289.675	538.2
290.064	548.2
290.453	531.6
290.821	539
291.21	543.4
291.599	530.4
291.989	531.2
292.378	546.6
292.768	545.4
293.157	539.4
293.547	539.8
293.936	528
294.326	534
294.716	534.2
295.106	542.8
295.496	534.6
295.886	542.2
296.276	532.6
296.666	531
297.056	531.4
297.446	529.4
297.836	544.8
298.227	537.2
298.617	529.6
299.008	544.2
299.398	528
299.789	533.6
300.179	537.2
300.57	550.6
300.961	525.8
301.352	529.4
301.742	546.6
302.133	536.2
302.524	532.6
302.915	536.6
303.307	531.4
303.698	536.4
304.089	543.4
304.48	534.8
304.872	545.4
305.263	539
305.655	526.6
306.046	539
306.438	541.2
306.829	531.4
307.221	548.2
307.613	539.6
308.005	548
308.397	548.8
308.789	549.8
309.181	553.4
309.573	550.6
309.965	546.8
310.357	533.8
310.749	542.8
311.142	530
311.534	534.6
311.926	539.4
312.319	539.4
312.711	532
313.104	547
313.497	534
313.889	567.2
314.282	544.8
314.675	550.4
315.068	534.6
315.461	531
315.854	553
316.247	539.4
316.64	533.4
317.033	531
317.405	545.6
317.798	534.8
318.192	543
318.585	533.6
318.979	540.2
319.372	528.4
319.766	532.6
320.16	540
320.553	550.8
320.947	550.4
321.341	532
321.735	532.6
322.129	529.2
322.523	555
322.917	533.2
323.311	556.8
323.705	544.4
324.099	544.4
324.494	541.8
324.888	548
325.282	529.8
325.677	544.2
326.071	537.6
326.466	544.6
326.861	535.6
327.255	544
327.65	547.4
328.045	540
328.44	545.4
328.835	533.8
329.23	525.4
329.625	554.6
330.02	533.4
330.415	548
330.81	544
331.206	530.6
331.601	536
331.996	550.2
332.37	551.4
332.766	525.2
333.161	549.4
333.557	525
333.953	538
334.348	797.2
334.744	538.8
335.14	529.6
335.536	530
335.932	543.6
336.328	535.8
336.724	543
337.12	526.2
337.516	541.2
337.913	533.8
338.309	537.2
338.705	532.2
339.102	535.8
339.498	527.8
339.895	535.4
340.291	531.4
340.688	536.6
341.085	525.2
341.481	532.4
341.878	528.4
342.275	542.8
342.672	527
343.069	528.6
343.466	527.2
343.842	540.6
344.239	516.8
344.636	524.4
345.033	522
345.431	517.4
345.828	528.6
346.225	523.4
346.623	557.6
347.02	524.8
347.418	538.6
347.816	538.4
348.213	520
348.611	537.4
349.009	525.4
349.407	540.6
349.805	517.8
350.203	521.8
350.601	540.8
350.999	531.4
351.397	582.6
351.795	530.6
352.193	549.2
352.57	536.6
352.969	539.6
353.367	519.8
353.766	522.6
354.164	528.8
354.563	538.2
354.961	538.4
355.36	525
355.759	529.6
356.158	524.4
356.557	537.4
356.956	522.4
357.355	516
357.754	536.8
358.153	539.6
358.552	550.8
358.951	528.2
359.35	543.8
359.75	525.4
360.149	523
360.527	515
360.926	519
361.326	528.6
361.726	526.4
362.125	522.6
362.525	539.2
362.925	527.8
363.325	532
363.724	525
364.124	525
364.524	523.8
364.924	531
365.324	542.4
365.725	515.6
366.125	531
366.525	530
366.904	532
367.304	514.2
367.705	547
368.105	540
368.506	521
368.906	522.2
369.307	525.6
369.708	534.4
370.108	520
370.509	537.6
370.91	527.6
371.311	532.4
371.712	520.2
372.113	524.8
372.514	515.2
372.894	532.2
373.295	524.8
373.696	535.2
374.097	533.2
374.499	551.2
374.9	532.6
375.301	517.8
375.703	524.6
376.105	517.2
376.506	532.6
376.908	536.2
377.309	529.8
377.711	529.2
378.113	520.8
378.493	529
378.895	524.2
379.297	532.2
379.699	513
380.102	529.4
380.504	524.6
380.906	525.2
381.308	549.4
381.71	526
382.113	533.8
382.515	529.4
382.918	530
383.299	527.4
383.701	530.4
384.104	525
384.507	509.8
384.909	528.4
385.312	517.4
385.715	519.2
386.118	524.4
386.521	521.8
386.924	542.8
387.327	524
387.709	511.6
388.112	516.6
388.515	526.8
388.918	517.6
389.322	525.8
389.725	524.4
390.129	546.8
390.532	527
390.936	532.6
391.339	522.8
391.743	532.2
392.125	518.8
392.529	538.8
392.933	537.6
393.337	528.4
393.74	525.6
394.144	531.6
394.548	522.4
394.953	528.4
395.357	533.8
395.761	526.2
396.144	527.6
396.548	526.4
396.952	525.4
397.357	529.4
397.761	524.2
398.166	518.6
398.57	522.4
398.975	519.6
399.379	531.2
399.763	566.8
400.168	527.6
400.572	534
400.977	524.4
401.382	545.4
401.787	541
402.192	542.4
402.597	538.4
403.002	515
403.386	534.4
403.791	540.6
404.197	520.8
404.602	532
405.007	517.6
405.413	526.8
405.818	528.4
406.224	525.2
406.608	527.6
407.014	515
407.42	532.4
407.825	525.4
408.231	535.2
408.637	532.8
409.043	534.2
409.449	516.4
409.834	518.8
410.24	528.4
410.646	532.2
411.052	531.4
411.458	526.2
411.865	534
412.271	527.8
412.677	533.2
413.062	523
413.469	516.6
413.875	545.6
414.282	533.8
414.689	525.4
415.095	535.4
415.502	528.8
415.888	525
416.294	516.4
416.701	560.2
417.108	512.6
417.515	535.6
417.923	529.2
418.33	541.4
418.715	533
419.123	521.8
419.53	514.2
419.937	529.8
420.345	539
420.752	515.4
421.16	540.6
421.546	523
421.953	533.6
422.361	520
422.769	533.8
423.177	516.4
423.585	549.6
423.992	547.8
424.379	534
424.787	549.4
425.195	549.6
425.603	528
426.011	538.2
426.419	539.6
426.806	528.6
427.214	538.8
427.623	541
428.031	544.8
428.44	549.8
428.848	558
429.235	557.2
429.644	558.4
430.053	557.6
430.461	574.2
430.87	589.6
431.279	595.4
431.666	594
432.075	599.8
432.484	618.4
432.893	623.2
433.302	652.4
433.711	689
434.099	676.6
434.508	690
434.918	690
435.327	735
435.737	743.2
436.125	765.8
436.534	781
436.944	798.6
437.353	810.4
437.763	852.4
438.173	848.8
438.561	863.6
438.971	878
439.381	905.4
439.791	930.6
440.201	940.6
440.589	959.6
440.999	986.2
441.409	986
441.819	995.2
442.23	1036.6
442.619	1032.4
443.029	1049.4
443.439	1043.8
443.85	1064.8
444.26	1089.6
444.649	1084
445.06	1089.8
445.471	1086.4
445.881	1099
446.292	1142
446.682	1156.6
447.092	1143
447.503	1171.8
447.914	1149
448.325	1156.2
448.715	1168.2
449.126	1165.6
449.537	1164.8
449.948	1166.8
450.338	1167.2
450.75	1192.6
451.161	1170.8
451.572	1183
451.984	1204.2
452.374	1191.6
452.786	1203.6
453.197	1197.8
453.609	1218
453.999	1212.6
454.411	1221.4
454.823	1214.2
455.235	1221.2
455.647	1234.4
456.037	1216.2
456.449	1197.6
456.862	1233.4
457.274	1241.2
457.665	1230
458.077	1224.8
458.489	1259.2
458.902	1221.4
459.293	1223.4
459.705	1234.8
460.118	1219.2
460.53	1233.4
460.921	1230.4
461.334	1234
461.747	1222.4
462.16	1240.4
462.551	1256.6
462.964	1231.8
463.377	1227.6
463.79	1231.6
464.182	1232
464.595	1217.4
465.008	1229.4
465.421	1235.6
465.813	1231.8
466.226	1229.6
466.64	1226.6
467.053	1255.6
467.445	1239.2
467.859	1233.8
468.272	1235.8
468.686	1249.4
469.078	1248.8
469.492	1232.4
469.906	1245.4
470.298	1233.6
470.712	1228.2
471.126	1271.2
471.54	1218
471.933	1231.4
472.347	1219
472.761	1224.8
473.175	1225.2
473.568	1212
473.982	1221
474.397	1229.2
474.79	1227
475.204	1218
475.619	1183.2
476.033	1207.6
476.426	1198.6
476.841	1183.8
477.256	1221.8
477.649	1189
478.064	1177.6
478.479	1174.4
478.872	1181.6
479.287	1162.6
479.702	1178.6
480.118	1175.4
480.511	1175.4
480.927	1168.8
481.342	1160.4
481.736	1163.2
482.151	1142.4
482.566	1166
482.96	1147.8
483.376	1157.8
483.792	1137.6
484.186	1140
484.602	1141.2
485.017	1138.6
485.412	1129.2
485.827	1129
486.243	1116.6
486.638	1124.6
487.054	1108.8
487.47	1114.4
487.865	1103.8
488.281	1089.8
488.697	1096.8
489.092	1093.8
489.508	1083.6
489.925	1082
490.32	1058
490.736	1069.4
491.153	1072.4
491.548	1059.8
491.964	1062.6
492.381	1054.2
492.776	1053.8
493.193	1048.6
493.61	1052.4
494.006	1047
494.422	1029.6
494.84	1022.8
495.235	1029.8
495.652	1031.4
496.069	1032.8
496.465	1020.4
496.883	1016.2
497.3	1030.8
497.696	998.8
498.113	1007.2
498.509	992.4
498.927	986.4
499.344	987.2
499.741	983.2
500.158	968.6
500.576	973.4
500.973	977.4
501.39	963.6
501.787	953.2
502.205	957.2
502.623	935.4
503.02	934
503.438	932
503.856	943.2
504.253	933.4
504.671	934.2
505.068	918
505.486	912.2
505.905	934.6
506.302	908.6
506.72	915
507.118	895.4
507.536	893
507.955	894
508.352	883.4
508.771	894.2
509.169	901.2
509.587	880.6
510.006	876.8
510.404	877.2
510.823	869.2
511.221	856.4
511.64	846.6
512.038	868
512.457	855
512.877	850.4
513.275	849
513.694	844
514.092	843.4
514.512	841
514.91	843
515.33	843.6
515.749	817
516.148	828
516.568	833.8
516.966	820.2
517.386	810.8
517.785	817.4
518.205	804.6
518.603	805.2
519.024	801.8
519.444	798.4
519.843	804.4
520.263	800
520.662	799.8
521.082	784.4
521.481	779
521.902	777.6
522.301	781.4
522.722	778.4
523.121	776
523.542	779
523.963	769.4
524.362	769.6
524.783	761.2
525.183	751.4
525.604	751.2
526.003	747.6
526.425	744.2
526.824	759.4
527.246	741.8
527.646	744
528.067	745.6
528.467	738.4
528.888	732.8
529.289	731.8
529.71	728.8
530.11	722.2
530.532	720.6
530.932	716.2
531.354	716.8
531.755	740.8
532.176	718
532.577	705.6
532.999	696.2
533.4	695.2
533.822	707.4
534.223	699.6
534.645	687.4
535.046	690.8
535.468	701.4
535.869	708.2
536.292	691
536.693	724
537.115	690.6
537.516	679.2
537.939	683.4
538.34	698.8
538.742	699.4
539.165	689.6
539.566	670
539.989	666.8
540.391	671
540.814	668.6
541.216	676.4
541.639	675.6
542.041	681
542.464	667.2
542.866	654.6
543.268	661.4
543.691	663.8
544.093	665.4
544.517	679.6
544.919	647
545.343	670
545.745	649
546.147	654.2
546.571	656.4
546.974	648
547.398	654.8
547.8	657.4
548.224	643.6
548.627	643.8
549.03	657.2
549.454	626.4
549.857	633
550.281	632.4
550.684	631.4
551.087	639.8
551.512	638.2
551.915	637.6
552.34	627.8
552.743	629.2
553.146	635.4
553.571	630.4
553.975	647
554.399	620.4
554.803	665.8
555.207	621.8
555.632	612.4
556.036	617.8
556.461	608.8
556.865	609.8
557.268	612.4
557.694	605.2
558.098	611.4
558.502	609.8
558.927	600.4
559.332	619.6
559.736	605
560.162	609.4
560.566	604.6
560.992	605.6
561.396	598.4
561.801	604.2
562.227	601.6
562.631	603.6
563.036	592.2
563.462	601.6
563.867	593.8
564.272	583.6
564.698	597
565.103	583.6
565.508	608.8
565.935	587.2
566.34	588.2
566.745	602.6
567.172	588
567.577	604.8
567.982	595.6
568.409	595.6
568.815	577
569.22	574.8
569.626	587.6
570.053	574.4
570.459	582
570.865	590.4
571.292	588.8
571.698	589.2
572.104	572.8
572.531	573.4
572.937	583.6
573.343	571
573.75	566.4
574.177	578.4
574.583	580.6
574.99	577.2
575.396	579.6
575.824	576.4
576.231	572.6
576.637	571.6
577.065	583.4
577.472	569.6
577.879	563.4
578.286	572.2
578.714	558.6
579.121	555.4
579.528	564.2
579.935	567
580.364	569
580.771	550
581.178	553
581.585	562.6
582.014	570
582.421	548.6
582.829	555
583.236	562.8
583.644	547.4
584.073	556
584.481	555
584.889	550.8
585.296	554.4
585.726	552.4
586.134	553.2
586.542	543.2
586.95	560
587.358	546
587.787	548
588.196	543.8
588.604	549.8
589.012	555.6
589.421	546.4
589.851	542.8
590.259	549.2
590.668	541.6
591.076	583.6
591.485	541
591.894	546.2
592.324	555.2
592.733	557.6
593.142	529.8
593.551	547.4
593.96	571.2
594.369	545.2
594.8	536.6
595.209	542
595.618	524.8
596.028	534.6
596.437	528.2
596.847	539.4
597.256	539
597.687	541.2
598.097	535.4
598.507	528.8
598.917	541.8
599.327	545.4
599.736	541.4
600.146	543.4
600.556	542.8
600.988	544
601.398	533.4
601.808	536
602.219	534.2
602.629	534.2
603.039	532.2
603.45	553.2
603.86	536.8
604.271	542
604.703	531
605.114	535.8
605.525	529.4
605.935	527
606.346	548.6
606.757	533
607.168	531.8
607.579	526
607.99	530.8
608.402	524.8
608.813	524.8
609.224	528.4
609.636	518
610.047	519.6
610.48	532.2
610.892	535.6
611.303	529.4
611.715	521.4
612.127	523.2
612.539	521.2
612.95	530.4
613.362	515
613.774	529.4
614.186	525.2
614.599	522.6
615.011	537
615.423	526.8
615.835	524.2
616.248	522
616.66	524.8
617.073	524.4
617.485	523.4
617.898	534
618.311	536.6
618.723	530.2
619.136	548.6
619.549	537.8
619.962	546.2
620.375	529.4
620.788	525.6
621.201	525.2
621.614	538.4
622.028	529.4
622.441	528.2
622.854	538
623.268	517.8
623.681	524.8
624.095	528.4
624.509	529
624.922	529.8
625.336	516
625.728	520.8
626.142	531.6
626.556	532.6
626.97	525.2
627.384	518.4
627.799	524.8
628.213	530
628.627	515.2
629.041	519.6
629.456	519.4
629.87	522.2
630.285	524.2
630.699	525.6
631.093	518
631.507	522.8
631.922	513.8
632.337	534.2
632.752	511.6
633.167	516.2
633.582	513.2
633.997	512.8
634.412	506.8
634.806	512.4
635.221	508.6
635.637	527.2
636.052	511.6
636.468	511.6
636.883	531.8
637.299	515.6
637.715	510.2
638.109	510.8
638.525	509
638.941	529.4
639.357	520.4
639.773	523.4
640.189	528.8
640.584	515.2
641	522.6
641.416	514.4
641.832	513.6
642.249	526.6
642.665	513.4
643.06	517.6
643.477	518.8
643.894	503.2
644.31	515
644.727	518.8
645.123	510.6
645.54	509.2
645.957	520
646.374	525.8
646.77	520.2
647.187	544.8
647.604	517.4
648.021	498.8
648.439	506.6
648.835	517
649.252	510.6
649.67	506.4
650.088	519.4
650.484	519
650.902	524
651.32	527.6
651.738	510.4
652.134	515.4
652.552	523.6
652.971	512
653.389	506.4
653.786	524
654.204	520.2
654.622	509.8
655.019	514.4
655.438	520.6
655.857	515.6
656.275	519.8
656.673	510
657.091	519.6
657.51	511.4
657.908	513.4
658.327	521.4
658.746	505.2
659.144	514
659.563	520.2
659.982	519
660.38	508.6
660.8	513.8
661.219	522
661.617	514.4
662.037	504
662.457	524.6
662.855	503.8
663.275	541.2
663.695	507
664.094	504.4
664.514	510.4
664.934	508
665.333	522.8
665.753	507.8
666.152	511.8
666.572	504.8
666.993	516.4
667.392	503.4
667.812	511.8
668.212	505.4
668.632	523.8
669.053	506.8
669.453	519
669.874	517
670.273	516.4
670.694	508.8
671.116	520.6
671.515	516.4
671.937	504.6
672.337	511.4
672.758	512.2
673.158	516.4
673.58	509.2
673.98	506.4
674.402	518.2
674.824	506.2
675.224	505.2
675.646	499.4
676.047	512.2
676.469	505.6
676.869	511
677.292	514.2
677.693	505.2
678.115	502.4
678.516	520
678.939	517.2
679.34	504
679.762	508.8
680.164	505
680.586	502.6
680.988	511.8
681.411	530.2
681.812	510.6
682.236	508.6
682.637	503.2
683.061	502.8
683.462	508
683.864	505.2
684.288	507.2
684.69	505.4
685.114	514
685.516	506.8
685.94	495
686.342	517.6
686.766	499.6
687.168	504.2
687.571	509.8
687.995	508.8
688.398	499.2
688.822	509.2
689.225	516
689.628	519.8
690.052	503.8
690.456	517.2
690.88	508.6
691.284	496.8
691.687	507.8
692.112	496.2
692.515	503
692.919	501.4
693.344	510.8
693.747	500
694.173	502.2
694.577	514.8
694.98	503.6
695.406	503
695.81	512
696.214	510.8
696.64	507
697.044	514.6
697.448	511.4
697.874	513
698.279	499.6
698.684	499
699.11	500
699.514	502
699.919	502.8
700.324	504
700.75	505.2
701.156	505.2
701.561	517.8
701.987	510.8
702.393	504.2
702.798	509
703.203	493
703.63	501
704.036	502.4
704.442	502.6
704.847	495.4
705.274	503.6
705.68	501
706.086	513.2
706.492	491.6
706.92	500.2
707.326	516
707.732	502.6
708.139	503.2
708.545	494.4
708.973	500.8
709.38	502.4
709.786	496.2
710.193	521.2
710.6	508
711.028	494
711.435	506.4
711.842	501
712.249	499.4
712.656	504
713.064	510
713.492	500
713.9	499.2
714.307	507.2
714.715	507
715.123	504
715.53	502.2
715.938	514
716.367	503.2
716.775	504.4
717.184	499.8
717.592	504.4
718	518.6
718.408	525.8
718.816	536.8
719.225	506.8
719.633	507.8
720.042	495
720.472	506.8
720.881	517.2
721.29	516.2
721.699	491.4
722.108	506.6
722.517	499.4
722.926	497.8
723.335	511.6
723.744	496
724.154	500.2
724.563	500
724.973	499.8
725.382	498.2
725.792	500.8
726.202	485.4
726.612	508.2
727.022	497.4
727.432	496.4
779.813	497
780.223	533.8
780.634	491.6
781.044	492.2
781.454	503.8
781.865	507
782.276	491.4
782.686	513.8
783.097	506.8
783.508	490.8
783.919	501.4
784.33	515.8
784.741	508
785.152	491.4
785.563	492.8
785.974	495.8
786.386	503
786.776	502.6
787.188	493
787.599	494
788.011	508.6
788.423	501.2
788.835	500.8
789.247	488.2
789.659	489.8
790.071	499.2
790.483	537.8
790.874	493.2
791.286	502.2
791.699	491.6
792.111	502.4
792.524	503.6
792.937	495.6
793.349	492.2
793.741	498
794.154	495
794.567	514.8
794.98	502.2
795.393	497
795.785	510.2
796.198	497.8
796.612	503.6
797.026	493
797.439	487
797.831	498.4
798.245	497.6
798.659	494.6
799.073	500.2
799.487	502.2
799.88	504.4
800.294	498.4
800.708	500.4
801.123	500.2
801.516	515.6
801.93	487.6
802.345	478.4
802.76	504.2
803.153	505.4
803.568	503.4
803.983	509.8
804.377	502
804.792	491.6
805.207	487.6
805.601	497.4
806.016	529
806.432	500
806.826	531.2
807.242	512
807.658	500.4
808.052	497.6
808.468	492
808.884	493.6
809.279	506.4
809.695	509.2
810.111	516
810.506	501.4
810.922	508.6
811.339	500.2
811.734	509
812.151	501.2
812.546	495
812.963	504.6
813.38	505
813.776	498.2
814.193	514.8
814.589	495.4
815.006	501.2
815.402	495
815.82	502.4
816.237	502
816.633	499.4
817.051	495
817.448	501.8
817.866	487.8
818.262	517.4
818.68	499
819.077	487.2
819.495	506
819.892	534
820.311	496.4
820.708	506.2
821.127	494.6
821.524	506
821.943	500.8
822.34	521.2
822.759	501.8
823.157	510.4
823.576	507.8
823.974	506.6
824.393	586.4
824.791	500
825.189	489.8
825.609	498.6
826.007	500.8
826.427	489.6
826.826	504
827.246	500.6
827.644	488.6
828.043	507.4
828.463	500.8
828.862	497.4
829.261	505.2
829.682	493.8
830.081	500.2
830.502	490.4
830.901	506.8
831.301	488.4
831.722	484.2
832.121	507
832.521	495.2
832.943	498
833.342	498
833.742	491.8
834.164	500.4
834.564	489.8
834.965	492.4
835.386	496
835.787	499
836.188	492.8
836.588	495.8
837.01	498.4
837.411	495.6
837.812	502.2
838.213	503.4
838.636	496.8
839.037	550.2
839.438	498.6
839.84	504.6
840.263	500.8
840.664	501
841.066	499.8
841.468	500
841.891	498.2
842.293	509.8
842.695	501.6
843.098	505.6
843.5	492.2
843.902	493.2
844.326	499.6
844.729	502.6
845.131	510
845.534	501.4
845.937	507
846.34	507.4
846.764	492
847.167	502.4
847.571	492.2
847.974	498.8
848.377	490.2
848.781	537.8
849.184	503.8
849.588	492.4
849.992	493.4
850.396	505.2
850.821	505.6
851.225	501.8
851.63	488.6
852.034	513.2
852.438	501.2
852.843	521.8
853.247	489.8
