#lambda/nm	C1
208.295	465.8
208.67	437
209.045	388.6
209.419	400.6
209.794	534
210.169	529.8
210.544	631.4
210.919	531
211.295	535
211.67	539.2
212.045	525
212.421	531.2
212.796	567.6
213.172	533
213.547	534
213.923	533
214.299	533
214.675	540.2
215.051	540.6
215.427	545.8
215.803	550.4
216.179	543.6
216.555	529.4
216.932	541.4
217.308	535.8
217.684	537
218.061	543.6
218.438	538.2
218.814	528.6
219.191	544.8
219.568	528
219.945	531.8
220.322	542.8
220.699	540.8
221.076	547.4
221.453	534.8
221.83	525
222.208	536.6
222.585	535.6
222.962	533.8
223.34	531.4
223.717	535
224.095	546.6
224.473	539
224.851	523.2
225.229	524.8
225.607	550.2
225.985	528
226.363	534.2
226.741	538.8
227.119	537.2
227.497	537
227.876	530
228.254	555.4
228.633	542.2
229.011	546
229.39	545.4
229.769	543.8
230.148	550.8
230.527	557.8
230.905	537.4
231.284	540.6
231.664	531.2
232.043	556.8
232.422	545.2
232.801	532.6
233.181	548
233.56	536.8
233.94	537.6
234.319	528
234.699	537.8
235.079	573
235.458	575.4
235.838	554
236.218	531
236.598	527
236.978	533
237.358	532.8
237.738	530.6
238.119	541.6
238.499	528.6
238.88	538.4
239.26	549.2
239.641	534.4
240.021	533
240.402	537
240.783	530
241.163	537.2
241.544	535.4
241.925	540.8
242.306	555.8
242.687	537.6
243.069	535
243.45	543.2
243.831	536.6
244.212	536
244.594	572
244.975	547
245.357	537.2
245.739	529.2
246.12	539.2
246.502	541.6
246.884	536.6
247.266	539.6
247.648	539
248.03	556.4
248.412	537.2
248.794	544.6
249.176	530.6
249.559	547.6
249.941	530
250.323	533
250.706	531.4
251.089	541.8
251.471	535.2
251.854	536.2
252.237	526.6
252.62	547
253.002	532.2
253.385	541.8
253.769	543.6
254.152	538.2
254.535	546.8
254.918	522.8
255.301	532.6
255.685	536.6
256.068	537.8
256.452	555.6
256.835	551.4
257.219	545
257.603	538.4
257.986	527
258.37	537.6
258.754	532.2
259.138	549.2
259.522	543
259.906	532.2
260.29	536.6
260.675	529.6
261.059	536.4
261.443	528.8
261.828	541.6
262.212	533.6
262.597	526.2
262.981	528.8
263.366	532.2
263.751	533.4
264.136	527.6
264.521	535
264.906	528.8
265.291	542.2
265.676	537.8
266.061	544.6
266.446	549.4
266.831	533.8
267.217	549.8
267.602	540.4
267.987	537.6
268.373	536.6
268.759	545.2
269.144	547.6
269.53	533
269.916	532.8
270.302	532.8
270.688	533
271.074	545.6
271.46	544.2
271.846	562.8
272.232	530.4
272.618	524.6
273.004	537
273.391	545.4
273.777	545.6
274.164	538.8
274.55	542
274.937	536
275.324	530.4
275.71	538.4
276.097	547.8
276.484	529.8
276.871	545.4
277.258	534.8
277.645	528.4
278.032	533
278.419	543.4
278.807	535.6
279.194	527.4
279.581	526.2
279.969	538.4
280.356	537.8
280.744	540.8
281.131	551.2
281.519	541.4
281.907	533.6
282.295	534.4
282.682	553.8
283.07	540.8
283.458	541
283.846	542
284.235	543.8
284.623	542.2
285.011	530.6
285.399	542.6
285.788	540
286.176	524.8
286.565	547.6
286.953	533.4
287.342	532
287.731	531
288.119	529
288.508	529.8
288.897	535.8
289.286	526.8
289.675	533.6
290.064	542.8
290.453	528.6
290.821	535
291.21	540.4
291.599	530.4
291.989	538
292.378	540.8
292.768	552.2
293.157	540
293.547	549.2
293.936	537
294.326	534.4
294.716	542.8
295.106	525.2
295.496	543
295.886	546
296.276	533.2
296.666	531.4
297.056	533.2
297.446	524.8
297.836	551.8
298.227	524.2
298.617	538.8
299.008	550.6
299.398	530
299.789	526
300.179	540
300.57	545.6
300.961	529.4
301.352	533
301.742	536.8
302.133	538.6
302.524	545.6
302.915	535
303.307	534.2
303.698	543.2
304.089	535.4
304.48	533.2
304.872	545.6
305.263	539.2
305.655	536.8
306.046	539
306.438	545.6
306.829	531.4
307.221	550.8
307.613	543.2
308.005	541.6
308.397	541.6
308.789	546.4
309.181	554
309.573	549.6
309.965	549.2
310.357	535.8
310.749	549.2
311.142	533.8
311.534	535.8
311.926	541.2
312.319	544
312.711	537
313.104	547.6
313.497	535.2
313.889	564.4
314.282	551.4
314.675	558.6
315.068	537.4
315.461	540
315.854	559.2
316.247	543
316.64	537.2
317.033	539.4
317.405	541.8
317.798	531.6
318.192	552.8
318.585	537
318.979	543
319.372	534.4
319.766	530.2
320.16	544
320.553	547.6
320.947	544.2
321.341	529.6
321.735	539.8
322.129	523.8
322.523	558
322.917	529.8
323.311	544.4
323.705	540.4
324.099	538.2
324.494	552.2
324.888	544.8
325.282	533.4
325.677	541.2
326.071	545.4
326.466	541.2
326.861	542.2
327.255	554.6
327.65	543
328.045	548.8
328.44	540.2
328.835	539.4
329.23	533.6
329.625	565
330.02	532.4
330.415	554.2
330.81	546.4
331.206	541.4
331.601	537.8
331.996	542
332.37	553.4
332.766	525
333.161	556.6
333.557	535.8
333.953	533.4
334.348	811.2
334.744	542
335.14	534.6
335.536	536.2
335.932	549.8
336.328	535.8
336.724	552.2
337.12	533.8
337.516	529.6
337.913	534
338.309	544.8
338.705	538.2
339.102	537
339.498	533.6
339.895	546.6
340.291	527.4
340.688	535.6
341.085	537
341.481	532
341.878	541
342.275	545.4
342.672	531.2
343.069	527.6
343.466	529.8
343.842	547.2
344.239	529.2
344.636	536.6
345.033	533.2
345.431	535
345.828	534.8
346.225	530.8
346.623	559.6
347.02	533.2
347.418	541.6
347.816	544
348.213	532.6
348.611	536.6
349.009	525.4
349.407	540
349.805	528.8
350.203	518.4
350.601	546.4
350.999	532.8
351.397	587.8
351.795	538.4
352.193	542.2
352.57	539.6
352.969	550.2
353.367	525.4
353.766	524.6
354.164	537.4
354.563	552.4
354.961	542.8
355.36	539.8
355.759	531.8
356.158	531.6
356.557	537
356.956	528.4
357.355	525
357.754	536
358.153	540.8
358.552	546.6
358.951	522.8
359.35	537.8
359.75	525.6
360.149	525.2
360.527	523.2
360.926	519.6
361.326	532.2
361.726	532.6
362.125	518
362.525	538
362.925	529.4
363.325	534.8
363.724	536.2
364.124	531.6
364.524	528
364.924	530.4
365.324	534.6
365.725	511.6
366.125	542.6
366.525	529.2
366.904	515
367.304	511.6
367.705	545
368.105	536.4
368.506	532.2
368.906	535
369.307	525.2
369.708	536.6
370.108	517.8
370.509	545.2
370.91	524
371.311	523.6
371.712	530.4
372.113	532.4
372.514	519
372.894	529.2
373.295	519.6
373.696	537.8
374.097	540.2
374.499	556.2
374.9	532.4
375.301	517.8
375.703	527.4
376.105	527.8
376.506	539.6
376.908	529
377.309	532.6
377.711	526.4
378.113	528.2
378.493	525.2
378.895	519.2
379.297	538
379.699	518.4
380.102	530.2
380.504	534.8
380.906	523
381.308	543.6
381.71	526
382.113	528.4
382.515	527
382.918	524.4
383.299	526.8
383.701	529.8
384.104	524.4
384.507	505.8
384.909	521
385.312	518.6
385.715	519.6
386.118	528.6
386.521	515.8
386.924	531.2
387.327	517.6
387.709	519.4
388.112	523.2
388.515	527.4
388.918	516.4
389.322	532.4
389.725	527.6
390.129	551.8
390.532	526.8
390.936	528.8
391.339	521
391.743	526.4
392.125	528.2
392.529	538.6
392.933	534.8
393.337	535.4
393.74	529.2
394.144	523.4
394.548	519.6
394.953	530
395.357	533.6
395.761	528.4
396.144	539.2
396.548	528.4
396.952	524
397.357	527.2
397.761	525
398.166	525.2
398.57	529.4
398.975	521
399.379	532.6
399.763	569.2
400.168	525.6
400.572	530.4
400.977	519.8
401.382	544
401.787	540
402.192	544
402.597	544
403.002	523.6
403.386	547.8
403.791	541.2
404.197	519.6
404.602	533.6
405.007	522.8
405.413	522
405.818	530.4
406.224	523.4
406.608	529
407.014	523.2
407.42	540.2
407.825	527
408.231	538
408.637	532.8
409.043	536.6
409.449	525.2
409.834	527.8
410.24	526.6
410.646	540
411.052	542.8
411.458	528.8
411.865	534.2
412.271	530.4
412.677	532.8
413.062	535
413.469	522.2
413.875	552.6
414.282	534
414.689	538.2
415.095	534
415.502	519.8
415.888	531
416.294	524.4
416.701	561.6
417.108	524.8
417.515	540.8
417.923	532
418.33	552.8
418.715	531.4
419.123	523
419.53	533.2
419.937	530.4
420.345	544.2
420.752	521
421.16	543.6
421.546	530
421.953	534.8
422.361	525.4
422.769	541.2
423.177	523.2
423.585	548.6
423.992	551.2
424.379	533.6
424.787	552.2
425.195	552.2
425.603	526.6
426.011	538.6
426.419	543.2
426.806	538
427.214	543
427.623	554.4
428.031	561.8
428.44	547.4
428.848	562
429.235	577.4
429.644	566.6
430.053	565.8
430.461	595
430.87	612.6
431.279	613
431.666	613.8
432.075	627.2
432.484	646.6
432.893	666.2
433.302	697.8
433.711	740.6
434.099	733.8
434.508	738
434.918	759.8
435.327	789.8
435.737	817.2
436.125	833.8
436.534	874.6
436.944	890.8
437.353	917.8
437.763	948.4
438.173	947
438.561	996.8
438.971	985.4
439.381	1011.2
439.791	1056.2
440.201	1056.6
440.589	1085
440.999	1113.8
441.409	1135.2
441.819	1138.8
442.23	1183.6
442.619	1196.4
443.029	1197
443.439	1223.8
443.85	1234.6
444.26	1247.4
444.649	1237.6
445.06	1267
445.471	1269.8
445.881	1291.6
446.292	1320.4
446.682	1328.6
447.092	1308.8
447.503	1368.4
447.914	1339.2
448.325	1346.2
448.715	1356.2
449.126	1366
449.537	1357.8
449.948	1369.4
450.338	1357
450.75	1387.2
451.161	1373
451.572	1402.6
451.984	1398.6
452.374	1382.8
452.786	1410.4
453.197	1391.4
453.609	1406.6
453.999	1397.4
454.411	1406.4
454.823	1413.6
455.235	1432
455.647	1424.2
456.037	1429
456.449	1406.2
456.862	1425.4
457.274	1428.8
457.665	1439.2
458.077	1438.8
458.489	1455.6
458.902	1438.6
459.293	1433.2
459.705	1434.6
460.118	1420.8
460.53	1428
460.921	1437
461.334	1430.8
461.747	1447.8
462.16	1443
462.551	1464
462.964	1452.2
463.377	1447.6
463.79	1441.2
464.182	1448.4
464.595	1441.8
465.008	1445
465.421	1445.8
465.813	1436.6
466.226	1463.2
466.64	1453.8
467.053	1470
467.445	1448.8
467.859	1471.8
468.272	1459
468.686	1468.4
469.078	1451.2
469.492	1442.8
469.906	1470.6
470.298	1460.2
470.712	1438
471.126	1455
471.54	1434.8
471.933	1432.4
472.347	1424.6
472.761	1435
473.175	1419.2
473.568	1417
473.982	1427.2
474.397	1412.6
474.79	1407.8
475.204	1439.2
475.619	1405.6
476.033	1425.6
476.426	1399.6
476.841	1391.8
477.256	1416.4
477.649	1373.4
478.064	1383.8
478.479	1381.8
478.872	1378.6
479.287	1361.4
479.702	1364.4
480.118	1355.6
480.511	1358.4
480.927	1356.4
481.342	1338.2
481.736	1351
482.151	1337.8
482.566	1337
482.96	1319
483.376	1339
483.792	1322.2
484.186	1324.8
484.602	1312.2
485.017	1306.6
485.412	1309.6
485.827	1295
486.243	1294
486.638	1294.4
487.054	1285.6
487.47	1306.6
487.865	1277.6
488.281	1277.6
488.697	1259.2
489.092	1266
489.508	1245.2
489.925	1249.6
490.32	1239.8
490.736	1246.2
491.153	1235.4
491.548	1231.6
491.964	1239.2
492.381	1196
492.776	1200.6
493.193	1213.2
493.61	1210.4
494.006	1184.8
494.422	1184.8
494.84	1166.6
495.235	1182.8
495.652	1148
496.069	1155.8
496.465	1154.8
496.883	1157.2
497.3	1177.2
497.696	1145
498.113	1133
498.509	1117.6
498.927	1113.8
499.344	1106.6
499.741	1107.8
500.158	1113.2
500.576	1102
500.973	1105.6
501.39	1078.6
501.787	1088.6
502.205	1074.2
502.623	1070
503.02	1041
503.438	1058.4
503.856	1061.6
504.253	1062.8
504.671	1047.4
505.068	1039.2
505.486	1039.6
505.905	1060.6
506.302	1035.6
506.72	1034.2
507.118	1019.6
507.536	1011.2
507.955	995.2
508.352	1013.6
508.771	992.6
509.169	991.4
509.587	981
510.006	976
510.404	967
510.823	970.4
511.221	960.4
511.64	947.2
512.038	979.6
512.457	949.8
512.877	950.8
513.275	939
513.694	933.2
514.092	931.4
514.512	928.2
514.91	925.2
515.33	926
515.749	912.4
516.148	906.8
516.568	910.2
516.966	903.2
517.386	906.8
517.785	912.8
518.205	881.8
518.603	882.2
519.024	888.6
519.444	873.2
519.843	887
520.263	876.2
520.662	870.6
521.082	875.8
521.481	856.8
521.902	864.4
522.301	852.8
522.722	838.8
523.121	852.4
523.542	831.2
523.963	836.8
524.362	828
524.783	828.8
525.183	819.6
525.604	827.2
526.003	816.8
526.425	815.6
526.824	813
527.246	819.6
527.646	820.4
528.067	807.2
528.467	805.8
528.888	795.4
529.289	793.8
529.71	797.4
530.11	775.4
530.532	782.4
530.932	769.8
531.354	770
531.755	795.8
532.176	780.2
532.577	770.6
532.999	767.4
533.4	754.2
533.822	763
534.223	759.4
534.645	747.8
535.046	743.8
535.468	746.8
535.869	763.2
536.292	738
536.693	769.4
537.115	733
537.516	735.2
537.939	729.2
538.34	752.2
538.742	742.4
539.165	733.4
539.566	724.6
539.989	710.8
540.391	717.8
540.814	715.2
541.216	720.6
541.639	727.6
542.041	722.2
542.464	716.2
542.866	704.4
543.268	701.6
543.691	717.8
544.093	712
544.517	710.8
544.919	703
545.343	711
545.745	699.6
546.147	698
546.571	679.8
546.974	684.4
547.398	683.8
547.8	696.4
548.224	680.8
548.627	680.4
549.03	688
549.454	675.2
549.857	664
550.281	673.8
550.684	667.8
551.087	678
551.512	666.2
551.915	672.8
552.34	666
552.743	665
553.146	662.8
553.571	656.8
553.975	672.2
554.399	650.6
554.803	691
555.207	643
555.632	641.4
556.036	651
556.461	641.2
556.865	649.6
557.268	640.8
557.694	635.6
558.098	642.6
558.502	636.4
558.927	624.4
559.332	629.2
559.736	632.2
560.162	629.4
560.566	630.2
560.992	634.6
561.396	631.4
561.801	629.6
562.227	622.2
562.631	622
563.036	616.4
563.462	631.6
563.867	622.4
564.272	610
564.698	621
565.103	605
565.508	629.8
565.935	609.4
566.34	609.2
566.745	614.8
567.172	602.4
567.577	616.4
567.982	615
568.409	606.8
568.815	595.2
569.22	592
569.626	599.8
570.053	590.2
570.459	606.8
570.865	602.2
571.292	600.4
571.698	594.6
572.104	586.8
572.531	601.4
572.937	600.6
573.343	601.2
573.75	589
574.177	587.8
574.583	593.8
574.99	588.6
575.396	596.2
575.824	585
576.231	585.2
576.637	578.6
577.065	597.4
577.472	578
577.879	580.6
578.286	587.2
578.714	571.8
579.121	576.6
579.528	582.2
579.935	580.8
580.364	573.4
580.771	566.2
581.178	571.4
581.585	576.4
582.014	573.4
582.421	569.6
582.829	561.2
583.236	576.8
583.644	563.8
584.073	561.2
584.481	574.6
584.889	571.2
585.296	572.4
585.726	567.2
586.134	565.2
586.542	566.2
586.95	582
587.358	556.8
587.787	567.8
588.196	558.2
588.604	561.8
589.012	564.2
589.421	555.2
589.851	552.2
590.259	563.4
590.668	562.4
591.076	582.6
591.485	554.6
591.894	566.8
592.324	558
592.733	565.4
593.142	546.8
593.551	547.8
593.96	582
594.369	541.2
594.8	553
595.209	553.4
595.618	538.6
596.028	545.4
596.437	545.6
596.847	538.8
597.256	540
597.687	544.6
598.097	548.6
598.507	536
598.917	534.4
599.327	545.8
599.736	538.4
600.146	546
600.556	549
600.988	563.8
601.398	547
601.808	552.2
602.219	532.4
602.629	537.2
603.039	541.6
603.45	565
603.86	535.6
604.271	551
604.703	536
605.114	533.4
605.525	549.4
605.935	546
606.346	553.6
606.757	537
607.168	532.4
607.579	532.4
607.99	543.6
608.402	540.2
608.813	537.4
609.224	529.6
609.636	530
610.047	531.2
610.48	539.2
610.892	546.2
611.303	537.4
611.715	534
612.127	532
612.539	534.2
612.95	533
613.362	528
613.774	525.4
614.186	528.6
614.599	528.6
615.011	545.8
615.423	543
615.835	534.6
616.248	526.8
616.66	539.4
617.073	528.2
617.485	533.6
617.898	535.6
618.311	531.6
618.723	538.8
619.136	557.8
619.549	547.2
619.962	558.2
620.375	533
620.788	532.6
621.201	533.6
621.614	540.2
622.028	528.2
622.441	540.6
622.854	542.8
623.268	528.4
623.681	531
624.095	543.6
624.509	540.6
624.922	540.4
625.336	520.6
625.728	527.6
626.142	543
626.556	539
626.97	530.4
627.384	533.4
627.799	531.2
628.213	533.2
628.627	527.2
629.041	523.4
629.456	530.6
629.87	526.2
630.285	536.2
630.699	535.8
631.093	526.4
631.507	534.2
631.922	530
632.337	544.4
632.752	523.4
633.167	520
633.582	521.4
633.997	520.6
634.412	516.6
634.806	534.8
635.221	527.6
635.637	530.8
636.052	515
636.468	525.4
636.883	543.4
637.299	526.2
637.715	516.8
638.109	525.4
638.525	517.2
638.941	530.4
639.357	520.4
639.773	531.8
640.189	525.2
640.584	518.8
641	521.4
641.416	511.8
641.832	520.6
642.249	520.6
642.665	521.2
643.06	528.4
643.477	534
643.894	511.8
644.31	516.8
644.727	523
645.123	509.4
645.54	515.6
645.957	517.8
646.374	532.4
646.77	512.4
647.187	537.4
647.604	516
648.021	503
648.439	513.8
648.835	515.6
649.252	524.8
649.67	514.6
650.088	520.6
650.484	518.8
650.902	529
651.32	527.8
651.738	519
652.134	515.6
652.552	521.8
652.971	532
653.389	515.2
653.786	529.4
654.204	516
654.622	512.2
655.019	517.6
655.438	522.6
655.857	517
656.275	523
656.673	509.2
657.091	518.4
657.51	512.6
657.908	520.2
658.327	526.8
658.746	506.6
659.144	511.6
659.563	519.2
659.982	519.6
660.38	506.6
660.8	519.6
661.219	525.6
661.617	525.6
662.037	508.6
662.457	532
662.855	502
663.275	544.2
663.695	516.6
664.094	506
664.514	512.8
664.934	504.6
665.333	523.6
665.753	506.2
666.152	508.2
666.572	512
666.993	519.8
667.392	502.4
667.812	513.4
668.212	511
668.632	512.8
669.053	519.4
669.453	512.8
669.874	517.2
670.273	513.4
670.694	511.8
671.116	524.4
671.515	520.4
671.937	519.8
672.337	516.2
672.758	516.2
673.158	521.2
673.58	515.6
673.98	509
674.402	512.8
674.824	513
675.224	502.8
675.646	502.2
676.047	507.4
676.469	514.6
676.869	523.4
677.292	514.4
677.693	506
678.115	504.4
678.516	511.4
678.939	517.8
679.34	498.2
679.762	517.8
680.164	506.8
680.586	507.8
680.988	513.4
681.411	530.2
681.812	508.2
682.236	502
682.637	502.8
683.061	508
683.462	504
683.864	507.6
684.288	514.8
684.69	500.2
685.114	522
685.516	516.8
685.94	500.2
686.342	519.2
686.766	502.8
687.168	509
687.571	523.4
687.995	511.4
688.398	497.2
688.822	509.2
689.225	524.6
689.628	523.4
690.052	509.2
690.456	520.2
690.88	506.8
691.284	505.2
691.687	511.8
692.112	504
692.515	503.2
692.919	502.4
693.344	508.6
693.747	501.6
694.173	503.8
694.577	513.2
694.98	503.8
695.406	498.6
695.81	507.4
696.214	509.4
696.64	506
697.044	515
697.448	519.6
697.874	504.8
698.279	508.6
698.684	497.8
699.11	496.2
699.514	504
699.919	505.4
700.324	497.4
700.75	508.4
701.156	497.4
701.561	520
701.987	510.2
702.393	513.2
702.798	511.6
703.203	512.6
703.63	505.2
704.036	514.8
704.442	506.8
704.847	503
705.274	508
705.68	508.2
706.086	508.8
706.492	505.8
706.92	502.8
707.326	508.4
707.732	499.4
708.139	495.6
708.545	503.2
708.973	507.2
709.38	503.8
709.786	495.6
710.193	512.8
710.6	504.8
711.028	497.6
711.435	504.4
711.842	502.6
712.249	506.6
712.656	503.8
713.064	513.2
713.492	491.8
713.9	507.8
714.307	508.8
714.715	507.8
715.123	507
715.53	507.2
715.938	519
716.367	507
716.775	502.4
717.184	498.6
717.592	500.2
718	518.2
718.408	526.6
718.816	551.8
719.225	507.6
719.633	507.4
720.042	502.8
720.472	500.2
720.881	524.4
721.29	509.6
721.699	498.2
722.108	509.8
722.517	504
722.926	502.4
723.335	511.2
723.744	505.6
724.154	513.6
724.563	506.6
724.973	505
725.382	501.6
725.792	504
726.202	498.6
726.612	511.2
727.022	506
727.432	503.4
779.813	497.6
780.223	538.4
780.634	498.2
781.044	503
781.454	506.4
781.865	512.6
782.276	499.8
782.686	512.4
783.097	507.6
783.508	502
783.919	511.4
784.33	513.8
784.741	512.6
785.152	498
785.563	496.6
785.974	500.6
786.386	512.8
786.776	507.6
787.188	507.4
787.599	505
788.011	514.4
788.423	512
788.835	499.8
789.247	501
789.659	498
790.071	502.8
790.483	541.2
790.874	502.8
791.286	517.6
791.699	505.4
792.111	502
792.524	506.8
792.937	503
793.349	497.4
793.741	494.4
794.154	504.8
794.567	516.8
794.98	508.2
795.393	496.8
795.785	515.8
796.198	502.8
796.612	506
797.026	506
797.439	492.8
797.831	503.2
798.245	501.2
798.659	504.4
799.073	500
799.487	504.2
799.88	503.2
800.294	498
800.708	508.8
801.123	501
801.516	518
801.93	501
802.345	490.6
802.76	505.4
803.153	509.4
803.568	517.4
803.983	517
804.377	503
804.792	492.6
805.207	488.2
805.601	505.6
806.016	528.8
806.432	497.4
806.826	524.4
807.242	514.6
807.658	504.8
808.052	497.4
808.468	501.4
808.884	501.8
809.279	507
809.695	518.8
810.111	515.6
810.506	505.4
810.922	526.8
811.339	493.4
811.734	515.4
812.151	497.6
812.546	503.2
812.963	501.8
813.38	508.6
813.776	503.4
814.193	524.6
814.589	495.8
815.006	499.8
815.402	507.2
815.82	496.6
816.237	500.8
816.633	503.4
817.051	498.2
817.448	502.4
817.866	492
818.262	513.2
818.68	504.4
819.077	505.4
819.495	496.2
819.892	533
820.311	492.8
820.708	495.4
821.127	499
821.524	514.2
821.943	499.4
822.34	516.8
822.759	505.4
823.157	486.2
823.576	501
823.974	502.4
824.393	586.6
824.791	495.4
825.189	485
825.609	495.2
826.007	496.4
826.427	497.2
826.826	509.6
827.246	500.4
827.644	489.6
828.043	502.8
828.463	497.8
828.862	510.6
829.261	510.4
829.682	496.2
830.081	510.8
830.502	496
830.901	510.4
831.301	492.2
831.722	490.6
832.121	500.4
832.521	491.8
832.943	500.4
833.342	499.2
833.742	490.6
834.164	501.8
834.564	495.4
834.965	496.2
835.386	498.6
835.787	499.6
836.188	505.2
836.588	500.6
837.01	510.2
837.411	496
837.812	507.4
838.213	505.8
838.636	496.2
839.037	553.2
839.438	498.6
839.84	503.2
840.263	503.6
840.664	498.8
841.066	495.2
841.468	503.2
841.891	500.8
842.293	512.8
842.695	499.8
843.098	501.2
843.5	494
843.902	499
844.326	498.4
844.729	498.8
845.131	518
845.534	499.6
845.937	506.6
846.34	515.4
846.764	493.8
847.167	494.2
847.571	493.4
847.974	504.8
848.377	502.8
848.781	536.2
849.184	510.6
849.588	499
849.992	490.6
850.396	507
850.821	516.8
851.225	494.8
851.63	497
