#lambda/nm	C1
208.295	472.6
208.67	430.4
209.045	394
209.419	398.6
209.794	542.8
210.169	524.6
210.544	622
210.919	539
211.295	537.4
211.67	530.4
212.045	531.8
212.421	533.4
212.796	555.2
213.172	527.2
213.547	524
213.923	527.8
214.299	528.4
214.675	543.2
215.051	539.2
215.427	546.6
215.803	543.4
216.179	544.8
216.555	535
216.932	539.6
217.308	534.2
217.684	539
218.061	538.8
218.438	544.2
218.814	537.2
219.191	551.6
219.568	537
219.945	537.2
220.322	538.2
220.699	535.4
221.076	547.4
221.453	540.2
221.83	528.6
222.208	531.2
222.585	533.6
222.962	543
223.34	537.4
223.717	540.6
224.095	533.4
224.473	534.8
224.851	529.8
225.229	535.4
225.607	550.2
225.985	529.4
226.363	536
226.741	534.4
227.119	537.6
227.497	547
227.876	524.2
228.254	547
228.633	538.8
229.011	536.4
229.39	545.4
229.769	532.6
230.148	537.6
230.527	559.2
230.905	540
231.284	538.6
231.664	529.8
232.043	543.6
232.422	542
232.801	525.4
233.181	540
233.56	535
233.94	542.4
234.319	526.4
234.699	530.4
235.079	566.8
235.458	573
235.838	543.2
236.218	520.4
236.598	525.8
236.978	531.6
237.358	533.8
237.738	534.8
238.119	534
238.499	521.6
238.88	541.2
239.26	543.6
239.641	527.4
240.021	528.6
240.402	527.2
240.783	527.4
241.163	537.2
241.544	537
241.925	542.6
242.306	551.4
242.687	532
243.069	536.8
243.45	540.2
243.831	532.2
244.212	525.6
244.594	565.8
244.975	541.4
245.357	541.4
245.739	529
246.12	538
246.502	544.4
246.884	528
247.266	533
247.648	534
248.03	559.6
248.412	541
248.794	533
249.176	529.2
249.559	542.2
249.941	531.4
250.323	527.2
250.706	528
251.089	537
251.471	537.4
251.854	541.6
252.237	538.8
252.62	548.8
253.002	531.4
253.385	540.4
253.769	549.6
254.152	537
254.535	537
254.918	530.4
255.301	537
255.685	530
256.068	534.8
256.452	560.6
256.835	550.2
257.219	543.6
257.603	552
257.986	529
258.37	542.2
258.754	533.6
259.138	538.6
259.522	546
259.906	533
260.29	543.4
260.675	531.6
261.059	532.4
261.443	523
261.828	544.4
262.212	543
262.597	533.6
262.981	531
263.366	541.2
263.751	535.8
264.136	534.8
264.521	533.4
264.906	524.2
265.291	544.6
265.676	536.2
266.061	537.6
266.446	555.4
266.831	531.8
267.217	548.8
267.602	539.4
267.987	533.8
268.373	535
268.759	546
269.144	544.4
269.53	534.8
269.916	531.4
270.302	533.2
270.688	539.2
271.074	534.8
271.46	536.6
271.846	556.2
272.232	528.4
272.618	531
273.004	535.6
273.391	549.8
273.777	534
274.164	533.8
274.55	542.4
274.937	529.6
275.324	526.8
275.71	538.2
276.097	539.8
276.484	524.8
276.871	535.8
277.258	536.8
277.645	521.4
278.032	528.4
278.419	528.4
278.807	535
279.194	523.8
279.581	532.6
279.969	544.2
280.356	544.6
280.744	534.2
281.131	557
281.519	543.2
281.907	534.2
282.295	532.2
282.682	545.4
283.07	538
283.458	539.6
283.846	540.6
284.235	547
284.623	546
285.011	529.6
285.399	539.8
285.788	532.6
286.176	520.6
286.565	548.4
286.953	531.6
287.342	540.6
287.731	528.6
288.119	530.4
288.508	540.4
288.897	531.8
289.286	522.2
289.675	544.8
290.064	545.6
290.453	541
290.821	538.8
291.21	552.2
291.599	536
291.989	535.4
292.378	542.8
292.768	551.2
293.157	545.4
293.547	546.4
293.936	537.4
294.326	530.8
294.716	544.2
295.106	536
295.496	539.6
295.886	542
296.276	534.6
296.666	533.8
297.056	528.8
297.446	520.2
297.836	548
298.227	530.2
298.617	533.4
299.008	544.8
299.398	527.6
299.789	539.8
300.179	536
300.57	547.6
300.961	533.6
301.352	532.8
301.742	544.2
302.133	540
302.524	532.4
302.915	543.6
303.307	528.8
303.698	540.6
304.089	533.2
304.48	541.8
304.872	539.4
305.263	539.4
305.655	535.2
306.046	542
306.438	546.2
306.829	524.8
307.221	548.8
307.613	542.4
308.005	552
308.397	555
308.789	554.6
309.181	555.4
309.573	552.4
309.965	548
310.357	537.2
310.749	542
311.142	526
311.534	527.2
311.926	541.6
312.319	539
312.711	533
313.104	550.2
313.497	526.4
313.889	564.2
314.282	552
314.675	560.8
315.068	536.6
315.461	534.4
315.854	565.6
316.247	541
316.64	534.4
317.033	536.6
317.405	540.2
317.798	534.6
318.192	549.6
318.585	536
318.979	534.6
319.372	534.8
319.766	538.6
320.16	539.4
320.553	552.6
320.947	551.8
321.341	532.2
321.735	533.8
322.129	521.2
322.523	557
322.917	532.8
323.311	548.6
323.705	532.6
324.099	540
324.494	548
324.888	539.8
325.282	541.8
325.677	554
326.071	540.4
326.466	543.2
326.861	541.2
327.255	545.4
327.65	550.2
328.045	551.4
328.44	538.8
328.835	535
329.23	534.2
329.625	556.6
330.02	532
330.415	561.4
330.81	543
331.206	532.8
331.601	532.2
331.996	541.8
332.37	555.8
332.766	529.4
333.161	558.4
333.557	531.8
333.953	538.4
334.348	704.8
334.744	545.8
335.14	525.8
335.536	533.8
335.932	549.2
336.328	534.2
336.724	542.6
337.12	532
337.516	534.8
337.913	535.4
338.309	550.6
338.705	538.2
339.102	542.2
339.498	527.6
339.895	545
340.291	531.4
340.688	537.8
341.085	526.2
341.481	527.6
341.878	534
342.275	548.8
342.672	526.6
343.069	527.2
343.466	518.4
343.842	536.6
344.239	526.4
344.636	532.6
345.033	522.2
345.431	527.8
345.828	529.8
346.225	528.4
346.623	558.8
347.02	533.8
347.418	539.4
347.816	545
348.213	531.2
348.611	536.8
349.009	524.8
349.407	542.6
349.805	527.4
350.203	531.4
350.601	539
350.999	535.6
351.397	583.2
351.795	533.2
352.193	535.6
352.57	539
352.969	541.2
353.367	525
353.766	524
354.164	530.4
354.563	550.2
354.961	531.8
355.36	531.6
355.759	531
356.158	529.6
356.557	524.8
356.956	527
357.355	525.8
357.754	537.8
358.153	527.8
358.552	555.2
358.951	529
359.35	547.2
359.75	524.8
360.149	523.2
360.527	516.6
360.926	529.6
361.326	531.2
361.726	536.8
362.125	527
362.525	537.2
362.925	525
363.325	533.8
363.724	530.4
364.124	522.8
364.524	522
364.924	524
365.324	530.8
365.725	521.8
366.125	527.8
366.525	528
366.904	525.2
367.304	505.4
367.705	545.8
368.105	532
368.506	521.6
368.906	523
369.307	524
369.708	529.4
370.108	519.4
370.509	529.6
370.91	516.2
371.311	527.4
371.712	524.6
372.113	523.4
372.514	516.2
372.894	526.6
373.295	523.6
373.696	532.4
374.097	532.2
374.499	550.2
374.9	526
375.301	520
375.703	529.4
376.105	523.6
376.506	530.6
376.908	539.6
377.309	531.2
377.711	523.4
378.113	517.4
378.493	529
378.895	512.6
379.297	540
379.699	517
380.102	529.8
380.504	527.2
380.906	524.8
381.308	543.6
381.71	531
382.113	531.8
382.515	531.6
382.918	527
383.299	531.6
383.701	537.4
384.104	539.4
384.507	517.8
384.909	534.2
385.312	511.8
385.715	517.8
386.118	527
386.521	512.8
386.924	534.4
387.327	532.8
387.709	518.2
388.112	518.2
388.515	525.6
388.918	532
389.322	532.2
389.725	527.2
390.129	541
390.532	527.4
390.936	526.2
391.339	521.4
391.743	528.2
392.125	523.2
392.529	536.8
392.933	540.6
393.337	533.8
393.74	532.6
394.144	537.8
394.548	519.4
394.953	532
395.357	533
395.761	518.4
396.144	529.8
396.548	525.8
396.952	524
397.357	535.8
397.761	521.8
398.166	518
398.57	530.4
398.975	518.8
399.379	530.6
399.763	564.2
400.168	524
400.572	528.4
400.977	520.8
401.382	540.8
401.787	535.2
402.192	546.4
402.597	539.2
403.002	518.4
403.386	534.8
403.791	548
404.197	525
404.602	531.4
405.007	526.4
405.413	521.2
405.818	530.4
406.224	522.4
406.608	526.6
407.014	520
407.42	542.6
407.825	524.2
408.231	537.6
408.637	530.8
409.043	538.4
409.449	525.4
409.834	518.6
410.24	535.2
410.646	531
411.052	535.4
411.458	529.6
411.865	533.4
412.271	535.2
412.677	526.2
413.062	534.2
413.469	516.4
413.875	548.6
414.282	542.2
414.689	542.2
415.095	526.8
415.502	525.8
415.888	524.8
416.294	514.6
416.701	560.8
417.108	533.6
417.515	534.2
417.923	533.4
418.33	539.2
418.715	535.4
419.123	525.6
419.53	521.2
419.937	532.2
420.345	536.6
420.752	523
421.16	538.4
421.546	526.4
421.953	534.4
422.361	527.6
422.769	522.6
423.177	522.6
423.585	554.8
423.992	548.8
424.379	533
424.787	538.2
425.195	545
425.603	535.8
426.011	542.2
426.419	543.2
426.806	535.4
427.214	529.2
427.623	549.2
428.031	553.6
428.44	541.8
428.848	555.6
429.235	549.6
429.644	554.2
430.053	563.8
430.461	582.2
430.87	598.6
431.279	591.6
431.666	592.8
432.075	605.6
432.484	624.2
432.893	617.6
433.302	647.2
433.711	700.8
434.099	685.2
434.508	693.4
434.918	703.4
435.327	737.4
435.737	757
436.125	772.8
436.534	787.2
436.944	806.8
437.353	821.4
437.763	852.8
438.173	861.4
438.561	883
438.971	884.6
439.381	912.4
439.791	932.6
440.201	914.8
440.589	958.2
440.999	988
441.409	994.2
441.819	994.8
442.23	1020.8
442.619	1032.6
443.029	1034.8
443.439	1050
443.85	1078.8
444.26	1083.2
444.649	1088.6
445.06	1090
445.471	1116.4
445.881	1124
446.292	1132
446.682	1155.6
447.092	1124.6
447.503	1187.4
447.914	1155.8
448.325	1159.6
448.715	1168.8
449.126	1175.8
449.537	1164
449.948	1163
450.338	1170.4
450.75	1180.2
451.161	1179.2
451.572	1191
451.984	1184.4
452.374	1189
452.786	1196.6
453.197	1215.6
453.609	1219
453.999	1202
454.411	1207.4
454.823	1214.2
455.235	1206.8
455.647	1226
456.037	1208.6
456.449	1202.4
456.862	1218.4
457.274	1229.2
457.665	1218.6
458.077	1236.2
458.489	1253
458.902	1216
459.293	1214.2
459.705	1207.6
460.118	1215.4
460.53	1217
460.921	1218
461.334	1228
461.747	1213.2
462.16	1243.8
462.551	1239.4
462.964	1232.4
463.377	1216.6
463.79	1219.2
464.182	1228.6
464.595	1224.8
465.008	1223.8
465.421	1226.4
465.813	1210.8
466.226	1231.6
466.64	1227.2
467.053	1256
467.445	1241
467.859	1251.2
468.272	1231
468.686	1238.6
469.078	1232.4
469.492	1209.2
469.906	1237.8
470.298	1247.2
470.712	1223.4
471.126	1242.8
471.54	1201.2
471.933	1218.6
472.347	1220
472.761	1209.8
473.175	1218.8
473.568	1212.4
473.982	1190.2
474.397	1208.4
474.79	1213.6
475.204	1200.6
475.619	1193.2
476.033	1212.4
476.426	1190
476.841	1183.8
477.256	1208.4
477.649	1171.4
478.064	1151.8
478.479	1178.2
478.872	1159.2
479.287	1135
479.702	1166.6
480.118	1161.2
480.511	1154.4
480.927	1168.2
481.342	1144.8
481.736	1161.4
482.151	1147.2
482.566	1157.6
482.96	1145
483.376	1145.4
483.792	1139.4
484.186	1142.6
484.602	1126.4
485.017	1127
485.412	1116.8
485.827	1124.6
486.243	1106.2
486.638	1135.4
487.054	1117.4
487.47	1105.4
487.865	1083
488.281	1084.8
488.697	1079
489.092	1089.2
489.508	1079.8
489.925	1065.6
490.32	1069.8
490.736	1070
491.153	1054.8
491.548	1050.4
491.964	1055.6
492.381	1039.6
492.776	1061
493.193	1036
493.61	1044.6
494.006	1026
494.422	1036.2
494.84	1018.8
495.235	1027
495.652	1026.2
496.069	1021.8
496.465	1001
496.883	999.2
497.3	1026.4
497.696	986
498.113	992.8
498.509	970.4
498.927	957.2
499.344	965.8
499.741	972.6
500.158	979
500.576	970
500.973	958.4
501.39	957.6
501.787	938.8
502.205	943.8
502.623	929.4
503.02	920.6
503.438	921
503.856	923.2
504.253	925.6
504.671	916.4
505.068	903
505.486	912
505.905	924.8
506.302	898.6
506.72	913.8
507.118	889.6
507.536	896
507.955	886
508.352	885
508.771	888
509.169	886.2
509.587	870.4
510.006	870
510.404	859
510.823	864.4
511.221	855
511.64	844
512.038	862.8
512.457	843.8
512.877	851
513.275	843
513.694	838.8
514.092	831.2
514.512	841
514.91	832.4
515.33	817.6
515.749	823.8
516.148	835.4
516.568	819.6
516.966	816.4
517.386	806
517.785	802
518.205	792.4
518.603	785.8
519.024	788.4
519.444	785
519.843	793.8
520.263	796.2
520.662	782
521.082	773.8
521.481	779.4
521.902	769.6
522.301	778.2
522.722	773
523.121	772.6
523.542	761.4
523.963	763.6
524.362	762.2
524.783	755
525.183	746.8
525.604	747.2
526.003	739.8
526.425	735.8
526.824	751.8
527.246	740.4
527.646	744.4
528.067	737.4
528.467	732.8
528.888	735.6
529.289	732.4
529.71	718.6
530.11	725.4
530.532	714.2
530.932	717.4
531.354	711.4
531.755	732.8
532.176	715.6
532.577	700
532.999	708.8
533.4	699.6
533.822	710
534.223	694.4
534.645	690.4
535.046	691
535.468	685.2
535.869	695.2
536.292	681.2
536.693	716
537.115	684.4
537.516	679.2
537.939	673.2
538.34	698
538.742	681.8
539.165	683
539.566	672
539.989	663.2
540.391	671.6
540.814	674.8
541.216	680
541.639	670.8
542.041	672.8
542.464	665.8
542.866	662
543.268	657.2
543.691	668.4
544.093	658.4
544.517	681.4
544.919	649.4
545.343	672.4
545.745	646.4
546.147	652.2
546.571	651.8
546.974	641.8
547.398	640.8
547.8	668.2
548.224	639
548.627	633.4
549.03	647.2
549.454	637.8
549.857	625.8
550.281	631.6
550.684	630.8
551.087	644.8
551.512	632
551.915	632.6
552.34	631.2
552.743	625.4
553.146	627.2
553.571	621.8
553.975	642.4
554.399	616.8
554.803	664
555.207	611.6
555.632	608
556.036	609.8
556.461	607
556.865	607.2
557.268	608.6
557.694	608.6
558.098	618
558.502	608.4
558.927	595.8
559.332	596.8
559.736	607
560.162	601.6
560.566	602.6
560.992	601.2
561.396	596.4
561.801	598.4
562.227	597.4
562.631	592.8
563.036	587
563.462	605
563.867	590.2
564.272	580.2
564.698	597.2
565.103	574.6
565.508	602.4
565.935	575.4
566.34	579.6
566.745	600.8
567.172	582.2
567.577	605.4
567.982	599.8
568.409	583.6
568.815	574.8
569.22	582.6
569.626	588.4
570.053	572
570.459	585.2
570.865	585
571.292	587
571.698	575.8
572.104	570.2
572.531	571.6
572.937	585.6
573.343	574.2
573.75	564.8
574.177	578.2
574.583	577.6
574.99	574.4
575.396	572.6
575.824	573.6
576.231	574.2
576.637	564.4
577.065	582.6
577.472	558.6
577.879	568.2
578.286	577.2
578.714	562.6
579.121	574
579.528	567.2
579.935	568
580.364	564.6
580.771	553.8
581.178	553.8
581.585	566.4
582.014	562
582.421	549.4
582.829	549.6
583.236	561.2
583.644	545.8
584.073	553.6
584.481	565.6
584.889	548
585.296	561.6
585.726	558
586.134	552.4
586.542	557.4
586.95	569.8
587.358	543.4
587.787	554.2
588.196	550.8
588.604	548.6
589.012	549.2
589.421	547.2
589.851	535.4
590.259	557.4
590.668	548.4
591.076	577
591.485	542.8
591.894	553.8
592.324	556
592.733	555.2
593.142	539.4
593.551	548.4
593.96	551.6
594.369	545.6
594.8	538.6
595.209	551.4
595.618	533.4
596.028	541.8
596.437	544.6
596.847	552.2
597.256	552
597.687	551.6
598.097	542
598.507	538.8
598.917	546.4
599.327	547.4
599.736	549.4
600.146	553.2
600.556	545.6
600.988	556.2
601.398	538
601.808	544.4
602.219	540
602.629	550.8
603.039	543.8
603.45	567.4
603.86	548.2
604.271	570.2
604.703	555.6
605.114	553.6
605.525	556.8
605.935	555.4
606.346	570.8
606.757	558
607.168	553.8
607.579	550.6
607.99	567.2
608.402	559.4
608.813	560.8
609.224	561
609.636	564
610.047	560.2
610.48	572.6
610.892	577.4
611.303	582
611.715	577.4
612.127	565.2
612.539	571
612.95	575
613.362	564.6
613.774	570.4
614.186	575.6
614.599	574
615.011	582.8
615.423	581.6
615.835	581.6
616.248	570.4
616.66	589.2
617.073	587.4
617.485	586.8
617.898	591.2
618.311	586.8
618.723	599.6
619.136	610.4
619.549	608.2
619.962	610
620.375	592.6
620.788	601.6
621.201	598
621.614	602.8
622.028	595
622.441	599.8
622.854	606
623.268	593.6
623.681	599.2
624.095	608.8
624.509	609.4
624.922	612
625.336	598
625.728	603.6
626.142	614
626.556	609.2
626.97	613.6
627.384	606.8
627.799	599.4
628.213	605.8
628.627	589.2
629.041	602.2
629.456	593
629.87	602
630.285	602.8
630.699	597.8
631.093	589.2
631.507	601
631.922	598.8
632.337	598
632.752	589.8
633.167	586.8
633.582	589.4
633.997	585.6
634.412	581.2
634.806	593.2
635.221	585.4
635.637	591
636.052	576.4
636.468	583.6
636.883	600.4
637.299	581
637.715	570.2
638.109	576.2
638.525	569.6
638.941	586.4
639.357	584.6
639.773	581.8
640.189	578
640.584	569.8
641	573
641.416	561.6
641.832	566.2
642.249	566
642.665	573.8
643.06	571.8
643.477	580.8
643.894	549.8
644.31	556.6
644.727	565.2
645.123	551
645.54	551.6
645.957	561.6
646.374	565.8
646.77	555.8
647.187	580
647.604	550
648.021	544.2
648.439	549.2
648.835	558.6
649.252	547.4
649.67	555
650.088	555.8
650.484	545
650.902	561.6
651.32	548.6
651.738	543
652.134	544
652.552	554.4
652.971	545.4
653.389	543.6
653.786	552.6
654.204	548.8
654.622	535.6
655.019	543.6
655.438	539.4
655.857	540.6
656.275	538.8
656.673	534
657.091	545.8
657.51	532
657.908	544.2
658.327	542.2
658.746	526.2
659.144	534.6
659.563	541.8
659.982	531.2
660.38	524.8
660.8	526.8
661.219	532.2
661.617	529.4
662.037	530.2
662.457	538.6
662.855	515.4
663.275	556
663.695	518.2
664.094	523.8
664.514	526
664.934	509.8
665.333	535.4
665.753	516.6
666.152	511.8
666.572	515.8
666.993	538.2
667.392	516.8
667.812	524.6
668.212	521
668.632	532.2
669.053	523
669.453	522.8
669.874	514.6
670.273	519.8
670.694	523.2
671.116	528
671.515	526.2
671.937	523.8
672.337	521.6
672.758	515.4
673.158	522.6
673.58	510.6
673.98	519.4
674.402	526.2
674.824	509.8
675.224	521
675.646	507
676.047	511.2
676.469	522.2
676.869	516.8
677.292	522.4
677.693	513.4
678.115	510.8
678.516	519
678.939	517.8
679.34	517.8
679.762	518.2
680.164	519
680.586	507
680.988	522.8
681.411	527.2
681.812	514.6
682.236	511.4
682.637	507.2
683.061	504.8
683.462	515.8
683.864	521
684.288	523.2
684.69	506.2
685.114	526.8
685.516	518.8
685.94	502.2
686.342	517.2
686.766	507.4
687.168	512.4
687.571	531
687.995	513.4
688.398	500.6
688.822	510.6
689.225	527.6
689.628	527.6
690.052	513.8
690.456	514.8
690.88	511.4
691.284	496.8
691.687	516.6
692.112	502.6
692.515	505.2
692.919	513.4
693.344	514.8
693.747	512.6
694.173	505.2
694.577	515.2
694.98	506.6
695.406	500
695.81	503.4
696.214	512.6
696.64	506
697.044	509.2
697.448	513.6
697.874	503.4
698.279	506.6
698.684	495.8
699.11	495.6
699.514	506.4
699.919	502.2
700.324	502.4
700.75	507
701.156	507.8
701.561	516.4
701.987	507.8
702.393	514.8
702.798	522
703.203	507.8
703.63	505.2
704.036	508.4
704.442	504.4
704.847	502.8
705.274	507.6
705.68	509.6
706.086	512.2
706.492	501.8
706.92	512.4
707.326	516.2
707.732	495.2
708.139	498.4
708.545	500.4
708.973	500.4
709.38	507
709.786	499.4
710.193	520.6
710.6	509.4
711.028	495.2
711.435	510.2
711.842	508.8
712.249	500.8
712.656	505.4
713.064	509.4
713.492	495.2
713.9	502.8
714.307	509.6
714.715	499.4
715.123	514.6
715.53	510
715.938	512.8
716.367	516
716.775	500.8
717.184	503.4
717.592	512
718	513
718.408	534.8
718.816	542.8
719.225	513.4
719.633	507.4
720.042	504.2
720.472	503.4
720.881	522.8
721.29	506.6
721.699	491.6
722.108	510.6
722.517	502.8
722.926	506.8
723.335	513.6
723.744	508.6
724.154	502.8
724.563	507.8
724.973	512.6
725.382	506.6
725.792	501
726.202	496.2
726.612	512.8
727.022	501.8
727.432	494
779.813	502.2
780.223	535.4
780.634	499.4
781.044	490.8
781.454	505.2
781.865	515.4
782.276	491.4
782.686	510
783.097	492.8
783.508	504.8
783.919	502.4
784.33	514.2
784.741	516
785.152	495.8
785.563	489.6
785.974	501.4
786.386	505.8
786.776	499.8
787.188	503.8
787.599	492.8
788.011	506.8
788.423	506.4
788.835	496.8
789.247	494
789.659	504.2
790.071	497.4
790.483	525.6
790.874	499
791.286	509
791.699	496
792.111	508.2
792.524	504.2
792.937	498.2
793.349	494.2
793.741	491.2
794.154	495.6
794.567	514.6
794.98	504.2
795.393	499.2
795.785	508.4
796.198	498.8
796.612	508.2
797.026	504.8
797.439	488.2
797.831	496.8
798.245	500
798.659	504.6
799.073	504
799.487	500.2
799.88	504.2
800.294	504.6
800.708	501.6
801.123	502.2
801.516	516
801.93	490.8
802.345	491.2
802.76	503.2
803.153	514
803.568	514
803.983	508.2
804.377	509.8
804.792	485
805.207	487.4
805.601	506.8
806.016	521.2
806.432	490.2
806.826	515.2
807.242	512.6
807.658	502
808.052	500.8
808.468	489.8
808.884	493.6
809.279	504.8
809.695	518.4
810.111	513
810.506	503
810.922	510.2
811.339	494.6
811.734	507.4
812.151	492
812.546	494.2
812.963	490.8
813.38	500.6
813.776	503.6
814.193	514
814.589	500.2
815.006	500.2
815.402	497.2
815.82	491.4
816.237	502.2
816.633	500
817.051	495.2
817.448	501.8
817.866	493.6
818.262	514.6
818.68	497.4
819.077	494.6
819.495	507.6
819.892	522.6
820.311	495
820.708	495.4
821.127	493.6
821.524	510.4
821.943	502.2
822.34	512.8
822.759	500.2
823.157	498.4
823.576	510.4
823.974	505.6
824.393	563.8
824.791	492.6
825.189	488.2
825.609	501.2
826.007	497.4
826.427	490.6
826.826	494
827.246	501.8
827.644	491.2
828.043	508
828.463	497.4
828.862	508.4
829.261	499
829.682	491.6
830.081	501.8
830.502	494
830.901	514.8
831.301	504
831.722	495.8
832.121	504.8
832.521	498
832.943	505.6
833.342	499
833.742	492.4
834.164	498.8
834.564	494.4
834.965	499.4
835.386	498.6
835.787	502.4
836.188	497.8
836.588	504.2
837.01	497.2
837.411	501.2
837.812	507
838.213	509.6
838.636	502.2
839.037	553
839.438	496.2
839.84	503.2
840.263	501
840.664	500.8
841.066	504.2
841.468	495.8
841.891	501.8
842.293	508.4
842.695	500.8
843.098	507.6
843.5	491.2
843.902	505.2
844.326	496
844.729	499.4
845.131	501.6
845.534	496
845.937	507.6
846.34	514.8
846.764	500.8
847.167	500.2
847.571	485
847.974	499.6
848.377	494.4
848.781	535.2
849.184	511.4
849.588	504.2
849.992	496
850.396	508.8
850.821	518.2
851.225	502.8
851.63	492.4
852.034	514.2
852.438	501.6
