#lambda/nm	C1
208.295	464.4
208.67	435.4
209.045	391.6
209.419	402.4
209.794	539.4
210.169	524.8
210.544	626.8
210.919	540.6
211.295	532
211.67	531.2
212.045	531.4
212.421	534.2
212.796	559
213.172	534.2
213.547	531
213.923	540
214.299	529.8
214.675	544.2
215.051	541.4
215.427	550.4
215.803	559.2
216.179	540.6
216.555	535.6
216.932	539.4
217.308	541.2
217.684	537
218.061	536.2
218.438	536.2
218.814	529.6
219.191	545.2
219.568	527.8
219.945	542.8
220.322	533.2
220.699	538
221.076	547
221.453	546.2
221.83	531.6
222.208	541.2
222.585	531.8
222.962	540.4
223.34	541
223.717	530.2
224.095	532
224.473	536.4
224.851	534
225.229	533.8
225.607	548.2
225.985	531
226.363	541.8
226.741	538.2
227.119	530.4
227.497	545.8
227.876	526.8
228.254	546.8
228.633	535.2
229.011	536.8
229.39	541.2
229.769	534.2
230.148	541.4
230.527	552.6
230.905	532.4
231.284	543.6
231.664	535.8
232.043	544.8
232.422	546.2
232.801	538.2
233.181	543.6
233.56	534.6
233.94	543.6
234.319	530.6
234.699	536
235.079	569.8
235.458	575.6
235.838	549
236.218	532.8
236.598	526.8
236.978	537.8
237.358	532.2
237.738	531
238.119	543.2
238.499	528.6
238.88	537
239.26	553.4
239.641	533
240.021	532.8
240.402	537.4
240.783	537.6
241.163	538.6
241.544	546.6
241.925	533.2
242.306	555.8
242.687	529
243.069	534.4
243.45	543.6
243.831	531
244.212	540
244.594	568.6
244.975	549
245.357	538.8
245.739	535
246.12	531.8
246.502	543.6
246.884	532.4
247.266	537.4
247.648	541.2
248.03	560
248.412	533.2
248.794	541.8
249.176	537.2
249.559	544.4
249.941	540
250.323	531
250.706	534.6
251.089	535.4
251.471	545
251.854	530.2
252.237	537.6
252.62	543.4
253.002	534.8
253.385	538.8
253.769	554.8
254.152	539.4
254.535	545.2
254.918	535.4
255.301	544.4
255.685	534
256.068	530.4
256.452	556.6
256.835	545.6
257.219	544.6
257.603	546.8
257.986	530.2
258.37	541.4
258.754	527.6
259.138	540.4
259.522	544.6
259.906	530
260.29	540.4
260.675	534
261.059	532.2
261.443	525.2
261.828	537.8
262.212	539.8
262.597	525.6
262.981	537.6
263.366	545.8
263.751	536
264.136	533.2
264.521	529.6
264.906	523
265.291	543.2
265.676	536.4
266.061	545.8
266.446	550.4
266.831	538
267.217	551.4
267.602	540.6
267.987	541.2
268.373	534.4
268.759	547.8
269.144	541.2
269.53	543.8
269.916	534.2
270.302	535.6
270.688	541.8
271.074	539.4
271.46	548.2
271.846	562.2
272.232	533.2
272.618	532.8
273.004	532
273.391	543.6
273.777	551.2
274.164	540
274.55	555
274.937	542.2
275.324	536.2
275.71	545.8
276.097	540.6
276.484	534
276.871	537.8
277.258	540
277.645	530
278.032	528.8
278.419	531.6
278.807	542.2
279.194	534.2
279.581	532.6
279.969	536.8
280.356	538
280.744	540
281.131	552.6
281.519	543
281.907	530.2
282.295	529.8
282.682	545.8
283.07	546
283.458	538.8
283.846	551.2
284.235	544
284.623	548.6
285.011	528.6
285.399	543.4
285.788	542.8
286.176	522.4
286.565	553.4
286.953	529.8
287.342	542
287.731	530.6
288.119	531.8
288.508	531.2
288.897	543.8
289.286	526.2
289.675	540.8
290.064	550
290.453	543
290.821	543.8
291.21	547
291.599	528.6
291.989	537.6
292.378	545.2
292.768	543.2
293.157	544.8
293.547	551.2
293.936	535
294.326	533
294.716	532.6
295.106	536.2
295.496	545.8
295.886	548.8
296.276	537.4
296.666	533.8
297.056	537
297.446	534.8
297.836	551.4
298.227	536.4
298.617	536.4
299.008	549.6
299.398	536.8
299.789	530.8
300.179	535.2
300.57	547.2
300.961	527.6
301.352	540
301.742	540
302.133	534.2
302.524	538.2
302.915	529.4
303.307	530.4
303.698	554.6
304.089	549.2
304.48	540.2
304.872	543.8
305.263	537.6
305.655	536.6
306.046	542.2
306.438	538.8
306.829	531
307.221	549.4
307.613	543
308.005	546
308.397	545.6
308.789	554.8
309.181	554.6
309.573	551.6
309.965	540.4
310.357	531
310.749	540.8
311.142	521
311.534	534
311.926	541.6
312.319	534.4
312.711	529.8
313.104	548.6
313.497	535.4
313.889	568
314.282	550.2
314.675	562.2
315.068	538.6
315.461	540
315.854	563.4
316.247	545.2
316.64	535.4
317.033	538
317.405	546.4
317.798	534.4
318.192	534.6
318.585	529.4
318.979	535.4
319.372	536.2
319.766	532.6
320.16	548.8
320.553	546.4
320.947	558
321.341	541.6
321.735	537.6
322.129	526
322.523	556.6
322.917	533.2
323.311	542
323.705	540.6
324.099	545
324.494	553.6
324.888	547
325.282	533.2
325.677	541.4
326.071	538.4
326.466	544.6
326.861	538.4
327.255	549.4
327.65	549.8
328.045	549.4
328.44	537.8
328.835	537.8
329.23	530.4
329.625	550.2
330.02	531.6
330.415	554
330.81	533.4
331.206	536.4
331.601	534
331.996	543.8
332.37	558.8
332.766	528
333.161	560.6
333.557	529
333.953	536.4
334.348	877
334.744	537.4
335.14	533.4
335.536	524.2
335.932	542.6
336.328	537.4
336.724	544.4
337.12	535.8
337.516	545.6
337.913	540.4
338.309	542.2
338.705	533.4
339.102	548.6
339.498	532.6
339.895	545.8
340.291	537
340.688	543.6
341.085	527.2
341.481	532.6
341.878	528
342.275	545.2
342.672	529
343.069	531.8
343.466	525.4
343.842	544.2
344.239	533.8
344.636	532.6
345.033	533.4
345.431	533.4
345.828	537.2
346.225	528
346.623	560.6
347.02	532.2
347.418	540.2
347.816	549.4
348.213	530.2
348.611	533
349.009	523.2
349.407	542.4
349.805	524.4
350.203	525
350.601	540.6
350.999	526.6
351.397	579.2
351.795	532.4
352.193	546.8
352.57	546.6
352.969	550.6
353.367	531
353.766	524
354.164	525.8
354.563	543.8
354.961	534.6
355.36	529.2
355.759	538
356.158	526.2
356.557	531.8
356.956	520.2
357.355	521.4
357.754	536.4
358.153	536.2
358.552	545.8
358.951	526.4
359.35	540.6
359.75	525.8
360.149	521.8
360.527	526
360.926	526.6
361.326	529.2
361.726	526
362.125	528.6
362.525	540.4
362.925	538
363.325	529.6
363.724	540.2
364.124	531.8
364.524	525.4
364.924	531.2
365.324	541.6
365.725	521
366.125	539.4
366.525	532
366.904	514.4
367.304	517.2
367.705	541.8
368.105	541
368.506	536
368.906	536
369.307	535.8
369.708	542.2
370.108	520
370.509	541
370.91	528.8
371.311	532.4
371.712	530.8
372.113	526.6
372.514	527
372.894	533.4
373.295	526
373.696	534
374.097	542.2
374.499	561.8
374.9	529.6
375.301	525.8
375.703	534
376.105	526.8
376.506	519.6
376.908	534.6
377.309	530
377.711	523.4
378.113	520.8
378.493	529.2
378.895	528.2
379.297	535.8
379.699	520.4
380.102	534
380.504	530.6
380.906	524.4
381.308	541.4
381.71	534
382.113	531.6
382.515	533.8
382.918	529.4
383.299	530.4
383.701	544.2
384.104	538.8
384.507	510.6
384.909	523.6
385.312	524.6
385.715	519.2
386.118	516.4
386.521	521
386.924	543.2
387.327	523.8
387.709	520.8
388.112	517.2
388.515	519
388.918	524.8
389.322	536.2
389.725	522.6
390.129	546.2
390.532	533
390.936	529.6
391.339	519.2
391.743	537.8
392.125	520.8
392.529	541.8
392.933	541
393.337	529.4
393.74	526.6
394.144	529.4
394.548	527.2
394.953	524.2
395.357	532
395.761	531.4
396.144	534
396.548	524.2
396.952	535.4
397.357	533
397.761	524
398.166	525.6
398.57	532.6
398.975	519.4
399.379	529.4
399.763	568.8
400.168	528.8
400.572	526.4
400.977	524.2
401.382	551.4
401.787	533.2
402.192	542.4
402.597	541.6
403.002	525.6
403.386	536.2
403.791	548
404.197	517.2
404.602	528.4
405.007	525.2
405.413	529.4
405.818	527.8
406.224	519.4
406.608	516.4
407.014	520.8
407.42	535.6
407.825	523
408.231	536.2
408.637	527.4
409.043	539
409.449	535.8
409.834	525.6
410.24	534.8
410.646	536
411.052	532.8
411.458	527.8
411.865	535.2
412.271	535.2
412.677	524.8
413.062	532
413.469	519.6
413.875	554.2
414.282	538.4
414.689	528.4
415.095	530.4
415.502	524.6
415.888	530
416.294	520
416.701	565.4
417.108	524
417.515	532.8
417.923	529.8
418.33	548.2
418.715	537.6
419.123	525.8
419.53	529.2
419.937	533.4
420.345	545.4
420.752	527.6
421.16	539.4
421.546	532.6
421.953	539.4
422.361	521.8
422.769	532
423.177	521.2
423.585	544.6
423.992	544.2
424.379	544
424.787	533
425.195	545.8
425.603	536.2
426.011	537
426.419	552.8
426.806	537.2
427.214	535.8
427.623	551.8
428.031	552
428.44	555.6
428.848	558
429.235	563.4
429.644	561
430.053	563.6
430.461	589.6
430.87	622.8
431.279	605.4
431.666	612.4
432.075	626.4
432.484	649.6
432.893	655.8
433.302	688.8
433.711	732.2
434.099	725.8
434.508	732.2
434.918	761
435.327	794
435.737	803
436.125	834.2
436.534	847.8
436.944	879.2
437.353	898
437.763	937.6
438.173	934.4
438.561	976.4
438.971	965.6
439.381	1014.6
439.791	1041.8
440.201	1039.2
440.589	1065.4
440.999	1093.4
441.409	1106.2
441.819	1128
442.23	1162.8
442.619	1169.2
443.029	1189.2
443.439	1193.8
443.85	1208.6
444.26	1201.6
444.649	1217.2
445.06	1233.4
445.471	1243
445.881	1265.6
446.292	1286.8
446.682	1299.4
447.092	1279.2
447.503	1333.6
447.914	1316
448.325	1319.8
448.715	1312.4
449.126	1315
449.537	1316.8
449.948	1326.4
450.338	1318.6
450.75	1347.2
451.161	1348.8
451.572	1354.6
451.984	1355.4
452.374	1359.6
452.786	1367.4
453.197	1378.2
453.609	1374.8
453.999	1365.2
454.411	1356.8
454.823	1379.2
455.235	1377.6
455.647	1378.2
456.037	1395.2
456.449	1385.4
456.862	1394.4
457.274	1394.2
457.665	1382
458.077	1400.4
458.489	1427.4
458.902	1403
459.293	1399.6
459.705	1396.6
460.118	1386.4
460.53	1412
460.921	1389.8
461.334	1415
461.747	1394.8
462.16	1419
462.551	1425.8
462.964	1416.8
463.377	1396.4
463.79	1396
464.182	1416
464.595	1387
465.008	1410.2
465.421	1427
465.813	1403.8
466.226	1394.6
466.64	1387
467.053	1433.6
467.445	1422.8
467.859	1429.6
468.272	1414.8
468.686	1432.6
469.078	1426.6
469.492	1405.8
469.906	1414.8
470.298	1409.2
470.712	1416.2
471.126	1435.8
471.54	1405
471.933	1387.6
472.347	1398.8
472.761	1403.6
473.175	1385
473.568	1370.4
473.982	1371
474.397	1371.6
474.79	1367.6
475.204	1377.2
475.619	1362.2
476.033	1374.2
476.426	1360.8
476.841	1337
477.256	1367.2
477.649	1336.2
478.064	1328.2
478.479	1328
478.872	1324
479.287	1325.4
479.702	1329.4
480.118	1328.6
480.511	1331.4
480.927	1321
481.342	1312
481.736	1298.8
482.151	1308.2
482.566	1304
482.96	1300.4
483.376	1298.8
483.792	1285.2
484.186	1286.4
484.602	1292.6
485.017	1279.4
485.412	1272.2
485.827	1270.4
486.243	1252.2
486.638	1279.6
487.054	1260.8
487.47	1251.6
487.865	1241
488.281	1245.6
488.697	1221
489.092	1223.4
489.508	1212.4
489.925	1219.2
490.32	1195.2
490.736	1211.4
491.153	1202
491.548	1188.8
491.964	1205.6
492.381	1162.6
492.776	1181.8
493.193	1169.6
493.61	1164.2
494.006	1166
494.422	1172.2
494.84	1150.4
495.235	1162.2
495.652	1141
496.069	1153.4
496.465	1126.6
496.883	1140.2
497.3	1141.4
497.696	1109.2
498.113	1119.8
498.509	1093.8
498.927	1093.2
499.344	1086
499.741	1085.4
500.158	1077.4
500.576	1091.2
500.973	1077.8
501.39	1057.8
501.787	1047.4
502.205	1052
502.623	1047.2
503.02	1033.2
503.438	1041.6
503.856	1029
504.253	1035.2
504.671	1025.4
505.068	1004.4
505.486	1015.2
505.905	1027.4
506.302	1003.6
506.72	1019.2
507.118	991.8
507.536	984
507.955	976.6
508.352	982.6
508.771	974.4
509.169	975.4
509.587	948.8
510.006	954.2
510.404	950.2
510.823	952.8
511.221	942.8
511.64	938.2
512.038	949.4
512.457	932.2
512.877	930.8
513.275	924.8
513.694	912.4
514.092	911
514.512	916.4
514.91	925.4
515.33	901.4
515.749	911.8
516.148	900.4
516.568	900.6
516.966	892.2
517.386	876.8
517.785	877.6
518.205	862.6
518.603	854.6
519.024	862.8
519.444	865.8
519.843	871
520.263	869.2
520.662	858.6
521.082	846
521.481	857.6
521.902	838.6
522.301	840
522.722	844.8
523.121	831.8
523.542	827.8
523.963	811.2
524.362	822.6
524.783	812.6
525.183	801.8
525.604	805.8
526.003	797.8
526.425	798.2
526.824	808.6
527.246	794.4
527.646	804.4
528.067	789.6
528.467	789
528.888	780.4
529.289	781.6
529.71	786.6
530.11	772.4
530.532	761.6
530.932	759.8
531.354	761.2
531.755	784.8
532.176	765.8
532.577	744.8
532.999	755.4
533.4	751.8
533.822	756.2
534.223	750
534.645	743.2
535.046	737.2
535.468	740
535.869	749.4
536.292	724.8
536.693	754.8
537.115	735.8
537.516	720.2
537.939	713.8
538.34	719.8
538.742	733.6
539.165	723.2
539.566	722.6
539.989	712
540.391	709.2
540.814	708.8
541.216	712.8
541.639	710
542.041	715.4
542.464	704.2
542.866	691.4
543.268	690.6
543.691	700.4
544.093	702
544.517	716.8
544.919	680.4
545.343	703.6
545.745	679.8
546.147	688.4
546.571	687.4
546.974	679.2
547.398	675.2
547.8	690.6
548.224	673.2
548.627	673.4
549.03	666.6
549.454	666.2
549.857	657.8
550.281	654.6
550.684	653.2
551.087	676.4
551.512	655
551.915	673.2
552.34	647
552.743	646.8
553.146	652.8
553.571	659.6
553.975	665.4
554.399	643.2
554.803	683.2
555.207	649.8
555.632	648
556.036	648.6
556.461	635
556.865	643
557.268	633.2
557.694	633.6
558.098	633.4
558.502	644.6
558.927	623.8
559.332	632.4
559.736	626.4
560.162	629.2
560.566	629.2
560.992	624.8
561.396	629.8
561.801	621.8
562.227	622.8
562.631	616.2
563.036	614.8
563.462	618.6
563.867	624.4
564.272	602
564.698	618.2
565.103	606.4
565.508	627.8
565.935	608.6
566.34	604.6
566.745	615
567.172	599.8
567.577	619
567.982	607.2
568.409	601.8
568.815	598.4
569.22	596.4
569.626	607.8
570.053	586.6
570.459	601.6
570.865	601
571.292	588.8
571.698	595.6
572.104	575.8
572.531	586.4
572.937	595.4
573.343	587.8
573.75	585.2
574.177	591.2
574.583	584.8
574.99	576.2
575.396	585
575.824	579.2
576.231	586.6
576.637	577.8
577.065	608.8
577.472	573.4
577.879	580.6
578.286	589.4
578.714	577
579.121	574.2
579.528	579.8
579.935	583.6
580.364	573.6
580.771	557
581.178	565.2
581.585	571.6
582.014	572
582.421	567.2
582.829	553.4
583.236	579.8
583.644	565
584.073	566.2
584.481	567.2
584.889	559.8
585.296	567
585.726	563.8
586.134	559.2
586.542	554.8
586.95	576.6
587.358	560.2
587.787	564.2
588.196	553.8
588.604	559.8
589.012	556.4
589.421	547.4
589.851	552.2
590.259	572.6
590.668	557
591.076	590.6
591.485	552.6
591.894	551.4
592.324	561.8
592.733	566
593.142	546.2
593.551	548.2
593.96	558
594.369	548.6
594.8	540
595.209	551
595.618	539.6
596.028	546.8
596.437	545.4
596.847	545.8
597.256	556.6
597.687	551.6
598.097	543.6
598.507	525.6
598.917	541.6
599.327	544.4
599.736	548.2
600.146	556.6
600.556	537.6
600.988	556.6
601.398	536.6
601.808	550.8
602.219	522.4
602.629	539.8
603.039	541.8
603.45	558.4
603.86	541.8
604.271	547.2
604.703	538.8
605.114	536.4
605.525	539.6
605.935	546
606.346	555.2
606.757	546.2
607.168	548
607.579	534.8
607.99	548
608.402	530.8
608.813	538.4
609.224	529.8
609.636	528.6
610.047	526
610.48	544.6
610.892	548.4
611.303	546.2
611.715	536.2
612.127	531
612.539	538.2
612.95	537.2
613.362	526.4
613.774	530.8
614.186	535.8
614.599	533.8
615.011	543.2
615.423	540.4
615.835	540
616.248	527.4
616.66	546.8
617.073	537.2
617.485	535.6
617.898	544
618.311	530.6
618.723	535.4
619.136	562
619.549	546.6
619.962	557.6
620.375	534
620.788	542.6
621.201	534.8
621.614	546
622.028	544
622.441	539.4
622.854	553.6
623.268	527.2
623.681	546.4
624.095	536.8
624.509	547
624.922	546
625.336	531
625.728	530.6
626.142	547
626.556	548.6
626.97	537.2
627.384	529.8
627.799	541.4
628.213	545.2
628.627	536.8
629.041	537
629.456	540.8
629.87	536.2
630.285	541.8
630.699	537.8
631.093	530.2
631.507	522.6
631.922	535.8
632.337	549.2
632.752	527.8
633.167	529.2
633.582	527
633.997	529
634.412	529
634.806	541.2
635.221	530.8
635.637	542.8
636.052	522.4
636.468	533.8
636.883	548.4
637.299	535.2
637.715	517.4
638.109	530.4
638.525	516
638.941	543.6
639.357	539.4
639.773	541.2
640.189	524.6
640.584	529.8
641	526.2
641.416	525
641.832	527.6
642.249	523
642.665	518.6
643.06	537.8
643.477	539.6
643.894	522.6
644.31	528.4
644.727	526.6
645.123	527.6
645.54	513.2
645.957	528.6
646.374	531.2
646.77	526.6
647.187	550.8
647.604	520.6
648.021	508.6
648.439	514.4
648.835	517.4
649.252	517.8
649.67	517.2
650.088	522.4
650.484	528.4
650.902	530.4
651.32	523
651.738	523.2
652.134	523.4
652.552	537.2
652.971	525.8
653.389	514
653.786	527.2
654.204	529.4
654.622	517
655.019	527.8
655.438	523.8
655.857	519.2
656.275	528.8
656.673	507.4
657.091	519.8
657.51	518.6
657.908	526.2
658.327	526.8
658.746	505.6
659.144	523.4
659.563	532.8
659.982	522.2
660.38	502.2
660.8	514.6
661.219	528
661.617	523.2
662.037	513.4
662.457	527.6
662.855	511.2
663.275	538
663.695	512.4
664.094	521.6
664.514	517
664.934	504
665.333	515.2
665.753	514.2
666.152	509
666.572	501.6
666.993	521
667.392	511.2
667.812	505.8
668.212	508.6
668.632	518.8
669.053	507.4
669.453	522.6
669.874	514.4
670.273	510.6
670.694	515.4
671.116	519.2
671.515	520.6
671.937	520.4
672.337	517.4
672.758	512.8
673.158	519.2
673.58	495.2
673.98	513
674.402	521
674.824	515.8
675.224	509.8
675.646	500.8
676.047	501.6
676.469	512.8
676.869	511
677.292	516.2
677.693	502
678.115	511.6
678.516	516.2
678.939	513.4
679.34	516.4
679.762	525
680.164	514.8
680.586	508.8
680.988	512
681.411	533.2
681.812	508.6
682.236	515
682.637	506
683.061	504.8
683.462	508
683.864	509
684.288	518
684.69	498.6
685.114	516.8
685.516	512
685.94	499.6
686.342	513.6
686.766	508.8
687.168	506
687.571	529.8
687.995	512.2
688.398	501.4
688.822	503.6
689.225	520.6
689.628	518.8
690.052	514
690.456	509.4
690.88	517.2
691.284	502
691.687	506
692.112	501.4
692.515	504.6
692.919	505.2
693.344	517.6
693.747	505.2
694.173	499.8
694.577	519
694.98	509.4
695.406	510
695.81	498.2
696.214	504
696.64	509.6
697.044	505.4
697.448	520
697.874	510.4
698.279	505.6
698.684	492.8
699.11	500.6
699.514	501
699.919	511.4
700.324	505.8
700.75	510.4
701.156	512.4
701.561	522.4
701.987	503.6
702.393	523.4
702.798	517.2
703.203	502.6
703.63	505.8
704.036	500.6
704.442	503.4
704.847	499.6
705.274	502.2
705.68	506.4
706.086	515.8
706.492	501.2
706.92	506.2
707.326	516.8
707.732	503.6
708.139	500.2
708.545	497.8
708.973	497
709.38	501.4
709.786	502.4
710.193	520.2
710.6	505.8
711.028	508.8
711.435	511.6
711.842	508.4
712.249	502
712.656	508.8
713.064	512.8
713.492	501.6
713.9	500.4
714.307	510
714.715	504.8
715.123	507.8
715.53	508.8
715.938	513.2
716.367	513
716.775	507.2
717.184	506.8
717.592	506.4
718	512.2
718.408	537.4
718.816	548.4
719.225	509.4
719.633	502.2
720.042	495.6
720.472	504.4
720.881	518.8
721.29	510.8
721.699	505.2
722.108	511.4
722.517	510.8
722.926	501.8
723.335	516.6
723.744	508.2
724.154	510
724.563	510.4
724.973	511
725.382	508.8
725.792	510.4
726.202	501.4
726.612	506
727.022	505.6
727.432	499.4
779.813	503.2
780.223	540.6
780.634	506.4
781.044	501.4
781.454	500.4
781.865	522.8
782.276	498.2
782.686	507
783.097	507.6
783.508	497.2
783.919	510.6
784.33	512.6
784.741	520.8
785.152	499.6
785.563	496
785.974	495.8
786.386	516
786.776	499.4
787.188	500.4
787.599	498.8
788.011	504.8
788.423	518.8
788.835	505.2
789.247	503.8
789.659	506.2
790.071	499.6
790.483	544.2
790.874	496.8
791.286	511.2
791.699	495.6
792.111	508.4
792.524	500.6
792.937	499.8
793.349	498.8
793.741	501.2
794.154	496
794.567	520.4
794.98	505.2
795.393	489.8
795.785	520.2
796.198	498.2
796.612	502.4
797.026	500.8
797.439	486.8
797.831	496.8
798.245	492
798.659	502.2
799.073	492.8
799.487	504.2
799.88	501
800.294	508
800.708	507.4
801.123	503.6
801.516	513.4
801.93	500.4
802.345	501.6
802.76	497.8
803.153	516
803.568	507.6
803.983	510.2
804.377	506.2
804.792	501
805.207	497.4
805.601	510
806.016	531
806.432	500
806.826	530.4
807.242	521.8
807.658	509.6
808.052	507.2
808.468	500.6
808.884	494.8
809.279	502.2
809.695	517.8
810.111	520.4
810.506	507.4
810.922	521.6
811.339	497.6
811.734	516.2
812.151	500
812.546	494.2
812.963	501.4
813.38	506.2
813.776	502.4
814.193	512.4
814.589	499.4
815.006	496.6
815.402	493.2
815.82	495.4
816.237	503.6
816.633	497.4
817.051	493
817.448	500
817.866	498.6
818.262	517.4
818.68	497.6
819.077	503.4
819.495	501.6
819.892	528.2
820.311	491.4
820.708	505.6
821.127	499.4
821.524	510.6
821.943	505.4
822.34	518.8
822.759	503.8
823.157	504.4
823.576	509.4
823.974	506
824.393	563.8
824.791	506.8
825.189	492.4
825.609	502.2
826.007	501
826.427	499.2
826.826	501.6
827.246	502.2
827.644	491.2
828.043	507.6
828.463	501.8
828.862	510.6
829.261	514.2
829.682	491.8
830.081	509.8
830.502	505.6
830.901	504.2
831.301	500.8
831.722	489.8
832.121	500
832.521	495.2
832.943	500.4
833.342	505.6
833.742	491.4
834.164	498.2
834.564	488.8
834.965	504.8
835.386	503.2
835.787	498
836.188	501.6
836.588	507.6
837.01	506.6
837.411	496.4
837.812	506.2
838.213	501.2
838.636	500.6
839.037	555.8
839.438	493.6
839.84	496.8
840.263	502.4
840.664	502.2
841.066	501.4
841.468	502
841.891	500.6
842.293	512.8
842.695	506.4
843.098	512
843.5	493.6
843.902	500
844.326	506.8
844.729	502.2
845.131	513.8
845.534	494.4
845.937	516.2
846.34	511.6
846.764	492
847.167	500.8
847.571	493.8
847.974	499.8
848.377	503.4
848.781	538.2
849.184	513.2
849.588	502
849.992	498.4
