#lambda/nm	C1
208.295	465.8
208.67	435.6
209.045	394.2
209.419	397.6
209.794	540.2
210.169	522
210.544	621.2
210.919	534.2
211.295	532.2
211.67	535.8
212.045	534.8
212.421	540.8
212.796	564.4
213.172	524.6
213.547	532.4
213.923	532.4
214.299	535.2
214.675	545.2
215.051	543.2
215.427	546.4
215.803	554
216.179	546.6
216.555	534.6
216.932	549.6
217.308	540
217.684	534
218.061	541
218.438	536.4
218.814	539.8
219.191	555.8
219.568	534.2
219.945	535.8
220.322	536.8
220.699	532.6
221.076	547.6
221.453	538.6
221.83	536.6
222.208	533.2
222.585	539.4
222.962	538.4
223.34	539.4
223.717	542.8
224.095	529.2
224.473	544.2
224.851	532
225.229	534.2
225.607	549.2
225.985	529.2
226.363	529.2
226.741	535.2
227.119	544.6
227.497	545
227.876	520.2
228.254	542.2
228.633	544.4
229.011	541
229.39	546
229.769	530.2
230.148	542
230.527	555.8
230.905	537
231.284	536.2
231.664	527.4
232.043	543.8
232.422	537.8
232.801	538.8
233.181	542.6
233.56	530.4
233.94	539.6
234.319	529.8
234.699	539.4
235.079	567.8
235.458	564.8
235.838	545
236.218	525.4
236.598	527
236.978	535.8
237.358	540.8
237.738	533.6
238.119	543.8
238.499	531.6
238.88	536.4
239.26	552.2
239.641	533.6
240.021	533.4
240.402	534.6
240.783	529.2
241.163	538
241.544	540
241.925	536
242.306	546.6
242.687	535.6
243.069	542
243.45	544.2
243.831	534.8
244.212	539.4
244.594	566.8
244.975	548
245.357	544.4
245.739	530.4
246.12	534.8
246.502	550.2
246.884	533.6
247.266	528.6
247.648	538.2
248.03	563
248.412	545.2
248.794	539.4
249.176	533.4
249.559	545.4
249.941	534.8
250.323	535.8
250.706	531.2
251.089	534.6
251.471	542.6
251.854	543.2
252.237	538.8
252.62	540.2
253.002	537.8
253.385	543.8
253.769	555
254.152	546.2
254.535	542.2
254.918	532
255.301	540.2
255.685	532.8
256.068	528.8
256.452	569
256.835	554.6
257.219	541.2
257.603	545.6
257.986	534.4
258.37	547
258.754	533.4
259.138	543
259.522	551.4
259.906	536.6
260.29	542.2
260.675	542.8
261.059	538.6
261.443	531.4
261.828	538
262.212	542.6
262.597	534.6
262.981	536.8
263.366	548
263.751	530.6
264.136	530.2
264.521	536.4
264.906	533.6
265.291	549.6
265.676	540.6
266.061	539
266.446	551.4
266.831	539.2
267.217	561.4
267.602	544.4
267.987	542.4
268.373	529.8
268.759	549.6
269.144	547
269.53	535.4
269.916	540
270.302	534
270.688	541
271.074	548.8
271.46	540.4
271.846	569
272.232	542.6
272.618	533.8
273.004	536
273.391	545.2
273.777	557.2
274.164	543
274.55	553
274.937	539.8
275.324	536.8
275.71	539.4
276.097	550
276.484	532.4
276.871	548
277.258	544.8
277.645	532.6
278.032	538.8
278.419	535.8
278.807	545.8
279.194	534.6
279.581	531
279.969	539.6
280.356	544.2
280.744	530.2
281.131	559.4
281.519	548.2
281.907	535
282.295	534.2
282.682	550
283.07	540.8
283.458	546.4
283.846	551.2
284.235	542.6
284.623	541
285.011	533.6
285.399	540.6
285.788	538.2
286.176	528.4
286.565	549.6
286.953	535.8
287.342	538.2
287.731	525.6
288.119	530
288.508	543
288.897	543.6
289.286	528.8
289.675	542.4
290.064	543.6
290.453	537.6
290.821	539.4
291.21	548.2
291.599	540.6
291.989	538.8
292.378	542.6
292.768	560
293.157	541
293.547	550.4
293.936	537.2
294.326	533.8
294.716	542.4
295.106	533.2
295.496	547.6
295.886	550.8
296.276	534.6
296.666	523.8
297.056	532.8
297.446	517.4
297.836	549.8
298.227	536
298.617	537
299.008	551
299.398	533.8
299.789	538.4
300.179	541.2
300.57	549.6
300.961	533.6
301.352	541.8
301.742	546.6
302.133	533.8
302.524	538
302.915	541.8
303.307	529
303.698	548.8
304.089	540.4
304.48	533.8
304.872	545.2
305.263	540
305.655	536.6
306.046	543
306.438	546.2
306.829	535.4
307.221	544.4
307.613	539.6
308.005	545.6
308.397	551
308.789	559.6
309.181	558.4
309.573	541.2
309.965	549.2
310.357	529.8
310.749	544.6
311.142	538.4
311.534	538.2
311.926	544.2
312.319	539.4
312.711	534.2
313.104	541.6
313.497	536.8
313.889	564.4
314.282	551.4
314.675	562
315.068	537
315.461	550
315.854	563
316.247	541.2
316.64	540.4
317.033	533.4
317.405	547.8
317.798	538.4
318.192	541.8
318.585	542.4
318.979	545.6
319.372	539.8
319.766	536.6
320.16	551.6
320.553	547
320.947	554
321.341	537.2
321.735	537.6
322.129	539.2
322.523	549.8
322.917	536.6
323.311	548.6
323.705	541.2
324.099	542
324.494	546.8
324.888	538
325.282	537.2
325.677	548.4
326.071	537.8
326.466	539.8
326.861	537.6
327.255	547.8
327.65	548.4
328.045	548
328.44	538.2
328.835	534.2
329.23	532.6
329.625	558.6
330.02	532.8
330.415	554.4
330.81	536.6
331.206	548
331.601	534.2
331.996	540.6
332.37	548
332.766	523.6
333.161	557.6
333.557	535.4
333.953	536.2
334.348	836.8
334.744	534.2
335.14	535.8
335.536	527
335.932	542.8
336.328	540.8
336.724	542
337.12	540.4
337.516	533.8
337.913	535.2
338.309	556.4
338.705	539
339.102	545.2
339.498	539
339.895	548.8
340.291	537.4
340.688	548
341.085	530.6
341.481	534
341.878	537
342.275	557.8
342.672	538.2
343.069	533.4
343.466	523.6
343.842	545.4
344.239	530.8
344.636	531.8
345.033	531.2
345.431	531.2
345.828	532.6
346.225	528.8
346.623	563.2
347.02	537
347.418	546.4
347.816	548.2
348.213	531.8
348.611	532.8
349.009	526.6
349.407	539.2
349.805	525.6
350.203	524.2
350.601	546
350.999	535.4
351.397	586.2
351.795	534.6
352.193	544
352.57	534.6
352.969	545.2
353.367	526.2
353.766	529.4
354.164	530.8
354.563	538.4
354.961	542
355.36	532
355.759	531.2
356.158	531.6
356.557	529.6
356.956	535.2
357.355	535.8
357.754	533.6
358.153	544
358.552	551.8
358.951	532.2
359.35	542
359.75	531.6
360.149	526.2
360.527	522.2
360.926	527
361.326	533
361.726	541
362.125	520.6
362.525	540
362.925	534.4
363.325	531.2
363.724	532.8
364.124	531.8
364.524	525.6
364.924	527
365.324	537.6
365.725	517.4
366.125	532.4
366.525	536.6
366.904	526.2
367.304	520.8
367.705	547
368.105	540.8
368.506	530.4
368.906	527.6
369.307	532
369.708	537.6
370.108	531.6
370.509	534
370.91	528.8
371.311	533
371.712	530.4
372.113	526.8
372.514	520.6
372.894	531.8
373.295	526.4
373.696	544.2
374.097	531.6
374.499	553.2
374.9	533
375.301	524.6
375.703	537.6
376.105	519.2
376.506	527
376.908	533.4
377.309	528.2
377.711	532.8
378.113	528.6
378.493	527.6
378.895	523.4
379.297	537
379.699	526.6
380.102	530.6
380.504	526.2
380.906	526.6
381.308	549.4
381.71	525.2
382.113	534.2
382.515	536.6
382.918	536.2
383.299	525.2
383.701	538.8
384.104	528.2
384.507	517.2
384.909	525.6
385.312	520.8
385.715	524.8
386.118	532.4
386.521	529.8
386.924	537.2
387.327	529.6
387.709	521.8
388.112	519
388.515	525.2
388.918	526
389.322	530.2
389.725	527.8
390.129	548.2
390.532	529.4
390.936	525.2
391.339	520.8
391.743	528.4
392.125	521
392.529	528.6
392.933	539.8
393.337	534
393.74	526.4
394.144	525.4
394.548	527.6
394.953	528.6
395.357	533
395.761	521.8
396.144	529.6
396.548	523.6
396.952	526.2
397.357	526.8
397.761	525
398.166	526.2
398.57	531.4
398.975	520
399.379	530.2
399.763	571.6
400.168	527
400.572	528.2
400.977	527.2
401.382	546
401.787	541
402.192	543.6
402.597	541.4
403.002	519.2
403.386	547.4
403.791	540.8
404.197	521.6
404.602	530.2
405.007	537
405.413	525
405.818	535.4
406.224	523
406.608	520.4
407.014	519.6
407.42	536.4
407.825	526.8
408.231	533
408.637	531
409.043	541
409.449	524.8
409.834	524.2
410.24	529.4
410.646	537.2
411.052	534.8
411.458	527.2
411.865	540.2
412.271	534.4
412.677	530.6
413.062	531.2
413.469	517
413.875	551.2
414.282	537.2
414.689	530.4
415.095	534
415.502	523.4
415.888	529
416.294	516.2
416.701	559.4
417.108	524.8
417.515	532.4
417.923	529.4
418.33	552
418.715	535.2
419.123	526
419.53	525.2
419.937	528
420.345	540
420.752	526.8
421.16	537.6
421.546	527.2
421.953	543
422.361	523.6
422.769	527.4
423.177	518.8
423.585	553.8
423.992	542.8
424.379	533.8
424.787	534.8
425.195	541.6
425.603	535.2
426.011	538.2
426.419	542.2
426.806	531
427.214	538.8
427.623	545.8
428.031	560.2
428.44	538.6
428.848	557.2
429.235	556
429.644	557.8
430.053	553.2
430.461	580.8
430.87	599
431.279	589.2
431.666	589.8
432.075	615.4
432.484	629.6
432.893	636.8
433.302	665.6
433.711	698.8
434.099	699.8
434.508	706.6
434.918	712
435.327	750.4
435.737	768.4
436.125	787
436.534	807.8
436.944	842.8
437.353	859
437.763	880.4
438.173	875.8
438.561	921.4
438.971	923
439.381	951.2
439.791	975.4
440.201	977.4
440.589	1001.8
440.999	1024.2
441.409	1047.8
441.819	1039.6
442.23	1075
442.619	1093.4
443.029	1096.4
443.439	1089.2
443.85	1116.8
444.26	1131.4
444.649	1141
445.06	1160.4
445.471	1164.6
445.881	1165.4
446.292	1183.6
446.682	1216.8
447.092	1188.2
447.503	1250
447.914	1220.2
448.325	1234.2
448.715	1227.4
449.126	1226
449.537	1236
449.948	1258.6
450.338	1254.2
450.75	1264.2
451.161	1265.4
451.572	1284.6
451.984	1263.6
452.374	1262.8
452.786	1284
453.197	1276.4
453.609	1299.6
453.999	1285.4
454.411	1273
454.823	1298.4
455.235	1296.2
455.647	1294.8
456.037	1317.2
456.449	1290.6
456.862	1301
457.274	1295.6
457.665	1286.4
458.077	1291.6
458.489	1324.8
458.902	1299.8
459.293	1303.2
459.705	1298
460.118	1292.6
460.53	1302.2
460.921	1309.6
461.334	1309.6
461.747	1305.6
462.16	1332.6
462.551	1318.6
462.964	1323
463.377	1302.8
463.79	1298.8
464.182	1322.4
464.595	1298.2
465.008	1322.6
465.421	1316
465.813	1300.6
466.226	1294.8
466.64	1315.6
467.053	1360
467.445	1334.4
467.859	1327.2
468.272	1311.6
468.686	1322.4
469.078	1316.4
469.492	1291.8
469.906	1315.2
470.298	1317.6
470.712	1296.8
471.126	1325.2
471.54	1288.6
471.933	1295.6
472.347	1307.6
472.761	1287.4
473.175	1296.2
473.568	1282.6
473.982	1284.4
474.397	1289
474.79	1290
475.204	1278.2
475.619	1290.2
476.033	1281.4
476.426	1271
476.841	1264
477.256	1282
477.649	1251
478.064	1235.2
478.479	1239.2
478.872	1242.8
479.287	1233.6
479.702	1229.6
480.118	1230.2
480.511	1231.4
480.927	1241
481.342	1216.8
481.736	1209.8
482.151	1208
482.566	1208
482.96	1219.4
483.376	1215
483.792	1195.8
484.186	1203
484.602	1197.2
485.017	1195
485.412	1185.6
485.827	1196.8
486.243	1177.8
486.638	1186.8
487.054	1175.6
487.47	1170.6
487.865	1160.8
488.281	1152.6
488.697	1150.2
489.092	1154.4
489.508	1128.4
489.925	1149.6
490.32	1121
490.736	1122.8
491.153	1131.2
491.548	1116.2
491.964	1135.4
492.381	1088.2
492.776	1110
493.193	1102.8
493.61	1108.2
494.006	1089.8
494.422	1089.4
494.84	1075.4
495.235	1088.4
495.652	1062
496.069	1061.6
496.465	1062
496.883	1060
497.3	1069.6
497.696	1050.8
498.113	1045.2
498.509	1044.4
498.927	1022.8
499.344	1020.8
499.741	1015.4
500.158	1035.4
500.576	1034.6
500.973	1011.2
501.39	993.4
501.787	998.6
502.205	991.6
502.623	997.6
503.02	976.2
503.438	974.2
503.856	987.8
504.253	972
504.671	976
505.068	972.2
505.486	953.4
505.905	976
506.302	953.4
506.72	950.2
507.118	921.6
507.536	946
507.955	937.2
508.352	934.4
508.771	923.6
509.169	921.4
509.587	914.2
510.006	919
510.404	898.8
510.823	902.6
511.221	889.8
511.64	901.6
512.038	907
512.457	901.2
512.877	892.6
513.275	888.6
513.694	867.2
514.092	878
514.512	879
514.91	877.4
515.33	868.2
515.749	868
516.148	857.6
516.568	851.8
516.966	853.4
517.386	838.2
517.785	843.6
518.205	838.4
518.603	836
519.024	829.8
519.444	827
519.843	833
520.263	831.2
520.662	823
521.082	804.4
521.481	806.8
521.902	809.4
522.301	802.8
522.722	804.8
523.121	792
523.542	791.8
523.963	789.8
524.362	788.8
524.783	781
525.183	767.2
525.604	781.4
526.003	772.2
526.425	759.8
526.824	782.2
527.246	772.2
527.646	775
528.067	755.6
528.467	764.8
528.888	759.6
529.289	754.6
529.71	743.4
530.11	744.2
530.532	747.2
530.932	738.6
531.354	740.6
531.755	776.8
532.176	746.2
532.577	735
532.999	740.2
533.4	722.4
533.822	722
534.223	717.4
534.645	725.2
535.046	706.8
535.468	714.8
535.869	728.8
536.292	706
536.693	755.4
537.115	721.2
537.516	712
537.939	702.4
538.34	722
538.742	708.6
539.165	704.8
539.566	701.2
539.989	693.6
540.391	689
540.814	697.2
541.216	690.6
541.639	694.8
542.041	696.4
542.464	684.6
542.866	681.2
543.268	679.8
543.691	685.2
544.093	686.4
544.517	688.8
544.919	676.8
545.343	698.4
545.745	669.8
546.147	672.8
546.571	673.4
546.974	657.6
547.398	668.8
547.8	670.4
548.224	660.4
548.627	658.2
549.03	658.8
549.454	652.6
549.857	651.6
550.281	651.4
550.684	652.4
551.087	648.8
551.512	651.4
551.915	645.6
552.34	653.4
552.743	637
553.146	638.8
553.571	640.4
553.975	651.6
554.399	635.6
554.803	679.4
555.207	632.2
555.632	620.6
556.036	636.4
556.461	628.8
556.865	634.2
557.268	621.2
557.694	628.8
558.098	629.6
558.502	620.2
558.927	618.4
559.332	615.4
559.736	614.8
560.162	623
560.566	621.6
560.992	625
561.396	620.8
561.801	616
562.227	616.4
562.631	607.8
563.036	614.6
563.462	613.2
563.867	607.2
564.272	605
564.698	613.4
565.103	592.2
565.508	620.6
565.935	605.6
566.34	595.2
566.745	604.8
567.172	601.8
567.577	613.6
567.982	610.8
568.409	597.2
568.815	592.4
569.22	600.4
569.626	597.6
570.053	574.2
570.459	598
570.865	594.6
571.292	597.2
571.698	584.6
572.104	578.8
572.531	582.6
572.937	594.2
573.343	590.4
573.75	582
574.177	585.2
574.583	583.2
574.99	577
575.396	587.4
575.824	576.2
576.231	577.4
576.637	574.4
577.065	605.2
577.472	574
577.879	570
578.286	588.4
578.714	570.2
579.121	573.6
579.528	564.6
579.935	586.4
580.364	570.4
580.771	551.8
581.178	567
581.585	568.2
582.014	570.6
582.421	565.6
582.829	562.8
583.236	581.6
583.644	565.2
584.073	569.8
584.481	571.2
584.889	556.2
585.296	561.8
585.726	559.8
586.134	552.8
586.542	562.6
586.95	578
587.358	550.4
587.787	551.6
588.196	553.8
588.604	558.2
589.012	551.6
589.421	544.6
589.851	551.6
590.259	554.4
590.668	557
591.076	578
591.485	544.2
591.894	548.6
592.324	561.4
592.733	557.2
593.142	542.2
593.551	552
593.96	579
594.369	540.6
594.8	543.8
595.209	549
595.618	532.2
596.028	538.8
596.437	543.2
596.847	545.4
597.256	551.4
597.687	543
598.097	545.2
598.507	527.4
598.917	544
599.327	550.6
599.736	543.2
600.146	555.6
600.556	542
600.988	543.8
601.398	536.8
601.808	542
602.219	524.4
602.629	541.8
603.039	534.8
603.45	562
603.86	536.8
604.271	552.6
604.703	531.6
605.114	540.8
605.525	533.8
605.935	539.6
606.346	549.4
606.757	541.4
607.168	533
607.579	532.8
607.99	533.8
608.402	539.4
608.813	539.6
609.224	526.4
609.636	528.8
610.047	526.6
610.48	533
610.892	538.8
611.303	542
611.715	531.8
612.127	517.8
612.539	534
612.95	530
613.362	520.6
613.774	520
614.186	526.8
614.599	527.6
615.011	538.4
615.423	537
615.835	522.4
616.248	521.2
616.66	529.2
617.073	524.2
617.485	523.6
617.898	532.4
618.311	534.2
618.723	524.8
619.136	551
619.549	536.4
619.962	550.8
620.375	531.4
620.788	529
621.201	524.8
621.614	530.8
622.028	524.4
622.441	526.4
622.854	538.2
623.268	527
623.681	529.4
624.095	530.6
624.509	534.6
624.922	531.6
625.336	520.6
625.728	529
626.142	543.4
626.556	539.8
626.97	535.4
627.384	524.2
627.799	528.2
628.213	533.4
628.627	525
629.041	524.6
629.456	523.4
629.87	524.8
630.285	536.6
630.699	528.4
631.093	520.2
631.507	531.4
631.922	524
632.337	529.2
632.752	515.2
633.167	527.4
633.582	519.6
633.997	521.2
634.412	525.2
634.806	530.8
635.221	520
635.637	529
636.052	517.6
636.468	525.8
636.883	539.6
637.299	522.6
637.715	504.2
638.109	518
638.525	518.4
638.941	528
639.357	521.8
639.773	528.2
640.189	519.6
640.584	519.6
641	526.8
641.416	505.8
641.832	523.2
642.249	513.6
642.665	524.8
643.06	523.2
643.477	534.2
643.894	505
644.31	514
644.727	522.8
645.123	517.4
645.54	519.2
645.957	517.4
646.374	530.8
646.77	515
647.187	545
647.604	520
648.021	508
648.439	514.8
648.835	517
649.252	518.8
649.67	515.4
650.088	515.2
650.484	513.6
650.902	520.8
651.32	514.8
651.738	524.2
652.134	524.6
652.552	538.4
652.971	519.6
653.389	522.6
653.786	524.8
654.204	525.2
654.622	513.8
655.019	518
655.438	526.2
655.857	516.8
656.275	512.6
656.673	511
657.091	518.8
657.51	510.2
657.908	523.2
658.327	524
658.746	509.4
659.144	521.4
659.563	526.8
659.982	524.6
660.38	509.2
660.8	515
661.219	528.4
661.617	521.4
662.037	517.8
662.457	534.2
662.855	506.8
663.275	539.6
663.695	514.6
664.094	512.6
664.514	526.2
664.934	509.4
665.333	518.2
665.753	508.6
666.152	511.8
666.572	510.8
666.993	526.2
667.392	514.2
667.812	516
668.212	512.8
668.632	517.4
669.053	512.2
669.453	517.2
669.874	512.4
670.273	515.8
670.694	515.2
671.116	527.2
671.515	514
671.937	510.2
672.337	517.2
672.758	508.6
673.158	527.6
673.58	505.6
673.98	512.4
674.402	524.4
674.824	518.4
675.224	510.6
675.646	505.2
676.047	507.2
676.469	509.4
676.869	519.4
677.292	514.2
677.693	512.2
678.115	514
678.516	521.4
678.939	520
679.34	517.6
679.762	525.8
680.164	511.6
680.586	506.8
680.988	513
681.411	534.8
681.812	516.6
682.236	501.2
682.637	504
683.061	502.8
683.462	517.4
683.864	506.2
684.288	521.2
684.69	507.6
685.114	513.4
685.516	514.6
685.94	503.4
686.342	517.2
686.766	502.2
687.168	509.4
687.571	519.2
687.995	513.8
688.398	497.4
688.822	514.2
689.225	513.6
689.628	521.6
690.052	510.2
690.456	515.8
690.88	504.4
691.284	499.8
691.687	510
692.112	505.6
692.515	495
692.919	509.2
693.344	507.6
693.747	498
694.173	498.8
694.577	519.8
694.98	505.8
695.406	509.2
695.81	504.4
696.214	505.4
696.64	506.4
697.044	511.4
697.448	519
697.874	506
698.279	502
698.684	498.2
699.11	507.4
699.514	506.2
699.919	506
700.324	502.6
700.75	506.4
701.156	511.8
701.561	515.6
701.987	506.8
702.393	515
702.798	516.8
703.203	511.8
703.63	501.4
704.036	507.8
704.442	514
704.847	505.2
705.274	511.8
705.68	509
706.086	510.2
706.492	501.2
706.92	507
707.326	512.2
707.732	501.6
708.139	507.4
708.545	502.2
708.973	507.4
709.38	511.4
709.786	494
710.193	526.6
710.6	501.8
711.028	504
711.435	504
711.842	506.6
712.249	504
712.656	507
713.064	510
713.492	502.2
713.9	503.4
714.307	511.4
714.715	500.8
715.123	507.2
715.53	501.2
715.938	511.4
716.367	502.4
716.775	507.6
717.184	499.2
717.592	502.6
718	519.6
718.408	530
718.816	540.6
719.225	507
719.633	494.8
720.042	494.8
720.472	497
720.881	514.8
721.29	509.2
721.699	493.6
722.108	506.4
722.517	509.4
722.926	500.4
723.335	517
723.744	503.2
724.154	509.8
724.563	503.6
724.973	511.6
725.382	513.8
725.792	502.6
726.202	494.4
726.612	517
727.022	503.6
727.432	499.2
779.813	505.6
780.223	542.2
780.634	505
781.044	497
781.454	497.2
781.865	527.8
782.276	504.4
782.686	519.4
783.097	499.4
783.508	504.6
783.919	507.2
784.33	514.2
784.741	513.8
785.152	505.8
785.563	499
785.974	502.6
786.386	512.8
786.776	498.4
787.188	501
787.599	498.2
788.011	515.4
788.423	504.2
788.835	503
789.247	492
789.659	493.8
790.071	498.2
790.483	541
790.874	510
791.286	511
791.699	501
792.111	508.8
792.524	506.2
792.937	507.4
793.349	508.6
793.741	493.6
794.154	506.2
794.567	516.6
794.98	502.2
795.393	498
795.785	519.8
796.198	505
796.612	514
797.026	501
797.439	491
797.831	504.6
798.245	502
798.659	500.8
799.073	504.6
799.487	499.2
799.88	506.4
800.294	504.4
800.708	513.2
801.123	509.2
801.516	517.8
801.93	497.2
802.345	496.4
802.76	510
803.153	513.8
803.568	513.6
803.983	508
804.377	507.6
804.792	499
805.207	484.2
805.601	507.6
806.016	532.4
806.432	498.8
806.826	528.2
807.242	519.6
807.658	504.4
808.052	502.2
808.468	505
808.884	504.6
809.279	506.4
809.695	509.8
810.111	523.6
810.506	508.8
810.922	519.4
811.339	502.4
811.734	517.2
812.151	496.2
812.546	498.8
812.963	495.8
813.38	510.2
813.776	506.8
814.193	522.2
814.589	507.6
815.006	496
815.402	492.2
815.82	503.8
816.237	502.8
816.633	500.2
817.051	500.8
817.448	503.2
817.866	499.4
818.262	517.6
818.68	501.2
819.077	496.2
819.495	503
819.892	530
820.311	497.6
820.708	502
821.127	499.4
821.524	507
821.943	506.2
822.34	518.8
822.759	504.8
823.157	504.8
823.576	510.4
823.974	506.6
824.393	590.2
824.791	495.2
825.189	493
825.609	499.2
826.007	497.4
826.427	491
826.826	503.4
827.246	509.6
827.644	489.2
828.043	515.2
828.463	504.6
828.862	506.2
829.261	514.8
829.682	496
830.081	512
830.502	498
830.901	505.2
831.301	497.6
831.722	492
832.121	500
832.521	498.4
832.943	498.4
833.342	491.4
833.742	493.2
834.164	496.8
834.564	491.6
834.965	510.6
835.386	494.8
835.787	499.2
836.188	502
836.588	506.4
837.01	503.8
837.411	494.6
837.812	498.6
838.213	507.2
838.636	504
839.037	547.6
839.438	507.8
839.84	497.4
840.263	509.2
840.664	503.4
841.066	504
841.468	504
841.891	496.8
842.293	503.6
842.695	498.2
843.098	509.4
843.5	488.2
843.902	508.6
844.326	506.6
844.729	501.4
845.131	506
845.534	503
845.937	507.8
846.34	508.8
846.764	498.4
847.167	506.6
847.571	491.4
847.974	500
848.377	504.4
848.781	539.6
849.184	512.6
849.588	495.4
849.992	498.8
850.396	504
850.821	516
851.225	503
851.63	492.6
852.034	513.6
