#lambda/nm	C1
208.295	464.2
208.67	434.6
209.045	386.4
209.419	398
209.794	532.8
210.169	521.6
210.544	623.2
210.919	533.6
211.295	525.4
211.67	537.6
212.045	536.4
212.421	532.4
212.796	560.4
213.172	534.8
213.547	527.4
213.923	536.2
214.299	526.6
214.675	540.6
215.051	534.4
215.427	540.6
215.803	546.6
216.179	538
216.555	532.2
216.932	536.6
217.308	540.4
217.684	539.4
218.061	543.6
218.438	540.4
218.814	531.4
219.191	543.8
219.568	532.6
219.945	530.4
220.322	542.6
220.699	538.4
221.076	552.2
221.453	547.4
221.83	530.8
222.208	532.6
222.585	535
222.962	535.4
223.34	538.2
223.717	536.4
224.095	528
224.473	542
224.851	531.4
225.229	543.6
225.607	551.6
225.985	530.4
226.363	536.2
226.741	538.8
227.119	538.4
227.497	545.4
227.876	527.2
228.254	540.4
228.633	538.6
229.011	535.2
229.39	544
229.769	538.4
230.148	529.8
230.527	548.2
230.905	535.8
231.284	539.2
231.664	536.2
232.043	542
232.422	540.4
232.801	535.4
233.181	542.6
233.56	535.2
233.94	544
234.319	520
234.699	526.6
235.079	569.4
235.458	566.8
235.838	544.8
236.218	529.2
236.598	518.8
236.978	523.4
237.358	530.4
237.738	527.2
238.119	540.4
238.499	531
238.88	535.2
239.26	554.6
239.641	533.6
240.021	528.4
240.402	533.6
240.783	529.6
241.163	533.4
241.544	537.4
241.925	531
242.306	544.4
242.687	530.6
243.069	531.8
243.45	542.4
243.831	525
244.212	522
244.594	558.6
244.975	537.2
245.357	534.6
245.739	529.8
246.12	533.6
246.502	540
246.884	525.2
247.266	530.8
247.648	532.4
248.03	546.8
248.412	534
248.794	536.6
249.176	531.6
249.559	544.8
249.941	531
250.323	523
250.706	528.4
251.089	536.8
251.471	535.2
251.854	543.6
252.237	529.8
252.62	548.2
253.002	535.6
253.385	538.8
253.769	549
254.152	535.6
254.535	543
254.918	537.8
255.301	530.6
255.685	523.2
256.068	530.4
256.452	557.4
256.835	545.6
257.219	539.6
257.603	544.2
257.986	529.4
258.37	534.2
258.754	521.8
259.138	539.6
259.522	540
259.906	528.4
260.29	536.2
260.675	529.6
261.059	532.6
261.443	524.6
261.828	534.6
262.212	532.4
262.597	524
262.981	529.6
263.366	534.6
263.751	533.4
264.136	536.2
264.521	532.8
264.906	524.8
265.291	532.4
265.676	534.8
266.061	542
266.446	551
266.831	539.2
267.217	547.4
267.602	547
267.987	535
268.373	526.6
268.759	545.2
269.144	543.8
269.53	530.2
269.916	531.2
270.302	539.4
270.688	532.2
271.074	535.8
271.46	544.4
271.846	563.6
272.232	538.8
272.618	532.2
273.004	526.2
273.391	540.4
273.777	542.8
274.164	539.8
274.55	541
274.937	540.8
275.324	537.6
275.71	542.6
276.097	543.6
276.484	525.6
276.871	535.8
277.258	541.8
277.645	525
278.032	526.2
278.419	532.6
278.807	523.6
279.194	528.2
279.581	528.8
279.969	536.2
280.356	530
280.744	530
281.131	555.4
281.519	546.6
281.907	528.2
282.295	536.4
282.682	553.2
283.07	534.8
283.458	540.4
283.846	548.8
284.235	545
284.623	537
285.011	526
285.399	538
285.788	543.6
286.176	525.4
286.565	535.6
286.953	529
287.342	531.4
287.731	525.2
288.119	530.8
288.508	534.6
288.897	530.8
289.286	523.4
289.675	542.6
290.064	547.2
290.453	527.4
290.821	539.2
291.21	555.8
291.599	536
291.989	536.2
292.378	536
292.768	550.2
293.157	534.4
293.547	541.4
293.936	530.2
294.326	535.2
294.716	541
295.106	528.4
295.496	541.2
295.886	536.6
296.276	532
296.666	525.8
297.056	518.8
297.446	525.4
297.836	549
298.227	535.4
298.617	538
299.008	552.2
299.398	533.4
299.789	532.8
300.179	536.2
300.57	544.4
300.961	530.2
301.352	536.8
301.742	546
302.133	540.8
302.524	535
302.915	535.4
303.307	527
303.698	534.8
304.089	538.8
304.48	531.4
304.872	545.8
305.263	543.4
305.655	531.6
306.046	544
306.438	536.8
306.829	539.8
307.221	548
307.613	532.8
308.005	538.4
308.397	537.6
308.789	554.4
309.181	555.6
309.573	546
309.965	541.4
310.357	532
310.749	546.6
311.142	530.2
311.534	530.4
311.926	542.4
312.319	539.8
312.711	538.8
313.104	546.6
313.497	538.2
313.889	553.8
314.282	541.6
314.675	555
315.068	545.2
315.461	543
315.854	560.6
316.247	542.4
316.64	529
317.033	533.6
317.405	541.8
317.798	536.6
318.192	536.4
318.585	530.8
318.979	544.8
319.372	532
319.766	533
320.16	543
320.553	544.4
320.947	558.4
321.341	538.6
321.735	525.6
322.129	531.8
322.523	556
322.917	529.8
323.311	538.4
323.705	534.4
324.099	540.4
324.494	548.2
324.888	542
325.282	537.6
325.677	544.2
326.071	542.6
326.466	548.2
326.861	540.2
327.255	540.8
327.65	549.6
328.045	556
328.44	540.4
328.835	535.2
329.23	532.8
329.625	550.6
330.02	525.8
330.415	553.6
330.81	538.4
331.206	535.8
331.601	528.4
331.996	545.2
332.37	554
332.766	530.4
333.161	558
333.557	528.4
333.953	534.4
334.348	870.2
334.744	528.4
335.14	528.4
335.536	527.2
335.932	543.2
336.328	529.6
336.724	540.6
337.12	534.2
337.516	538.4
337.913	533.4
338.309	540.4
338.705	537
339.102	537.6
339.498	529.6
339.895	545.6
340.291	525.8
340.688	539.6
341.085	527.2
341.481	531.6
341.878	525
342.275	546.8
342.672	522.4
343.069	527.8
343.466	528.2
343.842	538
344.239	527.6
344.636	540.4
345.033	525.4
345.431	518
345.828	532
346.225	527.2
346.623	565.8
347.02	528.6
347.418	534.6
347.816	548.4
348.213	526
348.611	529.8
349.009	526.6
349.407	536.4
349.805	520
350.203	524.8
350.601	540.2
350.999	537.2
351.397	575.8
351.795	530.6
352.193	548.6
352.57	539.2
352.969	540.8
353.367	522.2
353.766	522.6
354.164	530
354.563	529.6
354.961	526.6
355.36	521.2
355.759	533.8
356.158	515.6
356.557	525.8
356.956	530.4
357.355	514.2
357.754	534.8
358.153	534.2
358.552	549.4
358.951	525.6
359.35	541.6
359.75	530.2
360.149	517.6
360.527	520.8
360.926	525.2
361.326	528.6
361.726	523.8
362.125	529.8
362.525	538.4
362.925	532.6
363.325	528
363.724	523.8
364.124	531.8
364.524	521.4
364.924	524.8
365.324	538
365.725	523
366.125	533.6
366.525	531.4
366.904	524.6
367.304	514.6
367.705	540.6
368.105	532.8
368.506	533
368.906	537.6
369.307	529.2
369.708	532.8
370.108	521.4
370.509	532.4
370.91	521.4
371.311	528.6
371.712	531.2
372.113	526
372.514	526.2
372.894	533.6
373.295	523.4
373.696	531.8
374.097	534.4
374.499	556.8
374.9	526
375.301	523
375.703	528.6
376.105	523.8
376.506	528.2
376.908	527
377.309	533
377.711	526
378.113	526.4
378.493	520
378.895	516.4
379.297	533.8
379.699	520.4
380.102	531
380.504	530.4
380.906	523.2
381.308	552.8
381.71	523.2
382.113	536.6
382.515	528.2
382.918	521.4
383.299	531.8
383.701	531
384.104	532.4
384.507	508.8
384.909	515.2
385.312	516.6
385.715	517.6
386.118	527.2
386.521	514
386.924	536.6
387.327	527
387.709	517
388.112	519.6
388.515	524
388.918	532.4
389.322	528.4
389.725	525.2
390.129	537.6
390.532	528
390.936	524
391.339	519
391.743	526.6
392.125	527.8
392.529	530.6
392.933	539.4
393.337	528.8
393.74	522.6
394.144	536.6
394.548	531.6
394.953	526.2
395.357	529.2
395.761	533
396.144	528
396.548	525.6
396.952	524.4
397.357	517.4
397.761	525.2
398.166	524.2
398.57	523.2
398.975	519.8
399.379	529.2
399.763	568.8
400.168	524.8
400.572	524.4
400.977	519.4
401.382	535.6
401.787	534.2
402.192	539.4
402.597	544
403.002	524.6
403.386	539.4
403.791	534.8
404.197	524.8
404.602	520.6
405.007	522
405.413	519.4
405.818	519
406.224	520.6
406.608	520
407.014	526
407.42	538.2
407.825	517.6
408.231	531.6
408.637	537.2
409.043	533.6
409.449	524.6
409.834	518.2
410.24	520.6
410.646	535
411.052	536.8
411.458	530.6
411.865	536.6
412.271	534.8
412.677	528.2
413.062	531.6
413.469	521.2
413.875	542.2
414.282	534.2
414.689	526.2
415.095	537.2
415.502	521.8
415.888	532.6
416.294	519
416.701	562.8
417.108	527.4
417.515	535.2
417.923	526.6
418.33	541.6
418.715	531.6
419.123	528.2
419.53	529.8
419.937	529.4
420.345	543.6
420.752	520.8
421.16	542.2
421.546	522.6
421.953	536.8
422.361	517.6
422.769	527.4
423.177	523
423.585	548.2
423.992	549.8
424.379	534.8
424.787	537.4
425.195	542
425.603	529.8
426.011	540.2
426.419	546
426.806	530.4
427.214	537
427.623	544.6
428.031	550
428.44	537.2
428.848	549.8
429.235	562
429.644	553
430.053	554.2
430.461	575.4
430.87	593.8
431.279	579.8
431.666	584.2
432.075	600.4
432.484	617.2
432.893	632
433.302	657.8
433.711	688
434.099	681.6
434.508	687.8
434.918	706.2
435.327	731.4
435.737	759.8
436.125	772.4
436.534	799.6
436.944	800.8
437.353	838.8
437.763	865.2
438.173	845.6
438.561	893.6
438.971	894.8
439.381	917.8
439.791	938.2
440.201	934.6
440.589	966.2
440.999	996.2
441.409	1011
441.819	1008.2
442.23	1043.8
442.619	1047.2
443.029	1057
443.439	1073
443.85	1097
444.26	1098.6
444.649	1098.6
445.06	1107
445.471	1108.4
445.881	1117.4
446.292	1138.8
446.682	1172.8
447.092	1152.8
447.503	1208.6
447.914	1174
448.325	1180.2
448.715	1187.2
449.126	1187.8
449.537	1189.4
449.948	1185.2
450.338	1206
450.75	1201.8
451.161	1214.2
451.572	1217.6
451.984	1218.4
452.374	1211.6
452.786	1224
453.197	1240.6
453.609	1241.4
453.999	1220.6
454.411	1245.4
454.823	1251.2
455.235	1240.6
455.647	1246.2
456.037	1248.4
456.449	1237
456.862	1250.8
457.274	1253.2
457.665	1262.4
458.077	1253
458.489	1271
458.902	1261.2
459.293	1239.8
459.705	1266.2
460.118	1235
460.53	1261.6
460.921	1245.8
461.334	1269
461.747	1271.6
462.16	1260
462.551	1271.2
462.964	1264.2
463.377	1240.4
463.79	1254.2
464.182	1259.4
464.595	1245.6
465.008	1268.2
465.421	1266.2
465.813	1261.6
466.226	1279.4
466.64	1252
467.053	1293.8
467.445	1263.8
467.859	1274.2
468.272	1254.4
468.686	1264.8
469.078	1271.6
469.492	1256
469.906	1256.2
470.298	1267.2
470.712	1262.8
471.126	1282.4
471.54	1246.4
471.933	1243
472.347	1259.6
472.761	1247.6
473.175	1235.4
473.568	1249
473.982	1239.4
474.397	1251.6
474.79	1242
475.204	1232.2
475.619	1236.2
476.033	1226.2
476.426	1226.6
476.841	1226
477.256	1236.4
477.649	1210.2
478.064	1204.8
478.479	1191.6
478.872	1196.8
479.287	1191.2
479.702	1185.4
480.118	1193.4
480.511	1174.6
480.927	1187
481.342	1171.8
481.736	1178.2
482.151	1168
482.566	1168.2
482.96	1172
483.376	1186.6
483.792	1171.6
484.186	1158.2
484.602	1158
485.017	1155.8
485.412	1139.2
485.827	1144.4
486.243	1146.6
486.638	1160.4
487.054	1140
487.47	1129.2
487.865	1114.2
488.281	1108
488.697	1112.8
489.092	1115
489.508	1099
489.925	1107.2
490.32	1090
490.736	1092.8
491.153	1099.2
491.548	1074.2
491.964	1081.8
492.381	1064.8
492.776	1057
493.193	1065
493.61	1071.8
494.006	1057
494.422	1051.6
494.84	1031.2
495.235	1044
495.652	1050.6
496.069	1045.6
496.465	1026
496.883	1024.6
497.3	1054.6
497.696	1014.6
498.113	1017.2
498.509	1007.6
498.927	996.4
499.344	997.6
499.741	991.8
500.158	1004.4
500.576	992.8
500.973	984.8
501.39	966
501.787	959.6
502.205	961
502.623	954.4
503.02	950.4
503.438	955.6
503.856	944.4
504.253	944.2
504.671	936
505.068	922.4
505.486	930.6
505.905	950.8
506.302	930.8
506.72	928.2
507.118	912.8
507.536	912.8
507.955	915.6
508.352	917.6
508.771	918.6
509.169	899.2
509.587	882.6
510.006	881
510.404	878.4
510.823	883.6
511.221	875.6
511.64	870.4
512.038	864.6
512.457	870.2
512.877	863.2
513.275	849.8
513.694	849.6
514.092	847.2
514.512	853.8
514.91	853.4
515.33	841
515.749	841
516.148	829.8
516.568	840.2
516.966	824
517.386	827
517.785	813.4
518.205	814.6
518.603	807
519.024	816.6
519.444	804
519.843	810.6
520.263	805.4
520.662	797.2
521.082	792.6
521.481	796.4
521.902	781.4
522.301	791
522.722	776.2
523.121	783.8
523.542	778.4
523.963	768.8
524.362	780.6
524.783	775.8
525.183	758.2
525.604	765.2
526.003	752
526.425	762.8
526.824	757.4
527.246	761
527.646	742.2
528.067	746.8
528.467	750.8
528.888	743
529.289	733.2
529.71	731.8
530.11	729.8
530.532	728
530.932	714
531.354	710.4
531.755	747
532.176	714.2
532.577	712.4
532.999	709.6
533.4	707.6
533.822	711.6
534.223	713.2
534.645	710.8
535.046	701.6
535.468	694
535.869	715.2
536.292	700.4
536.693	738.6
537.115	690.8
537.516	685.8
537.939	686
538.34	708.8
538.742	692.6
539.165	690
539.566	683.4
539.989	671.4
540.391	666
540.814	671
541.216	687.6
541.639	680.6
542.041	686.8
542.464	677
542.866	667
543.268	663.2
543.691	674.8
544.093	669.4
544.517	689.4
544.919	661.8
545.343	684.8
545.745	653.6
546.147	654.6
546.571	649.4
546.974	659.4
547.398	651.8
547.8	656.4
548.224	643.2
548.627	642.2
549.03	642
549.454	632.8
549.857	620.6
550.281	633
550.684	643.4
551.087	637.8
551.512	641
551.915	648.6
552.34	629.8
552.743	628.6
553.146	637.6
553.571	631.4
553.975	645
554.399	625.4
554.803	665.2
555.207	614.8
555.632	621.2
556.036	623.2
556.461	605.8
556.865	618.6
557.268	614
557.694	614.8
558.098	623.8
558.502	625.2
558.927	606.4
559.332	607.4
559.736	613
560.162	612
560.566	602.4
560.992	608
561.396	605.6
561.801	598
562.227	609
562.631	594.6
563.036	606
563.462	610.8
563.867	603.4
564.272	588.8
564.698	593.4
565.103	585.4
565.508	605.4
565.935	605.4
566.34	591.8
566.745	602.4
567.172	590.4
567.577	606
567.982	604
568.409	581.6
568.815	576.8
569.22	585.2
569.626	585
570.053	572
570.459	575.2
570.865	593.2
571.292	581.2
571.698	586
572.104	569.6
572.531	578
572.937	572.6
573.343	572
573.75	564
574.177	571
574.583	585.2
574.99	573.2
575.396	582
575.824	569.6
576.231	571.2
576.637	572.2
577.065	590.4
577.472	567
577.879	563.2
578.286	582.2
578.714	562.2
579.121	563.4
579.528	567.6
579.935	571.6
580.364	564.6
580.771	556.4
581.178	565.8
581.585	558.2
582.014	559.2
582.421	560.4
582.829	564
583.236	562.6
583.644	556
584.073	557.8
584.481	557
584.889	551.8
585.296	558.6
585.726	557
586.134	552.6
586.542	549
586.95	564.2
587.358	545.2
587.787	557.2
588.196	545.4
588.604	549
589.012	543.6
589.421	544.4
589.851	551.6
590.259	546
590.668	544.4
591.076	585.2
591.485	540
591.894	553
592.324	557
592.733	553.8
593.142	536
593.551	547.2
593.96	551.4
594.369	531.2
594.8	539.8
595.209	541.2
595.618	536.2
596.028	538
596.437	538.8
596.847	544.2
597.256	537.8
597.687	532.6
598.097	538.2
598.507	529
598.917	542.2
599.327	535.2
599.736	539.4
600.146	544.4
600.556	530
600.988	549.2
601.398	525
601.808	546
602.219	524.8
602.629	541
603.039	542
603.45	559.4
603.86	538.8
604.271	549.6
604.703	534.6
605.114	538.8
605.525	537
605.935	539.4
606.346	547.2
606.757	528.4
607.168	532.6
607.579	527
607.99	540.2
608.402	535.8
608.813	534.8
609.224	532
609.636	517.6
610.047	529.2
610.48	528.6
610.892	535.2
611.303	542.2
611.715	530.8
612.127	529.6
612.539	532.6
612.95	539.8
613.362	519.4
613.774	530
614.186	517.4
614.599	527
615.011	532.8
615.423	532.6
615.835	532.8
616.248	528.2
616.66	537.4
617.073	526.6
617.485	533.4
617.898	539.6
618.311	540
618.723	524.6
619.136	558
619.549	537.2
619.962	549.8
620.375	527.8
620.788	537.6
621.201	526.4
621.614	536.2
622.028	529.2
622.441	531.2
622.854	544.8
623.268	527
623.681	530
624.095	530.6
624.509	533
624.922	529.2
625.336	523.8
625.728	525.4
626.142	536.8
626.556	541.6
626.97	528.4
627.384	525.4
627.799	520
628.213	534.2
628.627	525.4
629.041	521
629.456	526.6
629.87	521.8
630.285	528.2
630.699	522.2
631.093	520.2
631.507	521
631.922	523.8
632.337	525.8
632.752	518
633.167	525.2
633.582	522.4
633.997	524.8
634.412	520
634.806	521
635.221	503.8
635.637	527.4
636.052	518.2
636.468	520.6
636.883	531.2
637.299	522.2
637.715	513.4
638.109	522.2
638.525	506.6
638.941	526.2
639.357	521
639.773	525.6
640.189	511.6
640.584	522
641	520.8
641.416	517.6
641.832	518
642.249	511
642.665	522.8
643.06	518.2
643.477	527.4
643.894	503.4
644.31	513
644.727	515
645.123	517
645.54	511.8
645.957	517.2
646.374	524.6
646.77	515.4
647.187	538.2
647.604	517.8
648.021	502.2
648.439	508.8
648.835	517.6
649.252	511.2
649.67	509.2
650.088	522.4
650.484	514.4
650.902	524.6
651.32	528.8
651.738	510.6
652.134	517.8
652.552	533
652.971	521.6
653.389	512.8
653.786	524.4
654.204	516
654.622	511.8
655.019	520.8
655.438	520.6
655.857	509
656.275	516
656.673	510.6
657.091	523.4
657.51	506.2
657.908	521.4
658.327	528
658.746	508.6
659.144	518
659.563	523.6
659.982	515.8
660.38	509.6
660.8	516
661.219	513.2
661.617	516.2
662.037	511.8
662.457	531.6
662.855	510.2
663.275	541.2
663.695	508.6
664.094	516.6
664.514	508.6
664.934	509.2
665.333	516
665.753	506.4
666.152	500.2
666.572	499
666.993	519.2
667.392	508
667.812	505
668.212	515.4
668.632	520.8
669.053	507.8
669.453	512
669.874	509.8
670.273	506.8
670.694	499
671.116	511.6
671.515	514.6
671.937	505.8
672.337	507.2
672.758	509.4
673.158	509.4
673.58	499
673.98	512
674.402	517.4
674.824	511.4
675.224	499.6
675.646	502.6
676.047	507.4
676.469	510.6
676.869	506
677.292	516.4
677.693	509.4
678.115	509.2
678.516	511.8
678.939	509
679.34	511.4
679.762	516
680.164	510.2
680.586	499.8
680.988	514.6
681.411	533.6
681.812	504
682.236	498.8
682.637	503.8
683.061	502.4
683.462	512
683.864	507.8
684.288	520.2
684.69	505.2
685.114	519.2
685.516	517
685.94	506.2
686.342	516.2
686.766	502.6
687.168	515.6
687.571	521.2
687.995	508.4
688.398	504.4
688.822	507.4
689.225	518.6
689.628	525.2
690.052	506.2
690.456	510.2
690.88	508.6
691.284	501
691.687	520.2
692.112	496.8
692.515	504.8
692.919	508.4
693.344	507
693.747	505.4
694.173	499.6
694.577	515.8
694.98	515
695.406	501.4
695.81	502.6
696.214	506.8
696.64	499.4
697.044	504.6
697.448	517.6
697.874	497.2
698.279	504.4
698.684	502.2
699.11	498
699.514	505.2
699.919	501.4
700.324	501.8
700.75	510.4
701.156	502.4
701.561	511.8
701.987	506.4
702.393	515.2
702.798	505.2
703.203	506
703.63	499
704.036	504.8
704.442	505.4
704.847	501.8
705.274	503
705.68	512.2
706.086	507.4
706.492	503.2
706.92	504.6
707.326	510.6
707.732	498.6
708.139	499.8
708.545	507.6
708.973	499
709.38	504.4
709.786	494
710.193	521.4
710.6	503.4
711.028	506
711.435	511.6
711.842	501.4
712.249	496.2
712.656	501.8
713.064	509.2
713.492	492.6
713.9	500.8
714.307	511.6
714.715	503.2
715.123	503.4
715.53	507.6
715.938	510.2
716.367	511.2
716.775	507.2
717.184	499.6
717.592	505.2
718	516.4
718.408	539.6
718.816	540.8
719.225	506
719.633	505
720.042	495.4
720.472	499.4
720.881	516.8
721.29	507.2
721.699	494.4
722.108	499.2
722.517	502.6
722.926	502.4
723.335	505.8
723.744	500.6
724.154	498.8
724.563	503.6
724.973	506.6
725.382	503.8
725.792	495.8
726.202	489.4
726.612	506.2
727.022	496
727.432	500.8
779.813	497
780.223	537.2
780.634	490.6
781.044	497.6
781.454	507.2
781.865	509.4
782.276	494.4
782.686	503.6
783.097	494.2
783.508	494.4
783.919	507.6
784.33	508.2
784.741	510.8
785.152	494.6
785.563	488.2
785.974	495.8
786.386	496
786.776	497.4
787.188	502.2
787.599	500.4
788.011	510.6
788.423	504.8
788.835	497.4
789.247	490
789.659	494.6
790.071	501.4
790.483	533.6
790.874	493.6
791.286	502.2
791.699	494.8
792.111	501.8
792.524	493.8
792.937	505
793.349	497.2
793.741	494.4
794.154	486.6
794.567	512.6
794.98	497.4
795.393	490.4
795.785	513
796.198	496.4
796.612	495.8
797.026	493
797.439	493
797.831	501.2
798.245	490.2
798.659	492.2
799.073	491.6
799.487	497
799.88	504
800.294	505.2
800.708	504
801.123	499.4
801.516	514
801.93	491.6
802.345	487.8
802.76	497.4
803.153	509
803.568	517.4
803.983	511.4
804.377	503.4
804.792	492.4
805.207	496.6
805.601	504.6
806.016	526.6
806.432	496.2
806.826	530
807.242	522
807.658	498.4
808.052	498
808.468	496.2
808.884	491.4
809.279	495.4
809.695	511
810.111	512.6
810.506	496.2
810.922	518.6
811.339	495.4
811.734	507.4
812.151	497.2
812.546	497.6
812.963	498.2
813.38	492.8
813.776	500.6
814.193	513.2
814.589	493.2
815.006	498.4
815.402	492.4
815.82	493.6
816.237	497.4
816.633	500.6
817.051	490.2
817.448	499.8
817.866	501.6
818.262	516.8
818.68	501
819.077	491.6
819.495	500.8
819.892	529.4
820.311	493.8
820.708	504.2
821.127	497.8
821.524	515.4
821.943	495.6
822.34	516.8
822.759	508.4
823.157	499.6
823.576	505.6
823.974	510.8
824.393	582.4
824.791	496.2
825.189	494.4
825.609	496.4
826.007	499.4
826.427	489.6
826.826	494.8
827.246	508.4
827.644	490.2
828.043	508.8
828.463	497.4
828.862	503
829.261	498
829.682	486
830.081	501
830.502	485
830.901	501.4
831.301	497
831.722	489.4
832.121	498.8
832.521	497.2
832.943	500.2
833.342	498
833.742	491.4
834.164	504.6
834.564	489.6
834.965	500.8
835.386	496.2
835.787	499.8
836.188	498.4
836.588	501.8
837.01	496
837.411	491
837.812	507.2
838.213	498
838.636	498.2
839.037	559.4
839.438	500.8
839.84	498
840.263	505
840.664	501
841.066	494.6
841.468	501
841.891	497.4
842.293	511.4
842.695	504.2
843.098	502.6
843.5	488
843.902	501.6
844.326	504.4
844.729	493.4
845.131	503.2
845.534	500
845.937	499.4
846.34	507.8
846.764	490.6
847.167	498.8
847.571	492.2
847.974	495.2
848.377	497.4
848.781	544.2
849.184	504.4
849.588	496.8
849.992	501.8
850.396	500.6
850.821	512
851.225	494.8
851.63	487.8
852.034	508.8
852.438	499.4
