#lambda/nm	C1
208.295	473
208.67	438
209.045	395.8
209.419	404
209.794	539.4
210.169	526.4
210.544	625.4
210.919	536.8
211.295	528.4
211.67	541.4
212.045	528.2
212.421	529
212.796	558.6
213.172	522.6
213.547	529.2
213.923	527
214.299	527.4
214.675	536
215.051	537.6
215.427	541.4
215.803	546.4
216.179	539.6
216.555	528.6
216.932	545.8
217.308	535.2
217.684	526.8
218.061	536.2
218.438	531.2
218.814	532.6
219.191	539.4
219.568	525.6
219.945	527.6
220.322	539.8
220.699	546.2
221.076	533.8
221.453	535
221.83	522.6
222.208	531.2
222.585	526.4
222.962	536.6
223.34	544.8
223.717	524
224.095	531.8
224.473	534.4
224.851	531.2
225.229	527
225.607	542.4
225.985	523
226.363	538
226.741	533
227.119	533.2
227.497	545.6
227.876	525
228.254	539.4
228.633	543.4
229.011	533.6
229.39	542
229.769	535.4
230.148	537
230.527	557.4
230.905	533.2
231.284	542.6
231.664	524.6
232.043	539
232.422	540.8
232.801	531.6
233.181	536.2
233.56	530.6
233.94	540.8
234.319	525.8
234.699	539.2
235.079	569.6
235.458	568.8
235.838	551.6
236.218	536.4
236.598	525.2
236.978	534.4
237.358	524.4
237.738	534.6
238.119	535.4
238.499	531
238.88	528.6
239.26	549.4
239.641	525.2
240.021	540
240.402	538.6
240.783	536.6
241.163	535.4
241.544	546.2
241.925	533.8
242.306	550.4
242.687	535.4
243.069	539.4
243.45	547.8
243.831	534.6
244.212	530.4
244.594	560.8
244.975	543.4
245.357	535
245.739	529
246.12	537.4
246.502	537.4
246.884	531.4
247.266	531
247.648	539.6
248.03	555.8
248.412	535
248.794	533.2
249.176	536.2
249.559	535
249.941	530.2
250.323	528.6
250.706	533.8
251.089	533
251.471	533.2
251.854	534.6
252.237	532
252.62	545
253.002	535.2
253.385	538
253.769	554.2
254.152	536.2
254.535	545.2
254.918	527.6
255.301	533
255.685	537.8
256.068	529.6
256.452	553.4
256.835	539.6
257.219	536.8
257.603	543
257.986	526.8
258.37	543.4
258.754	518.8
259.138	544.6
259.522	547.6
259.906	533.6
260.29	533.4
260.675	535
261.059	536.2
261.443	529.8
261.828	548.4
262.212	537
262.597	525
262.981	530.2
263.366	537.8
263.751	535.2
264.136	526.2
264.521	530.2
264.906	519.8
265.291	545.4
265.676	532.4
266.061	539
266.446	552
266.831	537.4
267.217	545.2
267.602	531.4
267.987	533.8
268.373	529.2
268.759	541.4
269.144	532.6
269.53	538.4
269.916	528.8
270.302	531.6
270.688	535.2
271.074	532.6
271.46	542.6
271.846	548.4
272.232	533.2
272.618	534
273.004	532
273.391	545.6
273.777	548.6
274.164	541.4
274.55	540.8
274.937	532.6
275.324	531.4
275.71	537
276.097	538.2
276.484	531.6
276.871	534.8
277.258	531.6
277.645	526
278.032	527.4
278.419	528
278.807	531.2
279.194	529.4
279.581	526.2
279.969	540.6
280.356	540.6
280.744	532
281.131	554.6
281.519	542.2
281.907	530.2
282.295	530
282.682	536.4
283.07	534.6
283.458	548.2
283.846	541.8
284.235	542.8
284.623	540.8
285.011	526.2
285.399	542
285.788	536.2
286.176	530
286.565	541.8
286.953	530.6
287.342	528.4
287.731	526.2
288.119	523.2
288.508	532.8
288.897	538.4
289.286	524.8
289.675	533
290.064	540.8
290.453	534.8
290.821	541.6
291.21	553.6
291.599	536.8
291.989	536.8
292.378	548.6
292.768	556.4
293.157	544
293.547	539
293.936	535.6
294.326	531.8
294.716	541.4
295.106	531.6
295.496	538
295.886	536
296.276	535.4
296.666	529.6
297.056	523
297.446	522.6
297.836	544
298.227	525
298.617	531.8
299.008	544.6
299.398	529.8
299.789	523.2
300.179	539
300.57	542.6
300.961	533.4
301.352	538.2
301.742	542.4
302.133	535.4
302.524	530.8
302.915	536.2
303.307	524.6
303.698	542
304.089	540.4
304.48	532.6
304.872	537.2
305.263	531.6
305.655	533.2
306.046	540.6
306.438	543.2
306.829	532.8
307.221	541
307.613	544.6
308.005	538.4
308.397	542.8
308.789	550.8
309.181	556.6
309.573	546
309.965	543.4
310.357	528
310.749	542.4
311.142	526.6
311.534	527.4
311.926	546.8
312.319	533.2
312.711	533.6
313.104	548.4
313.497	530.8
313.889	559.6
314.282	549.2
314.675	550.4
315.068	538.8
315.461	538.8
315.854	565.2
316.247	539.2
316.64	542
317.033	540
317.405	543.8
317.798	527.2
318.192	539.4
318.585	526.2
318.979	542
319.372	533.2
319.766	527
320.16	539.2
320.553	542
320.947	541.6
321.341	526
321.735	540.4
322.129	533.4
322.523	552
322.917	530
323.311	546
323.705	533.8
324.099	542.8
324.494	549.8
324.888	538.8
325.282	537.6
325.677	541.4
326.071	543.2
326.466	540.4
326.861	540.8
327.255	548.6
327.65	542.8
328.045	541.2
328.44	531.4
328.835	536.8
329.23	534.6
329.625	554.6
330.02	537
330.415	556.6
330.81	539.4
331.206	527.2
331.601	532.6
331.996	547.2
332.37	556
332.766	528.8
333.161	554
333.557	535.4
333.953	535.4
334.348	758.4
334.744	539.6
335.14	532.6
335.536	542
335.932	545.6
336.328	536.6
336.724	544.4
337.12	535.6
337.516	538.8
337.913	535.4
338.309	540.6
338.705	540.8
339.102	539.2
339.498	534.8
339.895	546.4
340.291	532.2
340.688	545.8
341.085	523.6
341.481	540.8
341.878	533.4
342.275	543.8
342.672	525.8
343.069	533.6
343.466	514.6
343.842	535.8
344.239	522.4
344.636	528
345.033	522.2
345.431	524.8
345.828	534.4
346.225	526
346.623	556.8
347.02	531.2
347.418	541
347.816	543.2
348.213	522.2
348.611	525.6
349.009	523.2
349.407	542.6
349.805	520.2
350.203	518.8
350.601	544.6
350.999	529.8
351.397	587.2
351.795	528.8
352.193	538
352.57	545.4
352.969	542.6
353.367	523.4
353.766	527.6
354.164	532.2
354.563	543.6
354.961	531.6
355.36	524.2
355.759	523.6
356.158	523.4
356.557	526.4
356.956	520.2
357.355	524
357.754	527.2
358.153	533.6
358.552	550.6
358.951	527.6
359.35	541
359.75	527.2
360.149	521.6
360.527	522.8
360.926	519
361.326	532.8
361.726	533
362.125	524.6
362.525	539.8
362.925	527.8
363.325	531
363.724	529
364.124	523.8
364.524	526.4
364.924	527.2
365.324	542.4
365.725	522.8
366.125	534.4
366.525	526.4
366.904	520
367.304	513
367.705	546.2
368.105	534.4
368.506	527.6
368.906	531.2
369.307	527.6
369.708	535
370.108	522.6
370.509	544.2
370.91	522.6
371.311	529.4
371.712	527.8
372.113	521.6
372.514	520.2
372.894	527
373.295	515.6
373.696	534.4
374.097	527.2
374.499	557
374.9	523.4
375.301	521
375.703	535.8
376.105	520.8
376.506	528.8
376.908	528.4
377.309	525.2
377.711	527
378.113	525.8
378.493	528
378.895	524.4
379.297	532.8
379.699	515.6
380.102	527
380.504	527.2
380.906	525.4
381.308	561
381.71	525.2
382.113	526.8
382.515	526.8
382.918	524.6
383.299	527.4
383.701	541.4
384.104	532.4
384.507	515
384.909	520.2
385.312	519.8
385.715	522.4
386.118	522.6
386.521	519.2
386.924	529.2
387.327	521.2
387.709	519
388.112	511.2
388.515	527.4
388.918	524.2
389.322	531.4
389.725	526.4
390.129	540.8
390.532	528
390.936	528.8
391.339	523.8
391.743	533.4
392.125	521.4
392.529	534.4
392.933	532.4
393.337	525.2
393.74	529.8
394.144	526.8
394.548	524.8
394.953	526.6
395.357	532.4
395.761	521
396.144	523.2
396.548	522.4
396.952	528
397.357	534.8
397.761	514.2
398.166	521.8
398.57	524.4
398.975	522
399.379	530.8
399.763	565.8
400.168	520.2
400.572	524
400.977	528.6
401.382	538
401.787	534.4
402.192	536.2
402.597	536
403.002	515
403.386	530.4
403.791	549
404.197	522
404.602	527.8
405.007	522
405.413	519.4
405.818	527
406.224	523
406.608	526
407.014	523.2
407.42	536
407.825	522.2
408.231	534.2
408.637	524.4
409.043	537.2
409.449	521
409.834	519.8
410.24	529
410.646	535.2
411.052	531.8
411.458	521.4
411.865	531.2
412.271	533.2
412.677	520.6
413.062	528.2
413.469	522
413.875	543.2
414.282	534.8
414.689	529.8
415.095	523.2
415.502	520.4
415.888	530.2
416.294	513
416.701	561.2
417.108	514
417.515	529.4
417.923	515.6
418.33	539
418.715	535.4
419.123	520.6
419.53	525.2
419.937	527.2
420.345	538.8
420.752	526
421.16	543.4
421.546	525.4
421.953	539
422.361	525.2
422.769	525.2
423.177	518.8
423.585	550.2
423.992	547
424.379	537.2
424.787	533
425.195	547.8
425.603	526.4
426.011	541.2
426.419	535.4
426.806	534
427.214	543
427.623	542
428.031	550.2
428.44	541.8
428.848	544.2
429.235	557.8
429.644	555.6
430.053	560.6
430.461	579.2
430.87	589
431.279	587.2
431.666	593
432.075	611.4
432.484	627.4
432.893	627.8
433.302	664
433.711	693.6
434.099	680.6
434.508	696.8
434.918	708.2
435.327	730.4
435.737	748.6
436.125	775.2
436.534	792.4
436.944	816.8
437.353	841.6
437.763	865.6
438.173	862.8
438.561	888
438.971	884.6
439.381	917.6
439.791	934.6
440.201	946.4
440.589	985.6
440.999	994.8
441.409	1010.4
441.819	1015.8
442.23	1043
442.619	1057.8
443.029	1064.8
443.439	1071.8
443.85	1088.2
444.26	1114.6
444.649	1101.4
445.06	1098.4
445.471	1105
445.881	1120.2
446.292	1143
446.682	1167
447.092	1135.6
447.503	1180.8
447.914	1155.8
448.325	1169.2
448.715	1172.4
449.126	1189.2
449.537	1183.6
449.948	1190
450.338	1186.2
450.75	1200
451.161	1197
451.572	1201.4
451.984	1204.2
452.374	1207.6
452.786	1217
453.197	1231.4
453.609	1239.4
453.999	1220
454.411	1234.6
454.823	1252
455.235	1235.6
455.647	1230.8
456.037	1252.6
456.449	1239.8
456.862	1234.4
457.274	1256
457.665	1247.8
458.077	1267
458.489	1274.8
458.902	1246.6
459.293	1248.4
459.705	1243.4
460.118	1233.2
460.53	1254.6
460.921	1244.8
461.334	1247
461.747	1241.8
462.16	1272.8
462.551	1267.4
462.964	1251.2
463.377	1237.2
463.79	1247
464.182	1264.8
464.595	1241.4
465.008	1252.2
465.421	1263
465.813	1246.2
466.226	1251.6
466.64	1239.6
467.053	1269.6
467.445	1255
467.859	1261.2
468.272	1253
468.686	1275.4
469.078	1250.2
469.492	1243
469.906	1252
470.298	1252.6
470.712	1241.4
471.126	1261.4
471.54	1232.8
471.933	1234
472.347	1246.4
472.761	1242.6
473.175	1233.6
473.568	1239
473.982	1230.4
474.397	1227.2
474.79	1230.4
475.204	1213.4
475.619	1211.8
476.033	1223.6
476.426	1218.4
476.841	1205.8
477.256	1232.2
477.649	1192
478.064	1196
478.479	1175.4
478.872	1185.6
479.287	1166.2
479.702	1182.8
480.118	1183
480.511	1190.8
480.927	1180.4
481.342	1175.6
481.736	1172.4
482.151	1156.8
482.566	1167.2
482.96	1163.8
483.376	1164.6
483.792	1153.6
484.186	1162
484.602	1152.8
485.017	1145.6
485.412	1134.4
485.827	1132.4
486.243	1116.6
486.638	1153.6
487.054	1136.6
487.47	1127.2
487.865	1119.6
488.281	1106
488.697	1097
489.092	1110.8
489.508	1075.4
489.925	1095.4
490.32	1066.4
490.736	1091.6
491.153	1067.8
491.548	1071.4
491.964	1071.2
492.381	1050.6
492.776	1056.6
493.193	1050
493.61	1061
494.006	1049
494.422	1044
494.84	1038.6
495.235	1041.8
495.652	1032.2
496.069	1028.6
496.465	1025
496.883	1025.8
497.3	1031
497.696	1004.6
498.113	1020.4
498.509	1007
498.927	973.2
499.344	1000.8
499.741	967.2
500.158	998.2
500.576	992
500.973	979.4
501.39	975.2
501.787	975
502.205	969
502.623	953
503.02	944.2
503.438	943.8
503.856	941.2
504.253	943.2
504.671	938.4
505.068	931.8
505.486	923.6
505.905	922.2
506.302	921.2
506.72	911.4
507.118	903
507.536	914
507.955	898
508.352	897.8
508.771	892.4
509.169	897.2
509.587	870.2
510.006	889.2
510.404	870.8
510.823	866.2
511.221	869
511.64	860
512.038	865.8
512.457	863.2
512.877	859.2
513.275	846.4
513.694	834.8
514.092	845
514.512	860
514.91	852.6
515.33	833.8
515.749	837.4
516.148	841.2
516.568	836.6
516.966	819.4
517.386	811
517.785	817.6
518.205	812
518.603	805.4
519.024	805.4
519.444	808.8
519.843	811.2
520.263	804
520.662	792.2
521.082	786.6
521.481	796.6
521.902	781.8
522.301	782.8
522.722	781
523.121	783.4
523.542	775
523.963	768.2
524.362	766.2
524.783	776.4
525.183	770.6
525.604	759.6
526.003	752.4
526.425	742.2
526.824	749.6
527.246	749.6
527.646	755.6
528.067	744.4
528.467	743.2
528.888	740
529.289	739.4
529.71	731.2
530.11	725.6
530.532	731
530.932	719.8
531.354	722.6
531.755	734.6
532.176	728.2
532.577	707.6
532.999	718
533.4	710.2
533.822	712.8
534.223	711.4
534.645	700
535.046	701.2
535.468	708.6
535.869	709.4
536.292	686.6
536.693	724.2
537.115	696
537.516	691
537.939	688.6
538.34	703
538.742	690.2
539.165	685.8
539.566	682.8
539.989	669.4
540.391	680.4
540.814	682.8
541.216	682.6
541.639	676
542.041	678
542.464	667.6
542.866	659.8
543.268	665.6
543.691	674.2
544.093	666.4
544.517	676.2
544.919	659.8
545.343	670.4
545.745	649.2
546.147	655.6
546.571	655.2
546.974	650.8
547.398	649
547.8	662
548.224	640.6
548.627	642
549.03	647.8
549.454	639.8
549.857	646.8
550.281	630
550.684	634.2
551.087	648.4
551.512	640.4
551.915	640.4
552.34	633
552.743	632.2
553.146	626.8
553.571	626.6
553.975	643
554.399	618.6
554.803	663.2
555.207	622
555.632	603.6
556.036	615.6
556.461	614.4
556.865	622.4
557.268	612
557.694	608.2
558.098	619.4
558.502	625
558.927	613.6
559.332	612
559.736	610.6
560.162	618.8
560.566	602.4
560.992	606
561.396	605.2
561.801	605.8
562.227	597
562.631	604.2
563.036	598.8
563.462	601.4
563.867	598
564.272	586
564.698	595.4
565.103	588.6
565.508	605.4
565.935	593.2
566.34	592
566.745	606.2
567.172	584.2
567.577	598.4
567.982	605.6
568.409	598
568.815	579.4
569.22	582.2
569.626	588.6
570.053	579.6
570.459	583.8
570.865	591.6
571.292	583.2
571.698	578.6
572.104	568
572.531	576.4
572.937	592.4
573.343	564.4
573.75	571
574.177	574
574.583	572.2
574.99	573.2
575.396	580.6
575.824	567
576.231	579
576.637	565.4
577.065	590.8
577.472	566
577.879	561.4
578.286	574.6
578.714	559.4
579.121	561
579.528	578.6
579.935	574.2
580.364	555.2
580.771	552.8
581.178	556.8
581.585	573
582.014	564.4
582.421	558.8
582.829	553.2
583.236	567.4
583.644	556.8
584.073	558.4
584.481	556.4
584.889	559
585.296	552.2
585.726	558.4
586.134	542.8
586.542	549.2
586.95	564
587.358	541.2
587.787	546.4
588.196	540.4
588.604	548.8
589.012	545.6
589.421	544.8
589.851	538.6
590.259	554.2
590.668	543.4
591.076	583
591.485	542
591.894	538.8
592.324	557.4
592.733	552.2
593.142	533.4
593.551	537.2
593.96	570.6
594.369	528.2
594.8	537.8
595.209	546.4
595.618	533.4
596.028	537.8
596.437	541.2
596.847	548.4
597.256	547.4
597.687	539
598.097	540.6
598.507	537.6
598.917	538
599.327	540.4
599.736	538.6
600.146	541.6
600.556	537.6
600.988	549
601.398	537.4
601.808	546
602.219	530.4
602.629	527.4
603.039	536
603.45	550.4
603.86	536.6
604.271	538.6
604.703	535.8
605.114	538
605.525	536.4
605.935	534.4
606.346	548.4
606.757	536.4
607.168	535
607.579	521.6
607.99	535.4
608.402	524.4
608.813	527.6
609.224	524
609.636	514
610.047	529.8
610.48	533.8
610.892	539.2
611.303	534.6
611.715	531.2
612.127	530.8
612.539	528.2
612.95	525.8
613.362	516.2
613.774	516.4
614.186	520.8
614.599	518
615.011	532.2
615.423	525
615.835	525.4
616.248	519.4
616.66	533
617.073	518.4
617.485	522.2
617.898	528
618.311	526.8
618.723	527.8
619.136	550.8
619.549	540
619.962	548
620.375	520.8
620.788	528.8
621.201	525.6
621.614	531.6
622.028	521.2
622.441	521.6
622.854	531.8
623.268	524.8
623.681	538
624.095	523.4
624.509	529.8
624.922	526.6
625.336	530.6
625.728	525.6
626.142	533.4
626.556	540
626.97	531.2
627.384	518.4
627.799	519
628.213	532.6
628.627	518.8
629.041	521.2
629.456	522.6
629.87	522.6
630.285	534.8
630.699	528.8
631.093	514
631.507	525.2
631.922	518.4
632.337	541.8
632.752	509.6
633.167	525.2
633.582	521.2
633.997	518.6
634.412	516.4
634.806	519.4
635.221	518.2
635.637	528.2
636.052	505
636.468	519.6
636.883	529
637.299	522
637.715	504.6
638.109	514.4
638.525	505.4
638.941	525.6
639.357	515.4
639.773	524.2
640.189	514.6
640.584	520.2
641	515.6
641.416	502
641.832	516
642.249	523
642.665	518.4
643.06	522.2
643.477	521.4
643.894	510.4
644.31	511.4
644.727	515.8
645.123	521.4
645.54	508.8
645.957	520
646.374	525
646.77	517.4
647.187	533.8
647.604	515
648.021	509.4
648.439	515.6
648.835	515.2
649.252	514.6
649.67	507.2
650.088	521.4
650.484	515
650.902	515.8
651.32	518.6
651.738	509.2
652.134	520.4
652.552	525.4
652.971	522.2
653.389	509.2
653.786	523.6
654.204	517.4
654.622	505
655.019	510.2
655.438	510.6
655.857	514.2
656.275	514.4
656.673	506
657.091	514.4
657.51	507.8
657.908	518.4
658.327	520.2
658.746	505.4
659.144	506.6
659.563	514.8
659.982	513
660.38	505
660.8	517.2
661.219	519.2
661.617	515.2
662.037	505.4
662.457	519.4
662.855	504.2
663.275	542
663.695	512
664.094	512.2
664.514	514.6
664.934	501.8
665.333	515.6
665.753	500.8
666.152	511.2
666.572	505.4
666.993	523
667.392	505
667.812	510.2
668.212	510.8
668.632	519.4
669.053	498.4
669.453	507.6
669.874	515.6
670.273	508
670.694	508.4
671.116	526.6
671.515	517.2
671.937	513
672.337	512.8
672.758	507.2
673.158	507.2
673.58	496.8
673.98	515.4
674.402	517
674.824	509.2
675.224	503.4
675.646	505.8
676.047	506
676.469	512.4
676.869	518.8
677.292	507.2
677.693	500
678.115	497.8
678.516	508
678.939	514
679.34	502.8
679.762	512.6
680.164	510.6
680.586	496
680.988	509.8
681.411	522
681.812	504
682.236	502.8
682.637	507.6
683.061	498.4
683.462	502.8
683.864	503.4
684.288	507.6
684.69	499.6
685.114	510.2
685.516	514
685.94	503.4
686.342	515.8
686.766	501.4
687.168	511.8
687.571	518.4
687.995	508.2
688.398	498.2
688.822	497
689.225	520.8
689.628	517.6
690.052	512.4
690.456	514.4
690.88	509.8
691.284	495.2
691.687	514.4
692.112	500.6
692.515	503
692.919	503.8
693.344	508.4
693.747	510.6
694.173	500
694.577	516.8
694.98	510.8
695.406	503.4
695.81	505.8
696.214	512.8
696.64	510.8
697.044	510.4
697.448	511.6
697.874	500.4
698.279	496.8
698.684	499
699.11	494
699.514	503.6
699.919	503
700.324	504.2
700.75	502.4
701.156	505.6
701.561	520.4
701.987	508.2
702.393	506.8
702.798	517.6
703.203	508.4
703.63	504.6
704.036	501.4
704.442	499
704.847	495.6
705.274	499.2
705.68	504.6
706.086	505.4
706.492	486.8
706.92	503.4
707.326	514.2
707.732	503.6
708.139	494
708.545	503
708.973	504.8
709.38	503.4
709.786	493.8
710.193	514.8
710.6	509.6
711.028	510.8
711.435	506.8
711.842	504.8
712.249	496
712.656	500
713.064	516.2
713.492	500.2
713.9	507
714.307	505
714.715	500.2
715.123	507.8
715.53	511.2
715.938	514.4
716.367	503.4
716.775	508
717.184	493.2
717.592	506.4
718	504.6
718.408	533.6
718.816	541
719.225	505
719.633	511.2
720.042	495.8
720.472	509.2
720.881	528.8
721.29	500.2
721.699	498
722.108	508.4
722.517	501.6
722.926	502.2
723.335	515.8
723.744	498.2
724.154	505.6
724.563	506
724.973	506.2
725.382	505.8
725.792	505.4
726.202	497.8
726.612	514.4
727.022	495.4
727.432	496.8
779.813	504
780.223	539.8
780.634	500.6
781.044	491
781.454	494.4
781.865	509.6
782.276	494.2
782.686	515
783.097	497.4
783.508	503.2
783.919	504.2
784.33	514.4
784.741	508.2
785.152	497.2
785.563	489.4
785.974	491.2
786.386	509.8
786.776	500
787.188	506.8
787.599	500
788.011	506.2
788.423	514.4
788.835	492.4
789.247	491.6
789.659	492
790.071	497.4
790.483	539.2
790.874	501.4
791.286	510.4
791.699	506
792.111	500.6
792.524	500
792.937	493.2
793.349	487
793.741	494.8
794.154	495.4
794.567	511.4
794.98	496.6
795.393	482.2
795.785	509.2
796.198	501.4
796.612	497.6
797.026	495.4
797.439	491.2
797.831	494.2
798.245	488.4
798.659	493.2
799.073	489.8
799.487	498.8
799.88	499.6
800.294	499.6
800.708	504.2
801.123	493.4
801.516	514.8
801.93	487.4
802.345	488.2
802.76	496.2
803.153	513.8
803.568	506.6
803.983	508.6
804.377	500.8
804.792	491.4
805.207	491.2
805.601	492.6
806.016	520.8
806.432	493
806.826	530
807.242	508
807.658	491.2
808.052	495
808.468	496.6
808.884	495.6
809.279	500.8
809.695	503.4
810.111	510
810.506	501.6
810.922	516.6
811.339	499.6
811.734	497.2
812.151	504.2
812.546	493.8
812.963	495.4
813.38	492.4
813.776	501.2
814.193	511.6
814.589	496.8
815.006	495.2
815.402	496.2
815.82	487.2
816.237	503.6
816.633	509.6
817.051	493.6
817.448	501.4
817.866	493.4
818.262	512.2
818.68	492.4
819.077	499
819.495	495.4
819.892	535.8
820.311	491.4
820.708	506.6
821.127	503.4
821.524	505.2
821.943	502.6
822.34	512.6
822.759	499
823.157	499.8
823.576	517.8
823.974	501.4
824.393	576
824.791	491.6
825.189	500.4
825.609	492.8
826.007	498.8
826.427	504.2
826.826	504.4
827.246	507.6
827.644	484.2
828.043	508
828.463	500.8
828.862	503.2
829.261	503.4
829.682	492.6
830.081	500.8
830.502	501
830.901	498
831.301	494
831.722	497.8
832.121	495.8
832.521	485.6
832.943	504.6
833.342	496.8
833.742	492.2
834.164	498
834.564	497.2
834.965	495
835.386	494.6
835.787	498
836.188	498.6
836.588	496.8
837.01	499
837.411	498
837.812	496.4
838.213	496.6
838.636	495.6
839.037	547.2
839.438	499.4
839.84	499
840.263	501.8
840.664	499.6
841.066	499.4
841.468	499.6
841.891	493.6
842.293	497.6
842.695	501.8
843.098	507.6
843.5	497.4
843.902	504
844.326	501.6
844.729	505.2
845.131	514
845.534	502.8
845.937	508.6
846.34	516
846.764	491.2
847.167	501.2
847.571	493.8
847.974	497.2
848.377	504
848.781	543
849.184	510.4
849.588	498.6
849.992	488.4
850.396	500
850.821	514.4
851.225	499
851.63	487.2
852.034	503.2
852.438	497.2
852.843	524.6
853.247	489.8
