#lambda/nm	C1
208.295	466.8
208.67	439.4
209.045	396.4
209.419	404
209.794	549.8
210.169	525.6
210.544	628.4
210.919	540.2
211.295	526.8
211.67	548.8
212.045	531.8
212.421	534.6
212.796	558.6
213.172	537.8
213.547	538.6
213.923	530.4
214.299	534.8
214.675	539
215.051	540.8
215.427	540
215.803	554
216.179	545.8
216.555	531
216.932	544.6
217.308	543.8
217.684	537
218.061	549.8
218.438	551.6
218.814	536.8
219.191	547.2
219.568	536
219.945	542.6
220.322	541.4
220.699	538.4
221.076	540.4
221.453	545.8
221.83	529.4
222.208	535.8
222.585	534.4
222.962	540.4
223.34	542.8
223.717	533.6
224.095	533.8
224.473	540.2
224.851	528.4
225.229	532.6
225.607	545.6
225.985	531.6
226.363	540.2
226.741	538.8
227.119	534
227.497	552.4
227.876	527.2
228.254	541
228.633	548.6
229.011	539.8
229.39	547.2
229.769	537.8
230.148	551.4
230.527	558.6
230.905	543.6
231.284	541
231.664	540.6
232.043	545
232.422	542.6
232.801	536.8
233.181	550
233.56	536.8
233.94	537.8
234.319	534.2
234.699	535.4
235.079	571.6
235.458	570.2
235.838	552.4
236.218	532.4
236.598	527.2
236.978	535.8
237.358	527.6
237.738	532.8
238.119	534.2
238.499	529
238.88	535.6
239.26	539.8
239.641	533.4
240.021	526.6
240.402	542.6
240.783	535.2
241.163	534.2
241.544	539.2
241.925	541.8
242.306	550.6
242.687	535
243.069	538.4
243.45	536.4
243.831	532.8
244.212	536.8
244.594	564.8
244.975	537.2
245.357	549
245.739	533.4
246.12	536.2
246.502	551
246.884	535
247.266	539.4
247.648	530.2
248.03	557.8
248.412	540.2
248.794	535
249.176	537.4
249.559	550.8
249.941	527.2
250.323	530
250.706	530.4
251.089	537.2
251.471	538.8
251.854	543.6
252.237	533.2
252.62	541.4
253.002	539.2
253.385	532.8
253.769	551.2
254.152	535.6
254.535	541.4
254.918	531.8
255.301	535.6
255.685	529.6
256.068	530.8
256.452	550.2
256.835	546.2
257.219	542.8
257.603	544.8
257.986	527.8
258.37	546.6
258.754	528.8
259.138	547.8
259.522	544.4
259.906	532.4
260.29	544
260.675	529.6
261.059	532.6
261.443	528.8
261.828	534.6
262.212	540.4
262.597	518.4
262.981	527
263.366	543
263.751	534.6
264.136	538
264.521	539.6
264.906	520.6
265.291	547.2
265.676	527.4
266.061	537.6
266.446	537.4
266.831	544.6
267.217	557.2
267.602	545.4
267.987	531.8
268.373	532.4
268.759	537.2
269.144	537.4
269.53	536.2
269.916	533.2
270.302	535.2
270.688	540.8
271.074	534.6
271.46	547.4
271.846	568.8
272.232	542
272.618	532.4
273.004	536.6
273.391	553.8
273.777	551
274.164	540.8
274.55	547.4
274.937	538
275.324	533.4
275.71	542.4
276.097	547.4
276.484	530.6
276.871	540.6
277.258	538
277.645	528.2
278.032	541.2
278.419	534.4
278.807	537.8
279.194	526
279.581	532.2
279.969	537.6
280.356	540
280.744	544.4
281.131	564.8
281.519	550.4
281.907	532.4
282.295	542
282.682	548.6
283.07	541.8
283.458	547.2
283.846	547.6
284.235	545.6
284.623	545.2
285.011	531.2
285.399	543
285.788	534.6
286.176	533.8
286.565	546.2
286.953	534.6
287.342	541.6
287.731	529.6
288.119	530.2
288.508	534.4
288.897	543.2
289.286	529.8
289.675	545
290.064	540.6
290.453	534.2
290.821	537.6
291.21	545.8
291.599	532.8
291.989	537
292.378	540
292.768	552.6
293.157	535.4
293.547	541.6
293.936	527
294.326	537.4
294.716	539
295.106	530.2
295.496	538.2
295.886	542.2
296.276	530.2
296.666	525.4
297.056	529.6
297.446	519.4
297.836	549.8
298.227	534.2
298.617	527.6
299.008	541.8
299.398	534.4
299.789	527
300.179	539
300.57	549.6
300.961	535.6
301.352	529.6
301.742	546.8
302.133	539.6
302.524	535.6
302.915	538
303.307	530.8
303.698	544.8
304.089	546.4
304.48	539
304.872	537.4
305.263	531.6
305.655	526.6
306.046	536
306.438	543.6
306.829	538.8
307.221	545
307.613	538
308.005	553
308.397	546.8
308.789	555.2
309.181	558.4
309.573	553.4
309.965	548.4
310.357	534.2
310.749	547.4
311.142	522.8
311.534	530.6
311.926	542.6
312.319	544.4
312.711	530.2
313.104	547.2
313.497	541.8
313.889	568.4
314.282	548.6
314.675	550.6
315.068	537.6
315.461	551
315.854	559.4
316.247	549.4
316.64	531.8
317.033	541.4
317.405	534.4
317.798	532.6
318.192	543.2
318.585	532
318.979	537.8
319.372	529.2
319.766	544.4
320.16	539.6
320.553	548.6
320.947	558.2
321.341	532.4
321.735	540
322.129	530.6
322.523	556.6
322.917	536.6
323.311	548
323.705	541
324.099	553
324.494	549
324.888	540
325.282	530.8
325.677	550.4
326.071	551.6
326.466	541.2
326.861	543.4
327.255	543.4
327.65	549
328.045	556.4
328.44	536.4
328.835	541.6
329.23	528.4
329.625	563.2
330.02	538.4
330.415	554.2
330.81	544.6
331.206	544.6
331.601	529.8
331.996	537
332.37	551.2
332.766	527
333.161	552.4
333.557	524.6
333.953	542.8
334.348	759.8
334.744	535.4
335.14	529.2
335.536	540.2
335.932	546.2
336.328	536.6
336.724	550
337.12	536.2
337.516	535.6
337.913	535.6
338.309	549
338.705	535
339.102	545.4
339.498	533.4
339.895	540
340.291	533
340.688	548.6
341.085	529.6
341.481	532
341.878	535.2
342.275	558.8
342.672	530.6
343.069	527
343.466	521.4
343.842	536.8
344.239	533.8
344.636	539.2
345.033	530.4
345.431	531
345.828	537.4
346.225	530.2
346.623	553.8
347.02	536
347.418	547.6
347.816	545.8
348.213	527.8
348.611	538.2
349.009	532.6
349.407	548.6
349.805	535.2
350.203	523.8
350.601	552.4
350.999	528.4
351.397	571.4
351.795	533.6
352.193	533.2
352.57	533.2
352.969	546
353.367	524.4
353.766	531.8
354.164	527.4
354.563	541.4
354.961	536
355.36	531
355.759	529
356.158	526.2
356.557	523.8
356.956	523.2
357.355	521.8
357.754	531
358.153	536
358.552	553.2
358.951	529.4
359.35	540.4
359.75	531.6
360.149	517.4
360.527	515.4
360.926	518
361.326	526.8
361.726	530
362.125	524.8
362.525	542
362.925	525
363.325	529.4
363.724	531.8
364.124	531.2
364.524	526
364.924	526
365.324	542.2
365.725	521.4
366.125	532.8
366.525	537
366.904	526.8
367.304	517
367.705	543.4
368.105	541.2
368.506	533.8
368.906	529.8
369.307	531.2
369.708	540
370.108	523.2
370.509	542.8
370.91	518.8
371.311	532.2
371.712	534.6
372.113	533.6
372.514	518
372.894	531
373.295	526.8
373.696	538.8
374.097	544.4
374.499	557.4
374.9	536.8
375.301	521.6
375.703	534.2
376.105	532.6
376.506	530.2
376.908	533.8
377.309	533.8
377.711	524.6
378.113	531.8
378.493	535
378.895	532.8
379.297	540.6
379.699	519.8
380.102	535.6
380.504	534.6
380.906	524.2
381.308	549.8
381.71	535
382.113	538.2
382.515	528.2
382.918	538
383.299	531.4
383.701	541.6
384.104	531.8
384.507	509.8
384.909	523.4
385.312	520.6
385.715	517.2
386.118	523.8
386.521	514.4
386.924	539
387.327	516.4
387.709	519.4
388.112	503.4
388.515	528
388.918	522
389.322	522.2
389.725	519.4
390.129	544
390.532	527.4
390.936	519.6
391.339	517.6
391.743	532
392.125	516.2
392.529	535.2
392.933	537.4
393.337	531.6
393.74	520.4
394.144	522
394.548	522.2
394.953	526.6
395.357	533.8
395.761	522.2
396.144	523.8
396.548	520.2
396.952	528
397.357	528
397.761	522.8
398.166	523
398.57	524.6
398.975	524.6
399.379	521.8
399.763	569.2
400.168	525.2
400.572	528
400.977	525
401.382	543.2
401.787	536.6
402.192	542.4
402.597	544.8
403.002	513.2
403.386	534.2
403.791	539
404.197	519.6
404.602	527.2
405.007	522.8
405.413	520.8
405.818	528
406.224	517
406.608	525.4
407.014	527.4
407.42	546
407.825	523.6
408.231	531.6
408.637	535
409.043	545.6
409.449	525.8
409.834	522.6
410.24	533
410.646	541.6
411.052	540.2
411.458	533.2
411.865	537.4
412.271	539.6
412.677	536.6
413.062	532.8
413.469	513.2
413.875	551.6
414.282	542.4
414.689	529.8
415.095	531.2
415.502	526.2
415.888	528.6
416.294	517.6
416.701	566
417.108	532.2
417.515	533.4
417.923	529.6
418.33	554.6
418.715	538.8
419.123	530.6
419.53	533.2
419.937	526.6
420.345	544
420.752	528
421.16	543
421.546	529.8
421.953	532.8
422.361	525.4
422.769	534.2
423.177	523.4
423.585	546.2
423.992	544.4
424.379	539.8
424.787	536
425.195	543.2
425.603	541.6
426.011	539
426.419	541.2
426.806	539.8
427.214	541.8
427.623	545.6
428.031	559.4
428.44	543.2
428.848	551
429.235	560.8
429.644	562.8
430.053	566
430.461	582.8
430.87	599.8
431.279	599.4
431.666	592
432.075	613.8
432.484	623.6
432.893	644.2
433.302	665.2
433.711	701.2
434.099	686.4
434.508	694.2
434.918	705
435.327	738.2
435.737	749.4
436.125	781.2
436.534	797.8
436.944	820
437.353	835
437.763	866.6
438.173	859.8
438.561	903.2
438.971	891.6
439.381	930.2
439.791	944.4
440.201	937.6
440.589	973.8
440.999	1001.8
441.409	1011
441.819	1017.6
442.23	1045.6
442.619	1071
443.029	1065.6
443.439	1082.8
443.85	1080
444.26	1102.4
444.649	1100
445.06	1111.8
445.471	1101.8
445.881	1127
446.292	1153
446.682	1160
447.092	1144.4
447.503	1194.8
447.914	1161.4
448.325	1178
448.715	1165.4
449.126	1170.8
449.537	1178
449.948	1184
450.338	1171.2
450.75	1190.4
451.161	1196.6
451.572	1205.4
451.984	1202.2
452.374	1190.4
452.786	1215
453.197	1229.6
453.609	1209
453.999	1209.4
454.411	1223.6
454.823	1222.6
455.235	1213.2
455.647	1203
456.037	1240.2
456.449	1219
456.862	1230.4
457.274	1230.2
457.665	1233.8
458.077	1237.8
458.489	1268.4
458.902	1248.6
459.293	1252.4
459.705	1237.6
460.118	1247.8
460.53	1244.2
460.921	1247.6
461.334	1257.8
461.747	1249.2
462.16	1254.8
462.551	1255.4
462.964	1255.2
463.377	1235
463.79	1237.6
464.182	1257
464.595	1231.4
465.008	1232.6
465.421	1253.6
465.813	1243.6
466.226	1253.4
466.64	1249
467.053	1293.6
467.445	1248.6
467.859	1266.8
468.272	1257.2
468.686	1261.4
469.078	1255
469.492	1252
469.906	1246.4
470.298	1256.6
470.712	1244.6
471.126	1272
471.54	1250.4
471.933	1235.8
472.347	1241.8
472.761	1230
473.175	1225.6
473.568	1230.6
473.982	1217.2
474.397	1228.6
474.79	1237.8
475.204	1243.8
475.619	1210.8
476.033	1213.2
476.426	1202.8
476.841	1191
477.256	1213.2
477.649	1190.8
478.064	1172.2
478.479	1186.8
478.872	1180.2
479.287	1180.2
479.702	1180.4
480.118	1176.4
480.511	1161.6
480.927	1167.4
481.342	1173.4
481.736	1150.6
482.151	1165
482.566	1160.8
482.96	1157
483.376	1150.6
483.792	1132
484.186	1147.8
484.602	1132.4
485.017	1141.4
485.412	1128.6
485.827	1126.4
486.243	1119.4
486.638	1139.6
487.054	1127.8
487.47	1121.4
487.865	1106.6
488.281	1109.8
488.697	1098.2
489.092	1095.4
489.508	1067.6
489.925	1089.6
490.32	1073.8
490.736	1085.2
491.153	1077.8
491.548	1073.2
491.964	1068.8
492.381	1059
492.776	1062.6
493.193	1052.8
493.61	1049.6
494.006	1035.4
494.422	1038.8
494.84	1026.6
495.235	1033.6
495.652	1032.6
496.069	1024.2
496.465	1011.4
496.883	1008.4
497.3	1033.8
497.696	999.8
498.113	1004
498.509	975.4
498.927	974.8
499.344	978.4
499.741	975.4
500.158	980.2
500.576	994.6
500.973	969
501.39	946.6
501.787	953.8
502.205	967
502.623	945.6
503.02	940
503.438	942
503.856	931.4
504.253	934.4
504.671	929.8
505.068	927.2
505.486	922.4
505.905	925.8
506.302	911.8
506.72	923.6
507.118	911.6
507.536	907.2
507.955	898.8
508.352	906.6
508.771	905
509.169	886.2
509.587	871.6
510.006	871.8
510.404	869.6
510.823	866.6
511.221	867.8
511.64	869
512.038	882.2
512.457	864.6
512.877	842.6
513.275	846.8
513.694	846.8
514.092	839
514.512	838.6
514.91	851.8
515.33	835.6
515.749	836
516.148	824
516.568	827.4
516.966	826.4
517.386	804.2
517.785	820.2
518.205	810
518.603	799.8
519.024	797.4
519.444	808.4
519.843	805.8
520.263	801.4
520.662	801.4
521.082	795.2
521.481	777.4
521.902	783.8
522.301	792
522.722	784
523.121	778.8
523.542	772
523.963	774.6
524.362	753.2
524.783	768.8
525.183	758
525.604	755.2
526.003	751.8
526.425	746
526.824	751.2
527.246	751.2
527.646	750
528.067	739.4
528.467	740.4
528.888	733.8
529.289	729
529.71	739.8
530.11	725
530.532	723.4
530.932	716
531.354	706.6
531.755	745.2
532.176	717.4
532.577	721.2
532.999	707.6
533.4	708
533.822	715.8
534.223	707.6
534.645	704.2
535.046	699.2
535.468	701.6
535.869	716.4
536.292	689
536.693	716.2
537.115	700.6
537.516	683.2
537.939	684.4
538.34	705.2
538.742	707.4
539.165	687.8
539.566	680.6
539.989	676.4
540.391	674.4
540.814	687.4
541.216	689.2
541.639	686.6
542.041	683.8
542.464	662.2
542.866	678.6
543.268	667.2
543.691	670
544.093	675.2
544.517	678
544.919	657.6
545.343	670.8
545.745	655.2
546.147	658.4
546.571	653
546.974	641.6
547.398	651.4
547.8	649.8
548.224	642.2
548.627	641
549.03	646.8
549.454	629.4
549.857	633.2
550.281	640.4
550.684	629.2
551.087	643.4
551.512	635.2
551.915	640.8
552.34	627.6
552.743	627.8
553.146	630
553.571	624.4
553.975	647.2
554.399	620.4
554.803	655.2
555.207	613
555.632	610
556.036	615.8
556.461	610.6
556.865	613.8
557.268	613.6
557.694	616.2
558.098	617.8
558.502	616.4
558.927	602.4
559.332	602
559.736	606
560.162	613.6
560.566	598.2
560.992	607.2
561.396	600
561.801	600
562.227	610.4
562.631	587.2
563.036	599.4
563.462	593.2
563.867	598.4
564.272	588.6
564.698	604.4
565.103	594.4
565.508	604
565.935	591
566.34	591.4
566.745	598.8
567.172	590.6
567.577	605.4
567.982	602.4
568.409	586.6
568.815	578.2
569.22	591
569.626	583.8
570.053	576
570.459	588.2
570.865	578.4
571.292	587.8
571.698	581.6
572.104	566.6
572.531	580
572.937	581.8
573.343	581.8
573.75	572
574.177	581.2
574.583	581.2
574.99	565.2
575.396	573
575.824	572
576.231	574
576.637	570.4
577.065	586.6
577.472	569
577.879	563.6
578.286	578.4
578.714	555
579.121	560.6
579.528	568.6
579.935	565.6
580.364	563.8
580.771	546
581.178	555.8
581.585	557.4
582.014	558.2
582.421	555.8
582.829	551.8
583.236	555.8
583.644	551.6
584.073	557.6
584.481	547.8
584.889	542.2
585.296	554.8
585.726	551
586.134	547.8
586.542	547.6
586.95	560
587.358	537.8
587.787	553.2
588.196	541.6
588.604	548
589.012	544
589.421	541.4
589.851	546.4
590.259	550.4
590.668	543.2
591.076	570.2
591.485	543.8
591.894	544.4
592.324	554.2
592.733	548.8
593.142	538.2
593.551	538.2
593.96	549.8
594.369	535.6
594.8	537
595.209	546.6
595.618	529.4
596.028	537.6
596.437	537.8
596.847	541
597.256	540.8
597.687	546
598.097	542.8
598.507	529.8
598.917	541.8
599.327	541.4
599.736	540
600.146	546.2
600.556	546.6
600.988	552
601.398	536.8
601.808	542.2
602.219	533.2
602.629	541.8
603.039	544.6
603.45	546.6
603.86	542.8
604.271	545.2
604.703	537.8
605.114	533.4
605.525	524.8
605.935	541.2
606.346	555.6
606.757	545.8
607.168	540.2
607.579	532.4
607.99	537.8
608.402	536.2
608.813	540.8
609.224	528.6
609.636	532
610.047	527.2
610.48	537.8
610.892	534.8
611.303	543.2
611.715	537.8
612.127	526.8
612.539	536.2
612.95	536.2
613.362	530
613.774	529.8
614.186	533.2
614.599	533.4
615.011	544
615.423	533.2
615.835	536.2
616.248	532.4
616.66	540.4
617.073	527
617.485	540
617.898	544.6
618.311	535.6
618.723	540.4
619.136	561.2
619.549	557.6
619.962	557.2
620.375	534.2
620.788	539.8
621.201	538.8
621.614	538.8
622.028	541
622.441	537.2
622.854	548.2
623.268	527.6
623.681	535
624.095	540
624.509	544
624.922	544.2
625.336	529.2
625.728	531.4
626.142	535.6
626.556	556
626.97	545
627.384	537.2
627.799	529.2
628.213	544.8
628.627	533.4
629.041	527.4
629.456	539.8
629.87	532.6
630.285	537.6
630.699	532
631.093	532.6
631.507	535.4
631.922	542.4
632.337	541.4
632.752	521
633.167	538.2
633.582	528.4
633.997	534.4
634.412	528
634.806	539
635.221	525.8
635.637	536.4
636.052	521.6
636.468	531.4
636.883	536
637.299	525.6
637.715	521
638.109	532.6
638.525	514.8
638.941	529
639.357	532.6
639.773	538.4
640.189	517
640.584	532
641	524.6
641.416	516.4
641.832	520.4
642.249	520.6
642.665	531.6
643.06	532.2
643.477	544
643.894	519.6
644.31	516.4
644.727	517.8
645.123	522.8
645.54	518.4
645.957	528.2
646.374	535.4
646.77	520
647.187	549
647.604	527.4
648.021	509.8
648.439	514
648.835	524.8
649.252	520
649.67	520
650.088	523.8
650.484	517.4
650.902	532
651.32	523.8
651.738	512.6
652.134	528.8
652.552	532.8
652.971	523.2
653.389	516.6
653.786	527.6
654.204	522.8
654.622	511.6
655.019	523
655.438	524
655.857	515.8
656.275	517.6
656.673	516.2
657.091	527.4
657.51	514.6
657.908	526.4
658.327	536
658.746	509.4
659.144	520.2
659.563	530
659.982	513
660.38	514.8
660.8	521.8
661.219	520.2
661.617	517
662.037	521.2
662.457	527.8
662.855	505.8
663.275	534.6
663.695	515.2
664.094	514
664.514	515.2
664.934	508
665.333	522.6
665.753	516.2
666.152	502
666.572	508.8
666.993	524.6
667.392	510
667.812	511.8
668.212	519.4
668.632	525.2
669.053	508.2
669.453	517.2
669.874	521.6
670.273	511.8
670.694	509
671.116	522.4
671.515	521.2
671.937	510.8
672.337	507.8
672.758	507.8
673.158	526.2
673.58	513
673.98	514.6
674.402	527.6
674.824	513.6
675.224	503.4
675.646	498
676.047	506
676.469	508
676.869	513.4
677.292	504.8
677.693	506
678.115	510.2
678.516	517.8
678.939	510.8
679.34	510.8
679.762	515
680.164	513.4
680.586	501.6
680.988	507.6
681.411	529.6
681.812	510.2
682.236	490.6
682.637	493.6
683.061	495.4
683.462	507.8
683.864	507.6
684.288	515.4
684.69	494.4
685.114	513
685.516	514.4
685.94	496.6
686.342	517.6
686.766	497.4
687.168	500
687.571	522
687.995	508.2
688.398	507.8
688.822	505
689.225	522.8
689.628	535.4
690.052	511.6
690.456	513.4
690.88	508.8
691.284	502.8
691.687	519.2
692.112	496
692.515	500.8
692.919	511.8
693.344	514.4
693.747	517.6
694.173	496.6
694.577	519.8
694.98	505
695.406	504
695.81	509.6
696.214	517.8
696.64	512.2
697.044	510.2
697.448	513.8
697.874	514.2
698.279	514.2
698.684	501.4
699.11	507.4
699.514	507.8
699.919	500.6
700.324	498
700.75	511.2
701.156	510.8
701.561	516.8
701.987	509
702.393	519
702.798	518.4
703.203	515.6
703.63	502.4
704.036	510.6
704.442	508.2
704.847	500.8
705.274	506.4
705.68	508.2
706.086	515.8
706.492	501.8
706.92	507.2
707.326	520.8
707.732	499.6
708.139	506
708.545	500.2
708.973	502.4
709.38	504.4
709.786	496.2
710.193	519.6
710.6	508.4
711.028	498.6
711.435	504.2
711.842	506.4
712.249	507.4
712.656	510.4
713.064	513.6
713.492	500.2
713.9	505.8
714.307	503.2
714.715	504.6
715.123	509.8
715.53	503.6
715.938	517
716.367	515.8
716.775	505
717.184	501.6
717.592	503.6
718	515.4
718.408	540.4
718.816	544.4
719.225	504.6
719.633	504.8
720.042	495.4
720.472	511.2
720.881	515.6
721.29	512.6
721.699	501.6
722.108	508.6
722.517	502.8
722.926	500
723.335	513.6
723.744	506.8
724.154	509.2
724.563	500.8
724.973	507.2
725.382	505.4
725.792	504.6
726.202	502.6
726.612	516.2
727.022	508.2
727.432	505.4
779.813	501.6
780.223	544.4
780.634	498.8
781.044	498.8
781.454	500.8
781.865	511.8
782.276	502.6
782.686	511.2
783.097	503.2
783.508	511.6
783.919	506
784.33	513.6
784.741	516
785.152	503.6
785.563	497.2
785.974	502.4
786.386	508.6
786.776	502.4
787.188	511.4
787.599	499.4
788.011	504.8
788.423	510.8
788.835	506.8
789.247	493.2
789.659	500.6
790.071	503
790.483	535.4
790.874	501.2
791.286	509.4
791.699	503.8
792.111	501.2
792.524	510
792.937	502.2
793.349	501.8
793.741	491.6
794.154	504
794.567	518.8
794.98	502.4
795.393	495
795.785	511.8
796.198	505.6
796.612	496
797.026	502
797.439	492.2
797.831	499
798.245	497.2
798.659	496.4
799.073	497.2
799.487	496.6
799.88	501.6
800.294	494.2
800.708	502.2
801.123	505.2
801.516	519.2
801.93	495
802.345	490.4
802.76	501.8
803.153	511.4
803.568	514.2
803.983	509.6
804.377	507.8
804.792	494.4
805.207	484
805.601	503
806.016	528.6
806.432	499
806.826	527
807.242	507.4
807.658	506
808.052	502.4
808.468	506.2
808.884	499.4
809.279	492.8
809.695	510.2
810.111	516.6
810.506	503.8
810.922	522.4
811.339	503.8
811.734	509.8
812.151	503.6
812.546	498.6
812.963	499.8
813.38	502
813.776	499.2
814.193	519
814.589	498.2
815.006	502.8
815.402	496.2
815.82	502.6
816.237	497.4
816.633	508.4
817.051	499.2
817.448	505.6
817.866	500.4
818.262	519.6
818.68	492.6
819.077	507.8
819.495	494.4
819.892	538.8
820.311	494.6
820.708	497
821.127	498.2
821.524	510.4
821.943	507
822.34	518.2
822.759	509.6
823.157	497.6
823.576	509.4
823.974	509
824.393	553.6
824.791	496
825.189	498.4
825.609	500.4
826.007	499.2
826.427	488.8
826.826	495.6
827.246	491.4
827.644	488.8
828.043	500.8
828.463	494
828.862	504.6
829.261	499.4
829.682	485.4
830.081	500
830.502	485.2
830.901	498.8
831.301	486.6
831.722	494.6
832.121	501.2
832.521	491.8
832.943	496.8
833.342	500.4
833.742	492.8
834.164	499.6
834.564	487.2
834.965	496.2
835.386	496.8
835.787	501.4
836.188	498.8
836.588	499.4
837.01	492.4
837.411	495
837.812	501
838.213	506.6
838.636	497.8
839.037	554
839.438	500.2
839.84	500.2
840.263	504.6
840.664	500.6
841.066	500.4
841.468	500.8
841.891	499.6
842.293	514.6
842.695	509.8
843.098	509.2
843.5	500.2
843.902	503.6
844.326	503.8
844.729	505.8
845.131	507
845.534	504.8
845.937	514.2
846.34	516.6
846.764	496.4
847.167	505
847.571	501.4
847.974	500
848.377	500.8
848.781	541.2
849.184	509.4
849.588	497.4
849.992	497.6
850.396	501.4
850.821	513.6
851.225	509.4
851.63	503
