#lambda/nm	C1
208.295	469
208.67	434.2
209.045	397.6
209.419	404
209.794	538.6
210.169	525.6
210.544	626.6
210.919	542.6
211.295	528.6
211.67	533
212.045	540.4
212.421	537
212.796	572
213.172	533.2
213.547	533
213.923	530.4
214.299	534.6
214.675	547.6
215.051	541
215.427	555.4
215.803	547
216.179	544.4
216.555	529.6
216.932	542.8
217.308	546.4
217.684	532.6
218.061	545.8
218.438	546.6
218.814	531.8
219.191	550.6
219.568	527.4
219.945	542.8
220.322	546.2
220.699	546
221.076	544.6
221.453	546.6
221.83	534
222.208	533.8
222.585	531.2
222.962	537
223.34	544.6
223.717	530.8
224.095	533.4
224.473	541.4
224.851	525.8
225.229	533.2
225.607	551
225.985	534
226.363	537.4
226.741	531.2
227.119	532.2
227.497	549.8
227.876	532.2
228.254	544
228.633	539.8
229.011	536.8
229.39	548.6
229.769	536.2
230.148	545.4
230.527	552.8
230.905	538.4
231.284	548.2
231.664	536.2
232.043	542
232.422	546.8
232.801	537.8
233.181	542.4
233.56	537.6
233.94	541.8
234.319	524.4
234.699	532
235.079	571.6
235.458	571.6
235.838	549
236.218	538.8
236.598	521.2
236.978	530.6
237.358	539.2
237.738	532
238.119	542
238.499	535.8
238.88	541.4
239.26	543.4
239.641	530.8
240.021	533.6
240.402	538.2
240.783	538.2
241.163	535.8
241.544	544
241.925	536.6
242.306	555
242.687	536
243.069	537.8
243.45	544.4
243.831	535
244.212	534
244.594	568.6
244.975	546.6
245.357	542.2
245.739	532.2
246.12	534.2
246.502	544.2
246.884	530.8
247.266	541.8
247.648	538.2
248.03	551.2
248.412	539.8
248.794	539.8
249.176	539.4
249.559	540.2
249.941	531
250.323	535.4
250.706	531.6
251.089	539.6
251.471	541.6
251.854	534.2
252.237	527.8
252.62	545.4
253.002	539
253.385	533.6
253.769	542.2
254.152	537.2
254.535	549.6
254.918	531.2
255.301	536.8
255.685	529.6
256.068	533.4
256.452	564
256.835	549.2
257.219	544.4
257.603	556.6
257.986	531.8
258.37	544
258.754	529
259.138	540
259.522	545
259.906	536.8
260.29	541.8
260.675	528.4
261.059	534.4
261.443	523.6
261.828	542.6
262.212	549.4
262.597	523.8
262.981	529
263.366	544.8
263.751	537
264.136	528.6
264.521	540.8
264.906	536
265.291	550.4
265.676	533
266.061	541.6
266.446	553.4
266.831	541.2
267.217	550
267.602	544.6
267.987	537.6
268.373	542.2
268.759	543.2
269.144	535
269.53	536.8
269.916	533.6
270.302	532.4
270.688	538.2
271.074	533.4
271.46	540.6
271.846	559.2
272.232	544.4
272.618	532.2
273.004	540
273.391	544.8
273.777	549.4
274.164	537.6
274.55	547.2
274.937	532.4
275.324	532
275.71	539.6
276.097	547.4
276.484	524
276.871	537.8
277.258	533.4
277.645	533.4
278.032	545.8
278.419	540.6
278.807	542.6
279.194	539
279.581	536.8
279.969	534.8
280.356	542.8
280.744	545.4
281.131	556.2
281.519	553.2
281.907	526.8
282.295	530.4
282.682	548.6
283.07	546.8
283.458	542.6
283.846	543.8
284.235	544.4
284.623	543.2
285.011	532.2
285.399	536.2
285.788	535.4
286.176	530.8
286.565	549
286.953	533.8
287.342	526.4
287.731	534.8
288.119	536.4
288.508	533.8
288.897	535.4
289.286	524.8
289.675	530.8
290.064	543.8
290.453	530.6
290.821	530.4
291.21	550.2
291.599	530.6
291.989	541.4
292.378	540.2
292.768	553.4
293.157	534.2
293.547	545.4
293.936	545.6
294.326	536.2
294.716	539.8
295.106	532.2
295.496	540.6
295.886	542
296.276	536.6
296.666	532.6
297.056	536.6
297.446	525
297.836	550.6
298.227	533.2
298.617	548.2
299.008	540.4
299.398	532
299.789	529.8
300.179	549.6
300.57	545
300.961	531.4
301.352	534.2
301.742	540.8
302.133	534.2
302.524	532
302.915	534.2
303.307	527.8
303.698	540.4
304.089	537.8
304.48	535
304.872	540.4
305.263	538.4
305.655	537
306.046	544.4
306.438	542.6
306.829	527.4
307.221	548.4
307.613	538.6
308.005	545.4
308.397	544.2
308.789	552.4
309.181	561.8
309.573	548.8
309.965	548
310.357	533.6
310.749	547.8
311.142	525.6
311.534	525.4
311.926	540.2
312.319	531
312.711	530.2
313.104	549.4
313.497	541.2
313.889	569.6
314.282	551.2
314.675	556
315.068	539.8
315.461	546
315.854	572.6
316.247	546.6
316.64	532.4
317.033	542.6
317.405	544.6
317.798	536.8
318.192	544
318.585	536.4
318.979	541
319.372	527.4
319.766	540.4
320.16	554.8
320.553	558
320.947	560.4
321.341	535.4
321.735	541
322.129	530.2
322.523	560.4
322.917	532
323.311	541
323.705	542.4
324.099	539.6
324.494	553.4
324.888	545.4
325.282	531
325.677	554.6
326.071	550.2
326.466	542.6
326.861	531.4
327.255	548.2
327.65	552.4
328.045	552
328.44	538.8
328.835	537
329.23	536
329.625	555.8
330.02	530
330.415	554.8
330.81	539.6
331.206	533.8
331.601	530
331.996	550.8
332.37	554.6
332.766	525.6
333.161	555
333.557	527.6
333.953	542
334.348	761.4
334.744	539.8
335.14	540
335.536	536.4
335.932	547.6
336.328	525.8
336.724	547.2
337.12	540.6
337.516	542.2
337.913	540
338.309	548.8
338.705	531.8
339.102	548
339.498	530
339.895	545.6
340.291	537.8
340.688	540.8
341.085	526
341.481	544.8
341.878	536.8
342.275	555
342.672	530.4
343.069	539.4
343.466	525.6
343.842	542
344.239	540.2
344.636	534.8
345.033	531.2
345.431	533.4
345.828	537.6
346.225	531.2
346.623	567
347.02	535.6
347.418	542.2
347.816	550.6
348.213	533.2
348.611	541.4
349.009	536.8
349.407	537.8
349.805	535.6
350.203	525.2
350.601	544.8
350.999	529.6
351.397	562.6
351.795	533.4
352.193	542.2
352.57	540
352.969	541
353.367	528.4
353.766	534.2
354.164	529.2
354.563	539.6
354.961	535.6
355.36	530.2
355.759	535.4
356.158	531
356.557	527.6
356.956	526
357.355	529.2
357.754	540.4
358.153	533
358.552	556.8
358.951	531
359.35	541.8
359.75	527.4
360.149	528
360.527	529.2
360.926	525
361.326	539.2
361.726	535.6
362.125	526.2
362.525	538
362.925	527.2
363.325	527.4
363.724	529.8
364.124	526.6
364.524	526.6
364.924	539.2
365.324	543.6
365.725	522.8
366.125	527.2
366.525	525
366.904	527.8
367.304	516
367.705	540.6
368.105	541.8
368.506	535.8
368.906	529
369.307	528.2
369.708	535
370.108	524.6
370.509	531.8
370.91	527
371.311	538
371.712	528.4
372.113	537.4
372.514	512.2
372.894	529.2
373.295	527.4
373.696	543
374.097	539.8
374.499	551.8
374.9	532.2
375.301	517.8
375.703	538.2
376.105	522.4
376.506	538
376.908	532.8
377.309	529.4
377.711	524.4
378.113	530
378.493	526
378.895	529.4
379.297	537.8
379.699	522.8
380.102	529.6
380.504	528
380.906	533.6
381.308	547.2
381.71	529.6
382.113	537.6
382.515	538.6
382.918	528.8
383.299	535.2
383.701	539.6
384.104	526.4
384.507	515.2
384.909	530.4
385.312	519.2
385.715	516.8
386.118	526
386.521	517.6
386.924	535.4
387.327	526.2
387.709	517.6
388.112	517.4
388.515	529.8
388.918	528.6
389.322	530
389.725	528.8
390.129	541
390.532	535
390.936	527.6
391.339	515.2
391.743	528
392.125	521.4
392.529	541.8
392.933	538.4
393.337	530.6
393.74	525.4
394.144	531
394.548	526.4
394.953	529.8
395.357	529.2
395.761	521.4
396.144	531.2
396.548	526.8
396.952	527
397.357	526
397.761	524.2
398.166	523.2
398.57	525.6
398.975	526.2
399.379	531.2
399.763	568.8
400.168	522.6
400.572	528.6
400.977	515.6
401.382	539.8
401.787	537
402.192	534.4
402.597	536.6
403.002	517.4
403.386	540.2
403.791	544.4
404.197	523.6
404.602	524.2
405.007	536.4
405.413	522.2
405.818	529.8
406.224	520.2
406.608	521.6
407.014	519.6
407.42	538.6
407.825	524
408.231	529.4
408.637	531.2
409.043	544.6
409.449	526.2
409.834	522
410.24	534
410.646	532.4
411.052	536.4
411.458	538
411.865	538.4
412.271	537.8
412.677	535.2
413.062	540.6
413.469	519.6
413.875	551.6
414.282	543.6
414.689	534.8
415.095	534
415.502	531.4
415.888	532.2
416.294	518.6
416.701	560
417.108	521.8
417.515	532.6
417.923	525.4
418.33	534.6
418.715	536.8
419.123	529
419.53	536.8
419.937	528.2
420.345	544
420.752	529.8
421.16	544
421.546	533.6
421.953	533.2
422.361	526.6
422.769	540
423.177	525.2
423.585	555.6
423.992	552.4
424.379	534.4
424.787	542.2
425.195	540.8
425.603	528.4
426.011	542
426.419	548.8
426.806	537.8
427.214	534.2
427.623	548.6
428.031	549
428.44	547.2
428.848	547
429.235	569
429.644	565
430.053	560.8
430.461	583.6
430.87	600.4
431.279	596.2
431.666	595
432.075	619.4
432.484	634.4
432.893	651.2
433.302	678.4
433.711	730
434.099	709.2
434.508	725.6
434.918	741.6
435.327	765.4
435.737	799.6
436.125	815.4
436.534	850.2
436.944	877.4
437.353	891.6
437.763	931.8
438.173	915
438.561	954
438.971	964
439.381	997
439.791	1022
440.201	1019.4
440.589	1054.8
440.999	1082.6
441.409	1106.2
441.819	1117.8
442.23	1136.6
442.619	1150.4
443.029	1167.2
443.439	1175.6
443.85	1192.2
444.26	1210
444.649	1191.2
445.06	1214.6
445.471	1232.8
445.881	1232
446.292	1256.6
446.682	1276.2
447.092	1252.2
447.503	1311.2
447.914	1279
448.325	1291.8
448.715	1286.2
449.126	1290.4
449.537	1292
449.948	1313
450.338	1313.2
450.75	1336.4
451.161	1326.8
451.572	1342.6
451.984	1339.6
452.374	1330
452.786	1339.8
453.197	1373.2
453.609	1356.4
453.999	1343
454.411	1365.2
454.823	1365.4
455.235	1360.2
455.647	1379.2
456.037	1371.6
456.449	1372.6
456.862	1370
457.274	1375.2
457.665	1376.4
458.077	1380.8
458.489	1415.8
458.902	1385.2
459.293	1385
459.705	1365.6
460.118	1372.8
460.53	1387.8
460.921	1392
461.334	1400
461.747	1387.8
462.16	1395.4
462.551	1385.6
462.964	1392
463.377	1359.4
463.79	1381
464.182	1394.2
464.595	1368.2
465.008	1387.2
465.421	1389.6
465.813	1385
466.226	1381.6
466.64	1383.2
467.053	1436.2
467.445	1407.6
467.859	1418.8
468.272	1407.2
468.686	1422.6
469.078	1393.6
469.492	1384.6
469.906	1406.4
470.298	1388.8
470.712	1389
471.126	1403.8
471.54	1363.6
471.933	1392.8
472.347	1371.6
472.761	1378.2
473.175	1363.6
473.568	1359
473.982	1358
474.397	1338.8
474.79	1364.4
475.204	1346.2
475.619	1337.6
476.033	1363.4
476.426	1333.8
476.841	1337.8
477.256	1344.4
477.649	1323
478.064	1324
478.479	1322.4
478.872	1302
479.287	1311.8
479.702	1307
480.118	1316.8
480.511	1298.6
480.927	1307.8
481.342	1293
481.736	1301.2
482.151	1275.6
482.566	1274.2
482.96	1289.4
483.376	1298.6
483.792	1262.4
484.186	1264
484.602	1252.2
485.017	1256.2
485.412	1262.4
485.827	1260.2
486.243	1234
486.638	1251.6
487.054	1243.2
487.47	1237.6
487.865	1223.6
488.281	1222.8
488.697	1205.6
489.092	1207.6
489.508	1198.4
489.925	1214.6
490.32	1166
490.736	1195
491.153	1179.2
491.548	1180.8
491.964	1183.2
492.381	1159.2
492.776	1177.8
493.193	1162.4
493.61	1153.4
494.006	1149.6
494.422	1147.8
494.84	1140.4
495.235	1134.6
495.652	1130.2
496.069	1112
496.465	1104.8
496.883	1108.6
497.3	1117.6
497.696	1097.2
498.113	1099.2
498.509	1076.8
498.927	1080
499.344	1079.8
499.741	1068.8
500.158	1074
500.576	1072.8
500.973	1064.8
501.39	1039.2
501.787	1047.8
502.205	1036.8
502.623	1040.2
503.02	1014.8
503.438	1021.2
503.856	1010
504.253	1014.2
504.671	1018.6
505.068	1008.2
505.486	996
505.905	1020.6
506.302	987.2
506.72	997
507.118	983.6
507.536	956.4
507.955	972.6
508.352	970.4
508.771	971.4
509.169	956.2
509.587	938.2
510.006	969.4
510.404	939.4
510.823	938.4
511.221	938.2
511.64	935.8
512.038	941.2
512.457	931.4
512.877	914.8
513.275	911.4
513.694	908.6
514.092	909.4
514.512	900.4
514.91	902.6
515.33	890
515.749	890
516.148	888.2
516.568	883.4
516.966	878
517.386	869.6
517.785	867.4
518.205	860.4
518.603	854.2
519.024	840.2
519.444	860.4
519.843	863.2
520.263	866.4
520.662	842.4
521.082	841.2
521.481	842
521.902	832.4
522.301	836.4
522.722	830
523.121	816.4
523.542	812.4
523.963	814.2
524.362	814.6
524.783	807.6
525.183	796.2
525.604	807.8
526.003	790.2
526.425	794.2
526.824	789
527.246	797.4
527.646	794.2
528.067	783.2
528.467	777.4
528.888	778.8
529.289	780.8
529.71	768.2
530.11	758.8
530.532	768
530.932	756.6
531.354	748.2
531.755	783.8
532.176	756
532.577	749.8
532.999	748.8
533.4	747
533.822	754
534.223	735.6
534.645	746.4
535.046	737.4
535.468	740.8
535.869	744
536.292	725.8
536.693	763.2
537.115	731
537.516	721.6
537.939	728
538.34	732
538.742	725.8
539.165	716
539.566	717.4
539.989	714
540.391	712.6
540.814	705.6
541.216	706.6
541.639	706.8
542.041	716.4
542.464	695.8
542.866	695.8
543.268	692
543.691	704
544.093	697.6
544.517	705.4
544.919	672.2
545.343	702.4
545.745	683.6
546.147	689.2
546.571	682.6
546.974	675.4
547.398	666.8
547.8	684.8
548.224	670.4
548.627	659.8
549.03	689.4
549.454	659.2
549.857	666.2
550.281	659.2
550.684	664.8
551.087	672.4
551.512	661.6
551.915	662.4
552.34	661.6
552.743	648.8
553.146	651.4
553.571	647.4
553.975	665
554.399	639.8
554.803	676
555.207	640.4
555.632	637.4
556.036	635.8
556.461	642.4
556.865	631.4
557.268	640.2
557.694	630.2
558.098	634.4
558.502	624.6
558.927	621.8
559.332	630.4
559.736	630
560.162	631.6
560.566	619.2
560.992	627.4
561.396	611.2
561.801	600.2
562.227	616.4
562.631	614.8
563.036	611.6
563.462	617.4
563.867	615.8
564.272	606.2
564.698	606.8
565.103	598.8
565.508	623.4
565.935	596.4
566.34	607.8
566.745	615.8
567.172	603.2
567.577	611
567.982	613.6
568.409	608
568.815	591
569.22	601
569.626	611
570.053	582.6
570.459	596.8
570.865	603.2
571.292	605.2
571.698	598.4
572.104	575
572.531	583.4
572.937	598.6
573.343	582.8
573.75	584.2
574.177	587
574.583	595
574.99	592.2
575.396	587
575.824	580
576.231	581.2
576.637	581.6
577.065	601.2
577.472	573.4
577.879	578.2
578.286	586
578.714	573.2
579.121	575.4
579.528	576.2
579.935	581.4
580.364	575.4
580.771	565.6
581.178	563
581.585	579.2
582.014	582
582.421	566.4
582.829	563.2
583.236	577.4
583.644	569.6
584.073	569.6
584.481	573.4
584.889	563.6
585.296	572.4
585.726	562.2
586.134	555.2
586.542	553
586.95	575.2
587.358	562.8
587.787	552
588.196	550.2
588.604	547.2
589.012	559
589.421	550.6
589.851	541.2
590.259	561.6
590.668	545
591.076	583.4
591.485	544.4
591.894	556.8
592.324	557.4
592.733	557.8
593.142	534.8
593.551	543.4
593.96	555.2
594.369	542.8
594.8	548.2
595.209	549.8
595.618	536.8
596.028	546.6
596.437	539.4
596.847	541.4
597.256	550.2
597.687	547.6
598.097	546
598.507	543.4
598.917	549.6
599.327	549.4
599.736	544.6
600.146	548.4
600.556	547
600.988	558.8
601.398	543.6
601.808	554.6
602.219	535.2
602.629	547.2
603.039	546.2
603.45	570.4
603.86	537
604.271	556.6
604.703	540.8
605.114	543.6
605.525	539.4
605.935	547
606.346	560
606.757	540
607.168	538.4
607.579	529
607.99	545
608.402	535.8
608.813	549.6
609.224	535.8
609.636	536.4
610.047	535.8
610.48	542.8
610.892	546.4
611.303	544.6
611.715	540.2
612.127	540.4
612.539	537
612.95	537.2
613.362	530.2
613.774	535.4
614.186	537.4
614.599	535.4
615.011	539.4
615.423	541.8
615.835	533
616.248	533.2
616.66	540.8
617.073	527
617.485	539.4
617.898	540.8
618.311	541
618.723	541
619.136	561
619.549	553.4
619.962	555.8
620.375	533.6
620.788	539
621.201	534
621.614	535.8
622.028	539
622.441	541.2
622.854	546.8
623.268	526.4
623.681	548
624.095	539
624.509	543.6
624.922	545.8
625.336	536.8
625.728	536
626.142	543.4
626.556	554
626.97	547.2
627.384	539
627.799	540.2
628.213	552
628.627	536.8
629.041	538.2
629.456	538
629.87	540.6
630.285	544.4
630.699	545.2
631.093	527.2
631.507	541.2
631.922	537.6
632.337	543.4
632.752	538.8
633.167	541.4
633.582	535.2
633.997	538.2
634.412	533.2
634.806	540.8
635.221	535
635.637	542.2
636.052	528.8
636.468	539.2
636.883	550
637.299	531
637.715	531.6
638.109	539.2
638.525	524.6
638.941	544.4
639.357	545.4
639.773	543
640.189	527.2
640.584	527.6
641	539.4
641.416	524.8
641.832	533.4
642.249	531
642.665	533.8
643.06	529.2
643.477	536.4
643.894	515.2
644.31	534.4
644.727	529.8
645.123	525.4
645.54	522
645.957	528
646.374	536.6
646.77	533.6
647.187	554
647.604	529.8
648.021	518.4
648.439	527
648.835	521.4
649.252	521.2
649.67	530.6
650.088	532.2
650.484	531.6
650.902	526.4
651.32	533.2
651.738	527.2
652.134	529.6
652.552	542.8
652.971	529.8
653.389	522.4
653.786	533
654.204	522.2
654.622	518.2
655.019	530.6
655.438	528.4
655.857	528.2
656.275	529.4
656.673	514.4
657.091	529.2
657.51	508.4
657.908	528.4
658.327	534
658.746	509
659.144	521.4
659.563	527.6
659.982	529.4
660.38	510.6
660.8	530.8
661.219	525.8
661.617	531.2
662.037	517.4
662.457	524.2
662.855	507.8
663.275	543.8
663.695	518
664.094	516.8
664.514	517.8
664.934	514
665.333	530.6
665.753	527.4
666.152	507.4
666.572	517.6
666.993	535.2
667.392	517.8
667.812	521.4
668.212	513.8
668.632	526.8
669.053	511.2
669.453	523
669.874	517.8
670.273	518
670.694	512.2
671.116	531
671.515	530
671.937	511.8
672.337	507.2
672.758	514.2
673.158	516.4
673.58	508
673.98	516.4
674.402	514.8
674.824	504
675.224	500
675.646	507.6
676.047	513.4
676.469	512.2
676.869	514.6
677.292	512.6
677.693	503.8
678.115	511
678.516	517
678.939	524
679.34	519.4
679.762	524.2
680.164	513.6
680.586	509.8
680.988	516.4
681.411	539.8
681.812	524.2
682.236	514.2
682.637	500.4
683.061	500.2
683.462	513.4
683.864	516
684.288	521.8
684.69	505.4
685.114	521.4
685.516	522.2
685.94	499.6
686.342	518.8
686.766	503
687.168	514.2
687.571	528.6
687.995	506.6
688.398	501.2
688.822	509.4
689.225	521.6
689.628	528.6
690.052	511.8
690.456	518.2
690.88	509.2
691.284	504.2
691.687	518
692.112	506.2
692.515	505.8
692.919	508.4
693.344	510.8
693.747	503.4
694.173	502
694.577	521.2
694.98	519.8
695.406	504.8
695.81	515.8
696.214	513
696.64	515.8
697.044	506.8
697.448	517.6
697.874	512.2
698.279	503
698.684	498.2
699.11	499
699.514	510.8
699.919	510
700.324	494.4
700.75	514.4
701.156	503.2
701.561	516
701.987	505.4
702.393	508.6
702.798	518.6
703.203	512
703.63	496
704.036	508.4
704.442	502.2
704.847	499.8
705.274	514.4
705.68	503.4
706.086	519.2
706.492	504
706.92	509
707.326	515.2
707.732	507
708.139	506.8
708.545	499.8
708.973	501.2
709.38	502.6
709.786	501.4
710.193	516.6
710.6	509.6
711.028	508.8
711.435	502.2
711.842	508
712.249	503.2
712.656	504.4
713.064	512.2
713.492	501.8
713.9	506.4
714.307	508.6
714.715	506.6
715.123	516.8
715.53	503.6
715.938	514.2
716.367	509.6
716.775	506.8
717.184	507.8
717.592	500.6
718	514.4
718.408	535.6
718.816	542.4
719.225	507.8
719.633	506.4
720.042	497.4
720.472	496.8
720.881	519.4
721.29	522.4
721.699	494.8
722.108	506.6
722.517	510.4
722.926	500.2
723.335	516
723.744	512.4
724.154	501.8
724.563	506.2
724.973	512
725.382	505.6
725.792	505.8
726.202	507.6
726.612	512.2
727.022	512.2
727.432	500.2
779.813	504.8
780.223	537.4
780.634	506.2
781.044	510.2
781.454	509
781.865	518.4
782.276	498.6
782.686	510
783.097	505.6
783.508	507.6
783.919	506.2
784.33	516
784.741	512.2
785.152	497.4
785.563	496.2
785.974	499.4
786.386	511.8
786.776	501.2
787.188	502.4
787.599	503.8
788.011	515
788.423	509.8
788.835	494
789.247	492.2
789.659	494.4
790.071	503
790.483	539.2
790.874	502
791.286	517.8
791.699	504.6
792.111	500.8
792.524	511.4
792.937	500.2
793.349	496.6
793.741	511.4
794.154	505.4
794.567	517.8
794.98	502.6
795.393	501
795.785	515.6
796.198	507.2
796.612	506.4
797.026	500.2
797.439	497.2
797.831	502.4
798.245	503.4
798.659	510.4
799.073	498
799.487	505.6
799.88	500.6
800.294	503.6
800.708	509.8
801.123	503.2
801.516	517.2
801.93	495.8
802.345	490
802.76	505.6
803.153	512.4
803.568	508.4
803.983	506.4
804.377	511
804.792	493
805.207	495.2
805.601	503.8
806.016	526.6
806.432	494.8
806.826	531.2
807.242	511.6
807.658	504.8
808.052	496
808.468	490
808.884	492.4
809.279	504.8
809.695	515.4
810.111	521.8
810.506	507.6
810.922	514.8
811.339	513.2
811.734	511.2
812.151	492.4
812.546	501.6
812.963	498.6
813.38	515.2
813.776	505.4
814.193	522.6
814.589	500.2
815.006	507
815.402	491.2
815.82	501.6
816.237	506.4
816.633	500
817.051	497
817.448	500
817.866	493
818.262	517.4
818.68	497.8
819.077	503.6
819.495	504.8
819.892	534.8
820.311	492.8
820.708	504.6
821.127	499.4
821.524	514.4
821.943	502
822.34	512.4
822.759	499.6
823.157	497.2
823.576	509.4
823.974	506
824.393	594.2
824.791	495.2
825.189	497
825.609	502.8
826.007	498
826.427	494.6
826.826	502.4
827.246	503
827.644	486
828.043	506.2
828.463	497.4
828.862	503.6
829.261	505
829.682	494.8
830.081	508.4
830.502	493.8
830.901	502.2
831.301	486.2
831.722	498
832.121	506.6
832.521	496.8
832.943	497.2
833.342	505.4
833.742	492.8
834.164	495.6
834.564	490.4
834.965	495.6
835.386	500
835.787	501
836.188	500.2
836.588	497.2
837.01	505.8
837.411	492.4
837.812	504.2
838.213	497.2
838.636	490
839.037	549.8
839.438	508
839.84	497.8
840.263	509.6
840.664	505
841.066	497.6
841.468	493.4
841.891	499.8
842.293	503.4
842.695	499
843.098	499.8
843.5	494.8
843.902	503.2
844.326	501.4
844.729	500.6
845.131	507.4
845.534	509.4
845.937	509
846.34	507.8
846.764	505.2
847.167	501.8
847.571	500.4
847.974	497.4
848.377	504.8
848.781	533.8
849.184	513.4
849.588	500.8
849.992	491.8
850.396	497
850.821	508.2
851.225	511.2
851.63	497
852.034	509.2
