#lambda/nm	C1
208.295	467.6
208.67	432.6
209.045	391.8
209.419	403.6
209.794	541.2
210.169	529.8
210.544	633
210.919	530.8
211.295	528.8
211.67	540.6
212.045	533
212.421	531.2
212.796	559.2
213.172	529
213.547	534
213.923	538.8
214.299	532.2
214.675	545
215.051	534.8
215.427	536.6
215.803	556
216.179	537
216.555	534.8
216.932	544.6
217.308	539
217.684	536.2
218.061	550.6
218.438	538.2
218.814	524.2
219.191	544.8
219.568	521.8
219.945	532.4
220.322	540
220.699	538.2
221.076	547.6
221.453	539
221.83	532.6
222.208	530.6
222.585	530.4
222.962	545.8
223.34	535.2
223.717	536.6
224.095	531.4
224.473	539.8
224.851	533
225.229	529.4
225.607	557.8
225.985	526
226.363	535.4
226.741	538.2
227.119	532.2
227.497	547.2
227.876	529.6
228.254	543.2
228.633	540.4
229.011	544.6
229.39	539.4
229.769	540.6
230.148	548.8
230.527	551
230.905	535.4
231.284	537
231.664	531.2
232.043	550.8
232.422	543.8
232.801	532.2
233.181	538.2
233.56	535.8
233.94	534.4
234.319	526
234.699	527.6
235.079	566.2
235.458	565.2
235.838	552.6
236.218	536.6
236.598	532.8
236.978	528.4
237.358	529.6
237.738	537.8
238.119	542.2
238.499	527.6
238.88	536.6
239.26	547.8
239.641	529
240.021	531.8
240.402	536.4
240.783	532.6
241.163	533
241.544	539.6
241.925	536.2
242.306	552
242.687	534.2
243.069	531.8
243.45	546.4
243.831	524.6
244.212	528.8
244.594	570.4
244.975	539
245.357	540.2
245.739	530.4
246.12	537.2
246.502	549
246.884	543.6
247.266	534.6
247.648	541.8
248.03	557.4
248.412	537.2
248.794	535.4
249.176	538.6
249.559	554.6
249.941	535.4
250.323	524.6
250.706	525.4
251.089	531.2
251.471	535
251.854	534.4
252.237	534.4
252.62	543.6
253.002	531.8
253.385	530.8
253.769	548.8
254.152	532.4
254.535	543.2
254.918	526.4
255.301	533.8
255.685	527.4
256.068	526.8
256.452	559
256.835	543
257.219	536.6
257.603	541.2
257.986	522.6
258.37	539.6
258.754	525.6
259.138	541.2
259.522	544.4
259.906	532.4
260.29	539.8
260.675	530
261.059	527.2
261.443	527.2
261.828	542.6
262.212	539.2
262.597	532
262.981	534.2
263.366	536.8
263.751	543
264.136	536.4
264.521	538.6
264.906	531.2
265.291	542.8
265.676	534.8
266.061	544.2
266.446	553.8
266.831	544.4
267.217	543.4
267.602	535.2
267.987	538.2
268.373	542.6
268.759	543.4
269.144	540.6
269.53	537.4
269.916	533.8
270.302	532.8
270.688	534
271.074	533.8
271.46	540.6
271.846	563
272.232	538.8
272.618	527.8
273.004	534
273.391	550
273.777	548
274.164	540
274.55	548.4
274.937	538
275.324	535
275.71	539
276.097	540
276.484	530.4
276.871	536.2
277.258	540
277.645	533
278.032	536.6
278.419	537.4
278.807	543
279.194	533.4
279.581	537.6
279.969	543.4
280.356	541.4
280.744	538.2
281.131	549.6
281.519	547
281.907	529.8
282.295	535.4
282.682	548.2
283.07	537.4
283.458	544.6
283.846	549.6
284.235	541.8
284.623	542.6
285.011	531
285.399	546.2
285.788	537
286.176	526
286.565	540.8
286.953	534.6
287.342	533.4
287.731	523
288.119	526.2
288.508	535.6
288.897	533.8
289.286	524.6
289.675	533.2
290.064	548.4
290.453	528.6
290.821	538
291.21	546.2
291.599	530
291.989	541.2
292.378	549
292.768	550
293.157	542
293.547	545.8
293.936	531.6
294.326	527.2
294.716	539.2
295.106	533.8
295.496	545.8
295.886	546.4
296.276	529
296.666	526.4
297.056	536.4
297.446	523
297.836	553.4
298.227	532.6
298.617	535
299.008	542.8
299.398	537.4
299.789	533.2
300.179	542.6
300.57	551
300.961	525.4
301.352	528.6
301.742	539.4
302.133	533.6
302.524	535.2
302.915	540
303.307	529.4
303.698	547.8
304.089	539.6
304.48	527.6
304.872	549.8
305.263	537.2
305.655	534.4
306.046	538.6
306.438	541.4
306.829	537.6
307.221	545
307.613	541.6
308.005	547.6
308.397	546.4
308.789	556.2
309.181	562.2
309.573	550.8
309.965	550.8
310.357	534.2
310.749	542.2
311.142	537.8
311.534	536.8
311.926	539.8
312.319	544.8
312.711	537.6
313.104	546.2
313.497	528.6
313.889	567.8
314.282	561.8
314.675	554.4
315.068	545
315.461	539.4
315.854	558.4
316.247	543.4
316.64	537
317.033	529.8
317.405	540.6
317.798	531.4
318.192	541.2
318.585	531
318.979	544.6
319.372	531.2
319.766	534.6
320.16	537.8
320.553	552
320.947	545
321.341	542
321.735	536.4
322.129	526
322.523	553.6
322.917	533
323.311	546
323.705	539.6
324.099	536.8
324.494	549.6
324.888	552.6
325.282	540.6
325.677	546.6
326.071	539.8
326.466	543.6
326.861	535
327.255	548.2
327.65	539.8
328.045	549.8
328.44	538.6
328.835	539
329.23	536.4
329.625	555.6
330.02	533.6
330.415	546.4
330.81	536.8
331.206	543.4
331.601	532
331.996	541.2
332.37	556
332.766	527
333.161	549.4
333.557	529.4
333.953	537.2
334.348	839.2
334.744	538.6
335.14	533.4
335.536	536.6
335.932	547.8
336.328	540.4
336.724	545.2
337.12	539.6
337.516	534
337.913	539
338.309	542.2
338.705	538.8
339.102	539.2
339.498	535.8
339.895	548.4
340.291	524
340.688	538.6
341.085	530.2
341.481	534.2
341.878	533.6
342.275	557.4
342.672	528.8
343.069	533.6
343.466	526.2
343.842	544.8
344.239	537.4
344.636	538.6
345.033	528.4
345.431	530.2
345.828	524
346.225	531.4
346.623	564.4
347.02	533.8
347.418	546.2
347.816	544.6
348.213	525.2
348.611	538
349.009	528.2
349.407	544.4
349.805	528.6
350.203	525.6
350.601	542
350.999	534
351.397	586.8
351.795	532.4
352.193	540.8
352.57	541.2
352.969	541
353.367	526.6
353.766	526.4
354.164	523.8
354.563	537.8
354.961	533.2
355.36	533.6
355.759	534
356.158	521.4
356.557	529.2
356.956	526.6
357.355	526.2
357.754	529
358.153	530.6
358.552	555.6
358.951	533
359.35	546.6
359.75	528.4
360.149	526.8
360.527	520.8
360.926	532.8
361.326	532
361.726	531.8
362.125	532.4
362.525	529.4
362.925	526
363.325	528
363.724	537.6
364.124	523.6
364.524	528
364.924	525.8
365.324	544.2
365.725	527.8
366.125	529.8
366.525	528.8
366.904	530
367.304	517.2
367.705	543.6
368.105	538.4
368.506	532.6
368.906	527
369.307	527.4
369.708	537.2
370.108	526.6
370.509	540.8
370.91	528.4
371.311	530
371.712	527.8
372.113	536.2
372.514	520.6
372.894	527.4
373.295	530.8
373.696	537.8
374.097	538.4
374.499	558.8
374.9	531.4
375.301	517.4
375.703	534.4
376.105	522.4
376.506	529.8
376.908	525
377.309	533.6
377.711	535.8
378.113	526.2
378.493	534
378.895	527.8
379.297	540.2
379.699	519.6
380.102	540
380.504	529.4
380.906	523.2
381.308	546.6
381.71	532.6
382.113	536
382.515	523.6
382.918	531.8
383.299	525.6
383.701	538.2
384.104	523.4
384.507	519.8
384.909	528
385.312	519.4
385.715	515.2
386.118	530.6
386.521	517.2
386.924	523.4
387.327	529.6
387.709	516.4
388.112	510
388.515	520.4
388.918	530.2
389.322	538
389.725	519.4
390.129	542.8
390.532	529.2
390.936	524.8
391.339	520.6
391.743	528.2
392.125	520.4
392.529	534.4
392.933	536.8
393.337	526.4
393.74	520.8
394.144	530.8
394.548	520.8
394.953	527.4
395.357	535.2
395.761	525.6
396.144	535
396.548	532.4
396.952	529.6
397.357	529
397.761	521.2
398.166	523.2
398.57	519.2
398.975	520.6
399.379	527.4
399.763	566.8
400.168	531.6
400.572	522.4
400.977	528.8
401.382	541.4
401.787	539
402.192	533.2
402.597	545
403.002	528.4
403.386	540
403.791	542
404.197	522
404.602	531.2
405.007	525.6
405.413	523.2
405.818	538.2
406.224	527.2
406.608	524
407.014	515.8
407.42	541.8
407.825	524.6
408.231	532.4
408.637	537.4
409.043	542.8
409.449	522.6
409.834	521.6
410.24	528.8
410.646	528.4
411.052	534.4
411.458	531
411.865	533.6
412.271	541
412.677	528.6
413.062	530.4
413.469	525.2
413.875	549.2
414.282	534.6
414.689	525
415.095	523.2
415.502	517.6
415.888	529.2
416.294	514.8
416.701	551.2
417.108	519.2
417.515	526.8
417.923	526.6
418.33	536.8
418.715	533.2
419.123	524.4
419.53	526
419.937	528.6
420.345	541.8
420.752	521.8
421.16	546.2
421.546	532.6
421.953	538.4
422.361	524.8
422.769	533.2
423.177	527.6
423.585	550.8
423.992	547.2
424.379	540.2
424.787	531.6
425.195	552.6
425.603	527.6
426.011	542.4
426.419	539.8
426.806	537.8
427.214	539.4
427.623	539.8
428.031	555.2
428.44	548.4
428.848	561
429.235	564.6
429.644	556.8
430.053	570
430.461	594.8
430.87	607.2
431.279	604.8
431.666	610.2
432.075	630.2
432.484	647
432.893	652.4
433.302	678.4
433.711	712.8
434.099	716.4
434.508	733
434.918	743.6
435.327	786.2
435.737	809.6
436.125	826.2
436.534	845.6
436.944	860
437.353	896.8
437.763	926.2
438.173	925.8
438.561	958
438.971	956
439.381	1000.8
439.791	1025
440.201	1040.2
440.589	1059.4
440.999	1086.6
441.409	1095.6
441.819	1107.8
442.23	1144.4
442.619	1157
443.029	1181.6
443.439	1190
443.85	1201.2
444.26	1213.4
444.649	1210.2
445.06	1216.8
445.471	1239.8
445.881	1255.2
446.292	1279.6
446.682	1291.6
447.092	1260.4
447.503	1323.6
447.914	1299.8
448.325	1304.8
448.715	1318.2
449.126	1311.4
449.537	1316.6
449.948	1335
450.338	1329
450.75	1344.4
451.161	1350
451.572	1348.8
451.984	1359.8
452.374	1349.8
452.786	1358
453.197	1365.6
453.609	1365.8
453.999	1348.4
454.411	1361.6
454.823	1366.6
455.235	1366
455.647	1373
456.037	1378.4
456.449	1371
456.862	1380.6
457.274	1386.4
457.665	1371.8
458.077	1379.2
458.489	1414.8
458.902	1382
459.293	1376
459.705	1375.8
460.118	1392.4
460.53	1396.8
460.921	1394.8
461.334	1394
461.747	1395
462.16	1418.6
462.551	1408.2
462.964	1407.4
463.377	1394
463.79	1400.8
464.182	1399.8
464.595	1390.2
465.008	1409.4
465.421	1405.8
465.813	1397.2
466.226	1414.2
466.64	1390.8
467.053	1438.2
467.445	1406
467.859	1409.8
468.272	1407
468.686	1418.4
469.078	1408.4
469.492	1390.4
469.906	1404
470.298	1402.8
470.712	1409.2
471.126	1412
471.54	1367.2
471.933	1381.4
472.347	1394.4
472.761	1393.8
473.175	1371.2
473.568	1370.4
473.982	1367.4
474.397	1371.4
474.79	1352.8
475.204	1365.8
475.619	1360
476.033	1349
476.426	1333.2
476.841	1349.6
477.256	1362
477.649	1333.2
478.064	1330.6
478.479	1326.2
478.872	1315
479.287	1326.8
479.702	1308.6
480.118	1315
480.511	1313.8
480.927	1315.4
481.342	1321.4
481.736	1316.4
482.151	1275.8
482.566	1289.4
482.96	1280.6
483.376	1300.6
483.792	1268.6
484.186	1272
484.602	1268.4
485.017	1264.6
485.412	1255.8
485.827	1254.2
486.243	1246.2
486.638	1256.2
487.054	1250.8
487.47	1228.8
487.865	1226.2
488.281	1222.2
488.697	1220.4
489.092	1208.4
489.508	1199.8
489.925	1220.2
490.32	1183.4
490.736	1198.4
491.153	1171.8
491.548	1187.2
491.964	1184.4
492.381	1173.4
492.776	1176.2
493.193	1148.6
493.61	1162
494.006	1138.4
494.422	1148.8
494.84	1134.4
495.235	1147.2
495.652	1136.8
496.069	1130
496.465	1114.4
496.883	1118.2
497.3	1138.8
497.696	1111
498.113	1100.8
498.509	1085
498.927	1068.6
499.344	1078.8
499.741	1060.6
500.158	1065.6
500.576	1075.8
500.973	1064.4
501.39	1057.2
501.787	1046
502.205	1043
502.623	1032.6
503.02	1040.6
503.438	1040
503.856	1028.6
504.253	1013.2
504.671	1017.6
505.068	1001.8
505.486	1010
505.905	1013.6
506.302	1003
506.72	1010
507.118	980.6
507.536	977.8
507.955	973.8
508.352	975
508.771	962.6
509.169	968
509.587	949.4
510.006	953.6
510.404	936.4
510.823	939.4
511.221	938.2
511.64	937.8
512.038	935.6
512.457	933.8
512.877	923.2
513.275	896.8
513.694	903.8
514.092	902.4
514.512	900.8
514.91	914.4
515.33	896.6
515.749	891.4
516.148	898.6
516.568	890.4
516.966	883.4
517.386	873.2
517.785	859.4
518.205	867.4
518.603	848.8
519.024	847.8
519.444	867.2
519.843	864.6
520.263	849.2
520.662	848.6
521.082	838.8
521.481	843.2
521.902	818.6
522.301	835
522.722	825.2
523.121	826.4
523.542	814.8
523.963	816.2
524.362	804.8
524.783	800.8
525.183	800.2
525.604	805.8
526.003	803.2
526.425	786.2
526.824	794.8
527.246	797.2
527.646	796.8
528.067	792.6
528.467	785.2
528.888	791.6
529.289	774
529.71	768.2
530.11	755.2
530.532	761.4
530.932	759.8
531.354	752
531.755	777.6
532.176	752.6
532.577	748.2
532.999	751.4
533.4	741.4
533.822	750.8
534.223	748
534.645	743.6
535.046	727.6
535.468	730.2
535.869	746.2
536.292	726.2
536.693	750
537.115	739.6
537.516	724.8
537.939	717.4
538.34	734.2
538.742	736.6
539.165	718.2
539.566	710.2
539.989	707.4
540.391	712.2
540.814	703.2
541.216	709.6
541.639	695.4
542.041	702.6
542.464	692.8
542.866	698
543.268	682.2
543.691	702.4
544.093	697.8
544.517	710.6
544.919	680.4
545.343	697.8
545.745	682
546.147	687
546.571	669.8
546.974	668.6
547.398	681.6
547.8	686.4
548.224	682.2
548.627	663.2
549.03	667.4
549.454	660.2
549.857	654.6
550.281	666.4
550.684	659.2
551.087	672.8
551.512	665.2
551.915	667.8
552.34	652.4
552.743	650
553.146	661.8
553.571	653.6
553.975	657.8
554.399	634.4
554.803	699.2
555.207	640.6
555.632	629.6
556.036	646.2
556.461	629
556.865	629.8
557.268	623.6
557.694	624.8
558.098	636.4
558.502	634.6
558.927	622.6
559.332	635.4
559.736	622.8
560.162	630.2
560.566	618.8
560.992	622.8
561.396	628
561.801	612
562.227	605.8
562.631	612.4
563.036	615.8
563.462	622.6
563.867	616.6
564.272	599.8
564.698	613.2
565.103	596
565.508	625.8
565.935	602.8
566.34	599.4
566.745	617.4
567.172	596
567.577	617.4
567.982	616.4
568.409	598.6
568.815	586.4
569.22	601.4
569.626	599.2
570.053	578.6
570.459	593.2
570.865	602.6
571.292	595.4
571.698	596
572.104	580.6
572.531	578.8
572.937	588.8
573.343	587.2
573.75	578.8
574.177	589.8
574.583	594.4
574.99	582.6
575.396	587.8
575.824	575.8
576.231	581
576.637	581.6
577.065	597.6
577.472	578.6
577.879	578.4
578.286	585.2
578.714	572.6
579.121	568.2
579.528	583.2
579.935	579.8
580.364	582.8
580.771	554.8
581.178	561.8
581.585	578.2
582.014	575.2
582.421	565
582.829	567.2
583.236	568.4
583.644	567.8
584.073	558.2
584.481	558.8
584.889	564.2
585.296	567.8
585.726	564
586.134	551.8
586.542	554.4
586.95	578.4
587.358	553.8
587.787	551
588.196	543.4
588.604	553
589.012	558.8
589.421	548
589.851	547.4
590.259	561.6
590.668	552.2
591.076	593.4
591.485	546.8
591.894	560.8
592.324	566
592.733	565.6
593.142	541.2
593.551	545.2
593.96	548.2
594.369	541.6
594.8	537.6
595.209	544
595.618	532.6
596.028	551
596.437	542.6
596.847	539.6
597.256	539.4
597.687	539.4
598.097	548.4
598.507	535.4
598.917	550
599.327	550.2
599.736	548
600.146	549.2
600.556	542.6
600.988	549
601.398	537.2
601.808	546.8
602.219	526.6
602.629	539
603.039	542.8
603.45	558.4
603.86	544.2
604.271	546.4
604.703	534.4
605.114	534
605.525	541.6
605.935	532.6
606.346	554
606.757	548.6
607.168	535.2
607.579	528.8
607.99	548.8
608.402	535.8
608.813	543.4
609.224	529.8
609.636	524.2
610.047	518
610.48	535
610.892	537.8
611.303	535.4
611.715	527.6
612.127	530.2
612.539	530
612.95	541
613.362	521.6
613.774	525.6
614.186	529.2
614.599	532.2
615.011	535.4
615.423	534.2
615.835	525.8
616.248	527
616.66	528.8
617.073	525.4
617.485	519.8
617.898	532.8
618.311	535.8
618.723	530
619.136	542.6
619.549	535.4
619.962	539.4
620.375	527.6
620.788	529.2
621.201	522
621.614	532.2
622.028	524.4
622.441	529.2
622.854	535.8
623.268	528
623.681	540.4
624.095	528.4
624.509	534.4
624.922	538
625.336	525.6
625.728	530.2
626.142	537.8
626.556	549.2
626.97	531.2
627.384	522
627.799	528.8
628.213	537
628.627	525.8
629.041	510.2
629.456	522.2
629.87	523
630.285	533.2
630.699	533.6
631.093	524.2
631.507	527
631.922	534.2
632.337	543.2
632.752	514.8
633.167	524
633.582	515.8
633.997	521.4
634.412	520.2
634.806	525.6
635.221	516.4
635.637	535.2
636.052	520.6
636.468	518.4
636.883	537.2
637.299	518.2
637.715	514
638.109	524.4
638.525	510.4
638.941	530
639.357	520.2
639.773	533.4
640.189	519.2
640.584	518.6
641	520
641.416	511
641.832	512.8
642.249	518.8
642.665	522
643.06	525
643.477	528.8
643.894	511
644.31	509.4
644.727	521.2
645.123	509
645.54	512
645.957	520.8
646.374	531.2
646.77	519.2
647.187	543.8
647.604	516
648.021	509
648.439	511.4
648.835	514.8
649.252	516.8
649.67	519.6
650.088	509.6
650.484	522.6
650.902	519.2
651.32	530.8
651.738	516.4
652.134	523.8
652.552	534.4
652.971	518.2
653.389	521.8
653.786	525.8
654.204	523.6
654.622	513.8
655.019	522.8
655.438	514
655.857	519.6
656.275	518.8
656.673	515
657.091	519.8
657.51	512.8
657.908	530.4
658.327	527.2
658.746	502.2
659.144	515.8
659.563	528.4
659.982	521
660.38	507.8
660.8	509.2
661.219	516.8
661.617	519.6
662.037	515.2
662.457	522.8
662.855	505.6
663.275	541.6
663.695	509.6
664.094	509.8
664.514	515
664.934	518.2
665.333	518.2
665.753	512.6
666.152	499.6
666.572	500.4
666.993	522.4
667.392	512.6
667.812	516.6
668.212	508.6
668.632	518.2
669.053	512.6
669.453	517.4
669.874	519.6
670.273	514.8
670.694	507.2
671.116	515.6
671.515	519.6
671.937	505.4
672.337	508.8
672.758	511
673.158	518.8
673.58	505.8
673.98	513
674.402	523.4
674.824	505.8
675.224	505.8
675.646	500.4
676.047	501
676.469	510.4
676.869	517.8
677.292	511.4
677.693	507
678.115	508.4
678.516	510.4
678.939	520.8
679.34	504
679.762	515.4
680.164	514.8
680.586	496.6
680.988	514
681.411	529.2
681.812	513.6
682.236	506.4
682.637	498
683.061	500.2
683.462	515.2
683.864	505
684.288	510.8
684.69	499.8
685.114	514.2
685.516	512.8
685.94	499.4
686.342	515.8
686.766	509
687.168	501.2
687.571	521.8
687.995	512.6
688.398	502.2
688.822	505
689.225	523.6
689.628	522
690.052	508.2
690.456	513.4
690.88	512.6
691.284	506.2
691.687	518.6
692.112	505.6
692.515	497.4
692.919	511.2
693.344	514.6
693.747	504.8
694.173	504.2
694.577	511
694.98	510.8
695.406	506.6
695.81	508.6
696.214	511.2
696.64	508.2
697.044	508
697.448	515.8
697.874	509.8
698.279	510.4
698.684	503.2
699.11	499.2
699.514	512.4
699.919	507.4
700.324	510.2
700.75	510.6
701.156	502
701.561	514.4
701.987	508.6
702.393	510.6
702.798	515
703.203	508.2
703.63	503.4
704.036	499.4
704.442	503.8
704.847	512.6
705.274	501.8
705.68	505.6
706.086	512
706.492	493.6
706.92	502.8
707.326	516.8
707.732	497.8
708.139	505.6
708.545	505.6
708.973	499
709.38	508.4
709.786	496.4
710.193	517.8
710.6	505.8
711.028	499.6
711.435	503
711.842	504.6
712.249	506.4
712.656	508.8
713.064	518.4
713.492	508.6
713.9	507.2
714.307	514.6
714.715	505.4
715.123	505
715.53	508.4
715.938	511.2
716.367	504
716.775	503.2
717.184	503.2
717.592	497.4
718	518
718.408	534.4
718.816	532.8
719.225	510
719.633	514.8
720.042	491.8
720.472	507.2
720.881	520.2
721.29	508.2
721.699	501.6
722.108	505.8
722.517	506.2
722.926	503.4
723.335	513.6
723.744	512.6
724.154	503.2
724.563	505.4
724.973	501.2
725.382	504.2
725.792	502.2
726.202	495.2
726.612	505
727.022	508.4
727.432	505
779.813	502.8
780.223	549.8
780.634	499
781.044	500
781.454	502.8
781.865	513
782.276	494
782.686	513.8
783.097	505.4
783.508	503.2
783.919	502
784.33	513.8
784.741	518.2
785.152	500
785.563	484.8
785.974	495.2
786.386	512.6
786.776	507.8
787.188	501.6
787.599	494.2
788.011	516.6
788.423	502.6
788.835	503
789.247	490.8
789.659	499.6
790.071	502
790.483	543
790.874	504
791.286	501.8
791.699	498.6
792.111	506
792.524	502.8
792.937	501.6
793.349	501.2
793.741	489.2
794.154	499.8
794.567	520
794.98	509.2
795.393	495.6
795.785	520.4
796.198	508.2
796.612	501
797.026	502.8
797.439	492.2
797.831	501.6
798.245	497.4
798.659	498.8
799.073	492.8
799.487	501
799.88	504.4
800.294	505
800.708	503
801.123	506.8
801.516	522.6
801.93	493.4
802.345	492
802.76	502
803.153	512.4
803.568	511.4
803.983	503.8
804.377	510.2
804.792	494.6
805.207	491.8
805.601	500
806.016	526
806.432	497
806.826	534.8
807.242	515
807.658	508.2
808.052	505.6
808.468	500.8
808.884	496.8
809.279	501.8
809.695	512.4
810.111	516.8
810.506	504.4
810.922	516.8
811.339	499
811.734	506.2
812.151	507.8
812.546	501.4
812.963	501.4
813.38	508.6
813.776	508.4
814.193	523.2
814.589	495.8
815.006	495.6
815.402	494.6
815.82	494.2
816.237	497.2
816.633	499.4
817.051	496.2
817.448	505
817.866	493.8
818.262	521.6
818.68	499.2
819.077	500.4
819.495	506
819.892	528.6
820.311	490.6
820.708	497.6
821.127	501
821.524	514.8
821.943	510.8
822.34	510
822.759	496
823.157	501.8
823.576	509.6
823.974	506
824.393	586
824.791	494.2
825.189	493
825.609	492.6
826.007	497.6
826.427	487
826.826	495.6
827.246	505.8
827.644	487
828.043	512.4
828.463	490.2
828.862	509.6
829.261	501.2
829.682	489.4
830.081	500.2
830.502	489.4
830.901	499
831.301	495.4
831.722	486.4
832.121	510.2
832.521	494.4
832.943	502
833.342	499.8
833.742	498.6
834.164	496.4
834.564	491.8
834.965	498.4
835.386	499.6
835.787	495.8
836.188	501.6
836.588	499
837.01	502.4
837.411	496.6
837.812	510.4
838.213	505.4
838.636	499.8
839.037	553.6
839.438	497.4
839.84	506.6
840.263	505.6
840.664	510.4
841.066	497.2
841.468	501.6
841.891	493.4
842.293	507.2
842.695	499
843.098	507.4
843.5	489.4
843.902	507
844.326	497.4
844.729	496.6
845.131	505.4
845.534	499.6
845.937	513.4
846.34	506.8
846.764	493.4
847.167	506
847.571	491
847.974	502.2
848.377	490.8
848.781	526.2
849.184	506.6
849.588	499.8
849.992	498.8
850.396	504.4
