#lambda/nm	C1
208.295	470.2
208.67	434.4
209.045	393.4
209.419	399.2
209.794	538.8
210.169	526.8
210.544	626.2
210.919	539.6
211.295	535.4
211.67	543.2
212.045	534
212.421	536.6
212.796	566.4
213.172	529.2
213.547	530
213.923	529.4
214.299	532.8
214.675	539
215.051	542.8
215.427	546.2
215.803	558.6
216.179	547.4
216.555	535.8
216.932	553.4
217.308	544.2
217.684	537.2
218.061	545
218.438	541
218.814	541.2
219.191	541.4
219.568	538
219.945	534
220.322	544.6
220.699	540.8
221.076	545.8
221.453	536.8
221.83	531.2
222.208	532.6
222.585	536.8
222.962	538.6
223.34	536.8
223.717	540
224.095	529.4
224.473	533
224.851	524.2
225.229	528.4
225.607	549
225.985	524
226.363	531.2
226.741	532.8
227.119	528.6
227.497	545.4
227.876	529
228.254	544.2
228.633	540.2
229.011	543
229.39	535.6
229.769	543.2
230.148	540.4
230.527	548.4
230.905	536.4
231.284	540.8
231.664	538.6
232.043	549.8
232.422	543.6
232.801	535.2
233.181	542
233.56	536.8
233.94	541.4
234.319	526.4
234.699	531.2
235.079	568.6
235.458	566.8
235.838	549
236.218	529
236.598	524.8
236.978	540.2
237.358	533
237.738	526.2
238.119	542.4
238.499	527.4
238.88	543
239.26	556.4
239.641	533.8
240.021	534
240.402	540
240.783	530.6
241.163	532.4
241.544	536.4
241.925	537.6
242.306	544.4
242.687	527.2
243.069	542.6
243.45	539.2
243.831	527.8
244.212	529
244.594	571.6
244.975	535.2
245.357	544
245.739	535.2
246.12	539.4
246.502	547
246.884	535
247.266	529.2
247.648	542.4
248.03	562.4
248.412	540.6
248.794	538.8
249.176	532.2
249.559	542.4
249.941	532
250.323	528
250.706	538.6
251.089	538
251.471	537.8
251.854	533.6
252.237	535.2
252.62	547.8
253.002	533.2
253.385	541
253.769	545.6
254.152	534.8
254.535	544
254.918	526.4
255.301	537.6
255.685	532.4
256.068	537.8
256.452	554.2
256.835	542.4
257.219	549.2
257.603	550.2
257.986	538.6
258.37	541
258.754	518.8
259.138	539.4
259.522	542
259.906	535.2
260.29	536.4
260.675	528.6
261.059	537.4
261.443	529.4
261.828	539.2
262.212	539.2
262.597	524
262.981	533.8
263.366	541.2
263.751	537.4
264.136	534
264.521	528.8
264.906	533.2
265.291	537.4
265.676	534.4
266.061	545.8
266.446	543.6
266.831	542
267.217	551.6
267.602	538.8
267.987	533
268.373	536.4
268.759	541.6
269.144	544.6
269.53	545.4
269.916	530.6
270.302	540.4
270.688	541.6
271.074	547.6
271.46	545
271.846	566.8
272.232	538
272.618	533.8
273.004	538.4
273.391	539.4
273.777	551.8
274.164	544.8
274.55	552.2
274.937	543.8
275.324	540.4
275.71	542
276.097	539.6
276.484	525.4
276.871	535.6
277.258	536.6
277.645	528.4
278.032	535
278.419	534
278.807	530
279.194	527.8
279.581	524.4
279.969	533
280.356	541.4
280.744	536
281.131	561.2
281.519	541.2
281.907	537.2
282.295	528.8
282.682	545.2
283.07	543
283.458	541.8
283.846	542.6
284.235	541.6
284.623	544.4
285.011	532.8
285.399	546.4
285.788	526.6
286.176	525
286.565	545
286.953	532.8
287.342	529.2
287.731	530.4
288.119	524.4
288.508	541.4
288.897	539.8
289.286	522.8
289.675	533.4
290.064	554
290.453	537.8
290.821	540.8
291.21	549.4
291.599	533
291.989	533.8
292.378	542.6
292.768	551.4
293.157	543
293.547	548.4
293.936	533.6
294.326	537.6
294.716	540.4
295.106	550.2
295.496	540.6
295.886	541.8
296.276	539.8
296.666	531.8
297.056	534.8
297.446	534.8
297.836	550.2
298.227	535.6
298.617	539.8
299.008	551.6
299.398	540.4
299.789	533.6
300.179	546.4
300.57	547.8
300.961	532.6
301.352	535.6
301.742	545
302.133	538.2
302.524	535
302.915	543.2
303.307	529
303.698	552.8
304.089	543.6
304.48	533
304.872	540.4
305.263	533.6
305.655	526.4
306.046	539
306.438	536.6
306.829	539.4
307.221	548.8
307.613	542.6
308.005	547.4
308.397	542.2
308.789	552.6
309.181	565.4
309.573	552.8
309.965	548.4
310.357	530
310.749	555.4
311.142	533
311.534	534.2
311.926	554
312.319	544
312.711	531
313.104	548.4
313.497	536.6
313.889	568.2
314.282	547
314.675	558.2
315.068	545.8
315.461	548
315.854	555.2
316.247	539.4
316.64	542.6
317.033	537.8
317.405	545.2
317.798	539.8
318.192	545
318.585	525.4
318.979	542.8
319.372	534.8
319.766	534.8
320.16	549.2
320.553	549
320.947	554.2
321.341	534.2
321.735	540.2
322.129	528.2
322.523	559
322.917	540.2
323.311	543.8
323.705	539
324.099	546.4
324.494	551.6
324.888	537.4
325.282	528
325.677	543.2
326.071	542
326.466	547.6
326.861	543
327.255	545.6
327.65	546.8
328.045	540
328.44	541.6
328.835	541.4
329.23	528.2
329.625	545.4
330.02	535.2
330.415	560.8
330.81	541.4
331.206	541.2
331.601	531.2
331.996	542.2
332.37	553.6
332.766	529.6
333.161	555
333.557	535.4
333.953	538.6
334.348	836.2
334.744	542
335.14	535.8
335.536	531.2
335.932	539.4
336.328	538.4
336.724	537.8
337.12	531.8
337.516	543.8
337.913	545
338.309	553.8
338.705	538.6
339.102	550
339.498	536.6
339.895	551.8
340.291	529.4
340.688	544.6
341.085	531.8
341.481	527.8
341.878	539.2
342.275	555
342.672	527.6
343.069	534.4
343.466	528.4
343.842	544.6
344.239	531.6
344.636	539.6
345.033	527.8
345.431	533.8
345.828	536.6
346.225	529.8
346.623	560.2
347.02	537.4
347.418	544.4
347.816	550.2
348.213	525
348.611	546.4
349.009	528.8
349.407	542.8
349.805	527.2
350.203	520.4
350.601	548.4
350.999	532.4
351.397	582.4
351.795	535.8
352.193	543
352.57	541.4
352.969	542.4
353.367	534.2
353.766	526
354.164	531.4
354.563	541.4
354.961	534.6
355.36	525.4
355.759	536
356.158	524
356.557	528.6
356.956	516.2
357.355	527.2
357.754	534
358.153	541.2
358.552	545.4
358.951	535
359.35	544.2
359.75	532
360.149	525
360.527	524.6
360.926	520.8
361.326	532.2
361.726	530.6
362.125	524.6
362.525	538.2
362.925	530.8
363.325	527.4
363.724	520.2
364.124	527.2
364.524	526
364.924	526.6
365.324	546.2
365.725	519.4
366.125	532.4
366.525	532
366.904	521.8
367.304	522.2
367.705	549.6
368.105	546.4
368.506	522.8
368.906	529.6
369.307	529.6
369.708	536
370.108	518.6
370.509	539.6
370.91	528.6
371.311	535.2
371.712	530.2
372.113	530.4
372.514	513.4
372.894	527
373.295	523
373.696	535.2
374.097	538.2
374.499	551.2
374.9	524.6
375.301	521.8
375.703	532
376.105	514.2
376.506	532.8
376.908	527.6
377.309	522.2
377.711	528.6
378.113	520.2
378.493	529
378.895	522
379.297	539.2
379.699	519
380.102	532.2
380.504	533.4
380.906	523.8
381.308	552.6
381.71	526.4
382.113	534.4
382.515	531.6
382.918	529.2
383.299	533
383.701	544.6
384.104	534.8
384.507	521
384.909	533
385.312	513.6
385.715	520.8
386.118	529.6
386.521	526.2
386.924	536.2
387.327	521.6
387.709	513.8
388.112	513.6
388.515	535.2
388.918	521.2
389.322	536.6
389.725	524.4
390.129	541.2
390.532	533.4
390.936	532
391.339	521.2
391.743	535.2
392.125	528.8
392.529	538
392.933	542.2
393.337	532
393.74	534.2
394.144	535.6
394.548	526
394.953	529.4
395.357	543.4
395.761	524.2
396.144	534.2
396.548	528.8
396.952	523
397.357	539.2
397.761	519.6
398.166	520
398.57	526.2
398.975	522.6
399.379	534
399.763	571
400.168	526.8
400.572	528.2
400.977	532.6
401.382	553.2
401.787	531.8
402.192	547
402.597	545.2
403.002	527.4
403.386	537
403.791	545.4
404.197	524
404.602	523.8
405.007	534.6
405.413	523.6
405.818	524.8
406.224	524.8
406.608	525.8
407.014	525
407.42	541.8
407.825	526.8
408.231	536.4
408.637	530
409.043	537.4
409.449	522.6
409.834	532.2
410.24	536.8
410.646	538.8
411.052	535.4
411.458	529.2
411.865	538.6
412.271	544
412.677	527.8
413.062	540.8
413.469	520.8
413.875	548
414.282	545
414.689	536
415.095	536.2
415.502	522.6
415.888	533
416.294	524.6
416.701	563.8
417.108	529.6
417.515	539
417.923	528.2
418.33	543.2
418.715	539.2
419.123	527.6
419.53	529.4
419.937	526
420.345	538.8
420.752	523.4
421.16	537.2
421.546	529.8
421.953	537
422.361	529.2
422.769	538.6
423.177	518.4
423.585	542.8
423.992	546
424.379	543
424.787	534.8
425.195	543.6
425.603	533.2
426.011	537.2
426.419	543.6
426.806	536.8
427.214	544.8
427.623	545.6
428.031	557
428.44	555.4
428.848	563.8
429.235	572.6
429.644	563.4
430.053	569
430.461	593.6
430.87	616.6
431.279	622.6
431.666	616.2
432.075	642
432.484	661.6
432.893	675.2
433.302	698
433.711	741.8
434.099	722
434.508	747.8
434.918	761.8
435.327	790.8
435.737	821.2
436.125	836.2
436.534	860
436.944	882.8
437.353	916.2
437.763	946
438.173	951.4
438.561	981.2
438.971	985.6
439.381	1016.2
439.791	1038.4
440.201	1039.8
440.589	1077.6
440.999	1103.6
441.409	1133.6
441.819	1126.2
442.23	1176
442.619	1187.4
443.029	1188.4
443.439	1226.2
443.85	1204.8
444.26	1235
444.649	1225.4
445.06	1230.6
445.471	1256.4
445.881	1288.4
446.292	1297.4
446.682	1325.2
447.092	1296.2
447.503	1342.4
447.914	1296.4
448.325	1336.2
448.715	1319
449.126	1334.6
449.537	1336.8
449.948	1354
450.338	1322.6
450.75	1360.4
451.161	1362.2
451.572	1347.8
451.984	1363.4
452.374	1367.2
452.786	1372.4
453.197	1370.6
453.609	1395.4
453.999	1377.2
454.411	1371.8
454.823	1380.2
455.235	1377.2
455.647	1380.4
456.037	1373
456.449	1372
456.862	1393.6
457.274	1388.2
457.665	1403.6
458.077	1397
458.489	1421.8
458.902	1402.4
459.293	1389
459.705	1400.4
460.118	1379.6
460.53	1404.8
460.921	1400
461.334	1413.6
461.747	1408
462.16	1438.6
462.551	1427
462.964	1412.4
463.377	1410.2
463.79	1414.4
464.182	1409.6
464.595	1389
465.008	1409.2
465.421	1422.8
465.813	1402.4
466.226	1413.2
466.64	1415.2
467.053	1441.4
467.445	1411.6
467.859	1426.4
468.272	1423.2
468.686	1433
469.078	1418.4
469.492	1394.8
469.906	1402
470.298	1412.2
470.712	1407.8
471.126	1415
471.54	1392.6
471.933	1394.8
472.347	1382
472.761	1390.8
473.175	1389.2
473.568	1400
473.982	1381.8
474.397	1375
474.79	1370.8
475.204	1389.4
475.619	1373.8
476.033	1378.8
476.426	1372.6
476.841	1364.2
477.256	1377.2
477.649	1345.2
478.064	1324.8
478.479	1338.6
478.872	1340.4
479.287	1328.2
479.702	1312.8
480.118	1318.2
480.511	1318
480.927	1314.6
481.342	1314.4
481.736	1315.4
482.151	1301.4
482.566	1301.8
482.96	1285.6
483.376	1295.4
483.792	1291.6
484.186	1301
484.602	1282.6
485.017	1283.6
485.412	1273.6
485.827	1271.8
486.243	1268.8
486.638	1273.4
487.054	1259.6
487.47	1252.2
487.865	1242.4
488.281	1227.6
488.697	1231.4
489.092	1217
489.508	1215.8
489.925	1235
490.32	1198
490.736	1210.2
491.153	1203.6
491.548	1197.8
491.964	1190.4
492.381	1169.2
492.776	1187.4
493.193	1175.4
493.61	1169
494.006	1151.2
494.422	1156.6
494.84	1132.8
495.235	1145.8
495.652	1147.6
496.069	1137.6
496.465	1123.4
496.883	1133.8
497.3	1127.8
497.696	1100.2
498.113	1117.2
498.509	1100.4
498.927	1087
499.344	1090.6
499.741	1069.2
500.158	1092.2
500.576	1082.2
500.973	1075.2
501.39	1064.8
501.787	1050.2
502.205	1055.8
502.623	1049
503.02	1028.2
503.438	1043.4
503.856	1029
504.253	1022.2
504.671	1033.8
505.068	1008.2
505.486	1005.4
505.905	1020.2
506.302	1001.6
506.72	1011.6
507.118	991.2
507.536	988.2
507.955	978.2
508.352	985.6
508.771	984
509.169	983
509.587	971.2
510.006	963.2
510.404	941
510.823	947.6
511.221	949.4
511.64	942.2
512.038	946.4
512.457	925
512.877	927
513.275	926
513.694	918.4
514.092	916.4
514.512	911.2
514.91	913.4
515.33	892.6
515.749	895.4
516.148	891.2
516.568	878.2
516.966	880.8
517.386	872.4
517.785	885.8
518.205	885.6
518.603	856.4
519.024	856.4
519.444	858.2
519.843	865.2
520.263	863.8
520.662	858.2
521.082	850.4
521.481	844.2
521.902	836.2
522.301	840.6
522.722	836
523.121	821
523.542	822.8
523.963	831.6
524.362	807.6
524.783	821.8
525.183	810.4
525.604	796.8
526.003	804.2
526.425	797.8
526.824	804.4
527.246	814.4
527.646	812.8
528.067	788.4
528.467	788.2
528.888	789.4
529.289	782.8
529.71	779.6
530.11	774.2
530.532	772.4
530.932	751.8
531.354	748.2
531.755	792
532.176	771
532.577	750.8
532.999	748.6
533.4	742.2
533.822	756.8
534.223	743.8
534.645	727.2
535.046	737.2
535.468	738.8
535.869	748.4
536.292	724.2
536.693	767.2
537.115	735
537.516	716.8
537.939	724
538.34	734.8
538.742	733.6
539.165	719.8
539.566	725
539.989	708
540.391	709.4
540.814	711.4
541.216	702.4
541.639	705
542.041	701.8
542.464	701
542.866	695.2
543.268	688.6
543.691	697.2
544.093	696.8
544.517	706.2
544.919	686
545.343	698.8
545.745	686.6
546.147	679.6
546.571	676.8
546.974	678.2
547.398	678.2
547.8	685
548.224	669.8
548.627	671.2
549.03	660
549.454	654.6
549.857	668.6
550.281	663.4
550.684	656.8
551.087	664
551.512	664.4
551.915	653.8
552.34	655.2
552.743	654.4
553.146	652
553.571	654
553.975	669.6
554.399	641.6
554.803	677.6
555.207	634.4
555.632	636.2
556.036	649
556.461	645.2
556.865	645
557.268	625.6
557.694	639.6
558.098	631.2
558.502	634.4
558.927	628
559.332	625.2
559.736	622.4
560.162	629.2
560.566	617.8
560.992	634.4
561.396	629.4
561.801	621.8
562.227	620
562.631	621.2
563.036	622.6
563.462	619.6
563.867	609
564.272	607.2
564.698	615.8
565.103	595.4
565.508	631.2
565.935	614.2
566.34	609.2
566.745	609
567.172	597.2
567.577	616
567.982	618.4
568.409	603.2
568.815	586.6
569.22	601.6
569.626	605
570.053	591
570.459	594.6
570.865	596.8
571.292	606.2
571.698	596
572.104	581.2
572.531	589.4
572.937	593.4
573.343	588.6
573.75	588
574.177	589.2
574.583	585.2
574.99	582.4
575.396	588.6
575.824	580.2
576.231	584.6
576.637	571.6
577.065	613
577.472	580.6
577.879	579.4
578.286	589.4
578.714	564.6
579.121	579.8
579.528	577.4
579.935	580.8
580.364	570
580.771	564.8
581.178	577
581.585	575.6
582.014	574
582.421	567
582.829	558.6
583.236	571.8
583.644	557.8
584.073	566.2
584.481	565.2
584.889	565.6
585.296	572
585.726	562
586.134	559.4
586.542	563.6
586.95	580.6
587.358	552.6
587.787	562
588.196	551.8
588.604	551.2
589.012	559.2
589.421	555.2
589.851	559.6
590.259	566.2
590.668	550.4
591.076	584.4
591.485	543.6
591.894	553.8
592.324	557.4
592.733	563.2
593.142	544.4
593.551	559.4
593.96	578.4
594.369	543
594.8	551
595.209	552.2
595.618	535.4
596.028	543.6
596.437	535.6
596.847	554
597.256	547.4
597.687	548.4
598.097	543.2
598.507	534.8
598.917	542.6
599.327	549.4
599.736	546
600.146	555.8
600.556	548.6
600.988	556.8
601.398	543.4
601.808	550
602.219	525.8
602.629	544.2
603.039	542.4
603.45	554.2
603.86	540.4
604.271	543.4
604.703	542.6
605.114	537.6
605.525	526
605.935	543.6
606.346	547.6
606.757	542.2
607.168	532.2
607.579	537.8
607.99	548
608.402	531
608.813	531.6
609.224	527.8
609.636	528.4
610.047	526.4
610.48	530.4
610.892	544.6
611.303	538.4
611.715	537.2
612.127	532.2
612.539	532.6
612.95	533.4
613.362	522.4
613.774	520.2
614.186	527.8
614.599	525
615.011	527.6
615.423	530.2
615.835	526.8
616.248	526
616.66	537.2
617.073	519
617.485	529.2
617.898	534.6
618.311	536.8
618.723	526.4
619.136	554.6
619.549	541.4
619.962	546.4
620.375	526.4
620.788	525.6
621.201	531.2
621.614	533.2
622.028	526.8
622.441	532.6
622.854	543
623.268	525.4
623.681	526.2
624.095	534.8
624.509	529.2
624.922	538
625.336	518.4
625.728	531
626.142	535.2
626.556	543.4
626.97	533.8
627.384	525.6
627.799	534
628.213	533.8
628.627	524.6
629.041	523.6
629.456	526.2
629.87	525.2
630.285	524.6
630.699	536.2
631.093	525.8
631.507	525.8
631.922	532
632.337	535.2
632.752	519.2
633.167	527
633.582	521.8
633.997	511
634.412	515.2
634.806	524
635.221	508.6
635.637	531.8
636.052	511
636.468	520.4
636.883	540.4
637.299	522.2
637.715	506.8
638.109	520.6
638.525	512.4
638.941	527.8
639.357	520.6
639.773	525.6
640.189	523
640.584	522
641	526.8
641.416	510.6
641.832	514
642.249	522.2
642.665	521.8
643.06	523.2
643.477	519.4
643.894	508.8
644.31	514.8
644.727	515.8
645.123	519.6
645.54	504.8
645.957	523.2
646.374	526.6
646.77	518.4
647.187	532.8
647.604	510.2
648.021	506.6
648.439	517
648.835	518.4
649.252	512.4
649.67	519.2
650.088	518.6
650.484	517.4
650.902	527.2
651.32	514.6
651.738	511.2
652.134	520
652.552	517.2
652.971	519.2
653.389	513
653.786	530.8
654.204	523
654.622	509.4
655.019	511.2
655.438	520
655.857	526.6
656.275	520.4
656.673	514.4
657.091	528
657.51	505.8
657.908	519
658.327	533.4
658.746	502.8
659.144	513.6
659.563	524.4
659.982	520.8
660.38	504.8
660.8	522
661.219	528.8
661.617	517.4
662.037	521.8
662.457	520.2
662.855	497
663.275	532.8
663.695	518.2
664.094	507.4
664.514	507
664.934	511.8
665.333	513.8
665.753	500
666.152	500.2
666.572	510.6
666.993	519.2
667.392	509.4
667.812	510.8
668.212	509
668.632	518.2
669.053	506
669.453	519.2
669.874	508.8
670.273	516.6
670.694	503.2
671.116	517
671.515	520.6
671.937	508
672.337	509.2
672.758	511.6
673.158	512.4
673.58	503
673.98	508.2
674.402	522.4
674.824	511.8
675.224	505.6
675.646	506.6
676.047	507.4
676.469	508.2
676.869	514.4
677.292	508
677.693	505.4
678.115	506.2
678.516	511.2
678.939	511.8
679.34	511.2
679.762	519.6
680.164	520
680.586	509.8
680.988	509.6
681.411	529.8
681.812	505.2
682.236	502.8
682.637	505.2
683.061	506.6
683.462	514.2
683.864	508.6
684.288	516.4
684.69	499.6
685.114	517.8
685.516	516.4
685.94	507.4
686.342	521.6
686.766	503.2
687.168	503.6
687.571	515.2
687.995	508.8
688.398	497.8
688.822	506.6
689.225	519.6
689.628	530.2
690.052	499.8
690.456	510.8
690.88	504.8
691.284	500.6
691.687	510.2
692.112	496.2
692.515	500.2
692.919	510.4
693.344	501.6
693.747	505.2
694.173	508.8
694.577	514.2
694.98	512.2
695.406	505.6
695.81	516.8
696.214	510.6
696.64	513
697.044	514.4
697.448	517.2
697.874	509.2
698.279	502.8
698.684	499.6
699.11	503
699.514	511.8
699.919	498.6
700.324	493.6
700.75	506.8
701.156	504.6
701.561	518.6
701.987	517.8
702.393	515.8
702.798	521.4
703.203	505.2
703.63	506.2
704.036	500.6
704.442	513
704.847	502
705.274	503.2
705.68	512.8
706.086	513.8
706.492	497.6
706.92	508.6
707.326	518.6
707.732	501.2
708.139	497.6
708.545	492.2
708.973	509
709.38	506
709.786	496.4
710.193	520.2
710.6	508.4
711.028	497
711.435	497
711.842	504.8
712.249	504
712.656	502.2
713.064	510.8
713.492	506.2
713.9	504.2
714.307	507.2
714.715	500
715.123	505.4
715.53	508.8
715.938	510.8
716.367	507.8
716.775	499.2
717.184	495.8
717.592	501.4
718	514.4
718.408	532.2
718.816	543.2
719.225	510.6
719.633	517.4
720.042	498
720.472	498.6
720.881	522.8
721.29	511.8
721.699	501
722.108	506.8
722.517	508.2
722.926	500.8
723.335	509
723.744	503.8
724.154	509.4
724.563	509.8
724.973	515.2
725.382	504.4
725.792	509.8
726.202	501.2
726.612	518.8
727.022	502.4
727.432	505
779.813	509.8
780.223	539.8
780.634	506.6
781.044	501.4
781.454	502.6
781.865	519.4
782.276	496.4
782.686	518
783.097	504
783.508	510.6
783.919	514.4
784.33	523
784.741	516.8
785.152	501
785.563	495
785.974	498.6
786.386	509.8
786.776	507
787.188	500.8
787.599	501
788.011	516.6
788.423	507.6
788.835	492.4
789.247	492.4
789.659	498.2
790.071	501.2
790.483	540.8
790.874	502.2
791.286	520.4
791.699	498.2
792.111	504.2
792.524	500.8
792.937	501.4
793.349	497.2
793.741	498
794.154	501.8
794.567	512
794.98	498.8
795.393	508.8
795.785	519.2
796.198	489.2
796.612	506.4
797.026	503
797.439	487.4
797.831	497
798.245	491
798.659	498.6
799.073	500.2
799.487	502.2
799.88	501.6
800.294	505.8
800.708	511.6
801.123	502.6
801.516	515.8
801.93	500.4
802.345	493.6
802.76	501
803.153	513.4
803.568	522.8
803.983	512.2
804.377	505.6
804.792	500.2
805.207	500.6
805.601	504.8
806.016	531.8
806.432	498
806.826	531.4
807.242	515
807.658	512.4
808.052	495.4
808.468	505
808.884	493.6
809.279	504.4
809.695	504.2
810.111	518.8
810.506	503
810.922	515.8
811.339	501.8
811.734	499.6
812.151	501.4
812.546	499.2
812.963	502.4
813.38	498
813.776	500.4
814.193	514
814.589	499.6
815.006	498.4
815.402	492.6
815.82	497
816.237	498.4
816.633	498.6
817.051	492.2
817.448	498.6
817.866	502
818.262	516.8
818.68	497.6
819.077	500
819.495	504.2
819.892	535.8
820.311	497.6
820.708	495.2
821.127	495.4
821.524	519.8
821.943	512
822.34	513.4
822.759	505.4
823.157	500.8
823.576	513
823.974	510.6
824.393	585.6
824.791	504.8
825.189	484.6
825.609	502.4
826.007	502.4
826.427	495.4
826.826	494.2
827.246	507.4
827.644	492.6
828.043	516.6
828.463	494.6
828.862	510.6
829.261	511
829.682	490.2
830.081	503.2
830.502	502
830.901	504.6
831.301	505.8
831.722	484.2
832.121	505.6
832.521	496.8
832.943	502.8
833.342	503.8
833.742	486
834.164	492.8
834.564	495.2
834.965	501.8
835.386	497.2
835.787	496.4
836.188	498.2
836.588	501.8
837.01	493.6
837.411	490
837.812	506.6
838.213	496.6
838.636	492.4
839.037	551.6
839.438	499
839.84	492.2
840.263	509.4
840.664	509.2
841.066	492.8
841.468	504.2
841.891	492.6
842.293	500.2
842.695	505
843.098	511.2
843.5	492
843.902	500.8
844.326	500.4
844.729	508.2
845.131	507.8
845.534	490.8
845.937	515.6
846.34	512.8
846.764	506
847.167	504.4
847.571	491
847.974	509.6
848.377	503.4
848.781	531.4
849.184	515
849.588	494.6
849.992	493.8
850.396	492.8
850.821	515.8
