#lambda/nm	C1
208.295	469.8
208.67	432.6
209.045	394.6
209.419	399
209.794	538.2
210.169	525
210.544	622
210.919	541.8
211.295	535
211.67	534.6
212.045	532.6
212.421	533
212.796	564
213.172	529.8
213.547	532.8
213.923	533.2
214.299	527.2
214.675	546.8
215.051	538.2
215.427	543.6
215.803	553.8
216.179	535.6
216.555	522.4
216.932	547.4
217.308	541.2
217.684	528.4
218.061	531.2
218.438	532.4
218.814	529.4
219.191	540.2
219.568	531.8
219.945	531.4
220.322	537.6
220.699	536.8
221.076	546.4
221.453	542.2
221.83	532.4
222.208	537.6
222.585	536
222.962	533.6
223.34	538.6
223.717	531
224.095	537
224.473	535.8
224.851	531.2
225.229	533.2
225.607	552.2
225.985	535.6
226.363	537
226.741	538
227.119	537.2
227.497	550.8
227.876	526.8
228.254	544.2
228.633	539.4
229.011	533.4
229.39	536.2
229.769	540.8
230.148	537.6
230.527	561.8
230.905	544
231.284	542
231.664	533.8
232.043	553.2
232.422	539.6
232.801	531.4
233.181	535.8
233.56	534.8
233.94	534.4
234.319	531.4
234.699	531
235.079	571.2
235.458	560.8
235.838	553.6
236.218	530.8
236.598	534.2
236.978	533.8
237.358	535.4
237.738	538.8
238.119	540
238.499	527.6
238.88	544.2
239.26	543.8
239.641	525.2
240.021	538.4
240.402	537.8
240.783	531.6
241.163	532.4
241.544	545.6
241.925	529.2
242.306	550.6
242.687	534.4
243.069	541.8
243.45	544.2
243.831	527.8
244.212	532.2
244.594	565.4
244.975	548.2
245.357	539
245.739	531.6
246.12	533.4
246.502	547
246.884	542.6
247.266	534.6
247.648	535.8
248.03	549.8
248.412	538.8
248.794	535.6
249.176	532.4
249.559	537.2
249.941	529.2
250.323	520.4
250.706	535
251.089	537.2
251.471	534.4
251.854	535.2
252.237	537.6
252.62	549
253.002	534
253.385	538
253.769	546.4
254.152	535.8
254.535	540.4
254.918	523.8
255.301	537.8
255.685	531.8
256.068	526.2
256.452	559
256.835	545.2
257.219	538
257.603	547
257.986	528.6
258.37	543.6
258.754	523
259.138	540
259.522	540.6
259.906	536
260.29	540.6
260.675	534.2
261.059	534.4
261.443	533.8
261.828	542.2
262.212	536.2
262.597	524.8
262.981	531.4
263.366	539.6
263.751	542.6
264.136	533.4
264.521	526.6
264.906	528.8
265.291	547.8
265.676	539
266.061	540.8
266.446	550.8
266.831	544.4
267.217	561.4
267.602	536
267.987	543.2
268.373	528.8
268.759	545.4
269.144	550.8
269.53	537
269.916	535.4
270.302	532
270.688	540.4
271.074	543.6
271.46	545.4
271.846	560.2
272.232	539.4
272.618	533.8
273.004	536.2
273.391	546.4
273.777	540.4
274.164	533
274.55	552.2
274.937	539
275.324	537.4
275.71	543.4
276.097	545
276.484	527.8
276.871	540.2
277.258	543.6
277.645	527
278.032	534.6
278.419	534.4
278.807	542.6
279.194	532.6
279.581	531.2
279.969	537.2
280.356	542.6
280.744	534.2
281.131	551.2
281.519	546.2
281.907	530.2
282.295	535
282.682	548.2
283.07	542.8
283.458	540
283.846	542
284.235	541
284.623	534.2
285.011	528
285.399	539
285.788	535.8
286.176	526.8
286.565	547.8
286.953	529.8
287.342	539.4
287.731	527.8
288.119	525
288.508	531.4
288.897	538.6
289.286	528.2
289.675	531.4
290.064	548
290.453	530.6
290.821	536.6
291.21	543
291.599	538.8
291.989	535.6
292.378	544.2
292.768	549.4
293.157	541.6
293.547	537
293.936	546.4
294.326	545
294.716	542.6
295.106	535.4
295.496	538.6
295.886	542.6
296.276	533.6
296.666	535
297.056	539.6
297.446	523
297.836	550.8
298.227	537.4
298.617	538.4
299.008	542
299.398	541.2
299.789	535.8
300.179	538.6
300.57	552.4
300.961	532.6
301.352	533.4
301.742	545.2
302.133	543.4
302.524	535.8
302.915	542.4
303.307	534.4
303.698	551.4
304.089	540.6
304.48	538
304.872	544.8
305.263	538.6
305.655	534
306.046	548
306.438	537.8
306.829	538.2
307.221	548
307.613	538.4
308.005	546.4
308.397	544
308.789	551
309.181	559.6
309.573	548
309.965	551.8
310.357	519.6
310.749	543
311.142	528.8
311.534	532
311.926	539.8
312.319	540
312.711	531
313.104	548.6
313.497	531.8
313.889	573
314.282	554.8
314.675	553.2
315.068	536.4
315.461	539.8
315.854	557.6
316.247	534.4
316.64	533.8
317.033	535
317.405	544.4
317.798	542.8
318.192	545.2
318.585	530.6
318.979	542.4
319.372	530.6
319.766	530.8
320.16	548.4
320.553	537
320.947	552.4
321.341	530.4
321.735	535
322.129	521.4
322.523	557.4
322.917	527.8
323.311	547
323.705	543
324.099	540.2
324.494	546
324.888	548.6
325.282	537.2
325.677	544
326.071	544.2
326.466	549
326.861	539.8
327.255	543.4
327.65	543.2
328.045	556.8
328.44	547.4
328.835	538.8
329.23	535.8
329.625	555.4
330.02	531.2
330.415	550.4
330.81	538.4
331.206	540.6
331.601	533
331.996	542.4
332.37	548.4
332.766	529.2
333.161	556
333.557	536.8
333.953	540
334.348	766.2
334.744	536
335.14	529.2
335.536	537.8
335.932	549.4
336.328	539.2
336.724	541.2
337.12	540.4
337.516	536.8
337.913	541.8
338.309	548.4
338.705	540
339.102	541.2
339.498	529.6
339.895	545.6
340.291	527.4
340.688	552.4
341.085	523.8
341.481	530.6
341.878	537.8
342.275	555.6
342.672	534.4
343.069	529.8
343.466	530.2
343.842	549.8
344.239	527.4
344.636	537.4
345.033	525.2
345.431	530.2
345.828	535.4
346.225	523
346.623	569.4
347.02	532.2
347.418	543.4
347.816	554.2
348.213	522
348.611	537.4
349.009	521.6
349.407	538.6
349.805	530.4
350.203	523.2
350.601	548.2
350.999	538
351.397	579.4
351.795	535.8
352.193	540
352.57	531.4
352.969	541.8
353.367	529.4
353.766	519.6
354.164	524.8
354.563	533.4
354.961	532.8
355.36	529.2
355.759	524.4
356.158	522.6
356.557	532.4
356.956	517.4
357.355	520
357.754	539
358.153	543.4
358.552	554.2
358.951	531.8
359.35	546
359.75	530.8
360.149	523.4
360.527	519.6
360.926	530
361.326	529.6
361.726	537
362.125	524
362.525	536.8
362.925	524.6
363.325	538.6
363.724	529
364.124	525
364.524	523.8
364.924	537.6
365.324	540.6
365.725	517.8
366.125	540.4
366.525	536.8
366.904	529.8
367.304	515.8
367.705	543.2
368.105	538.4
368.506	525.8
368.906	524.2
369.307	528.4
369.708	534.4
370.108	520.6
370.509	537.6
370.91	523.6
371.311	530.8
371.712	527.2
372.113	530
372.514	522.2
372.894	528.8
373.295	516
373.696	538.2
374.097	534.2
374.499	553.2
374.9	534.6
375.301	524
375.703	533.4
376.105	524.2
376.506	534
376.908	529.4
377.309	535
377.711	523.8
378.113	517.6
378.493	530.4
378.895	524.2
379.297	534.6
379.699	523.2
380.102	528.6
380.504	524.6
380.906	525.4
381.308	546.8
381.71	520.8
382.113	535.2
382.515	524.6
382.918	536.2
383.299	528.2
383.701	536
384.104	542.6
384.507	521.4
384.909	526.8
385.312	522.2
385.715	513.6
386.118	526.6
386.521	518.2
386.924	531
387.327	527.6
387.709	518.8
388.112	514.8
388.515	522.8
388.918	530.8
389.322	529.8
389.725	526.4
390.129	551.6
390.532	525
390.936	530.4
391.339	522.6
391.743	532
392.125	523.8
392.529	539.4
392.933	540
393.337	540
393.74	532.4
394.144	532
394.548	527.8
394.953	525.8
395.357	529.8
395.761	523.6
396.144	525.8
396.548	525.4
396.952	530.4
397.357	531.8
397.761	526.4
398.166	525.4
398.57	530.8
398.975	517.8
399.379	530.4
399.763	563.4
400.168	525.2
400.572	521.4
400.977	530
401.382	545.8
401.787	535
402.192	543
402.597	542.6
403.002	522
403.386	544.2
403.791	541
404.197	527
404.602	530.8
405.007	527.2
405.413	523.6
405.818	528.2
406.224	524.6
406.608	531.4
407.014	522
407.42	534.2
407.825	518
408.231	537.8
408.637	536.2
409.043	537.6
409.449	519.6
409.834	521
410.24	530.2
410.646	536.2
411.052	538.2
411.458	535.8
411.865	530.6
412.271	531.2
412.677	529.2
413.062	529.8
413.469	512.8
413.875	553.8
414.282	541
414.689	525.4
415.095	535.8
415.502	525
415.888	533.6
416.294	518.4
416.701	568.2
417.108	525.8
417.515	529
417.923	530
418.33	551.2
418.715	532.2
419.123	525.2
419.53	526.4
419.937	532.2
420.345	538
420.752	523.8
421.16	548.2
421.546	521.2
421.953	537.6
422.361	523.4
422.769	521.6
423.177	523.2
423.585	554.6
423.992	543.4
424.379	546
424.787	541.6
425.195	543
425.603	529
426.011	541.4
426.419	541.8
426.806	541.2
427.214	540
427.623	553.6
428.031	558.4
428.44	556.2
428.848	556
429.235	569.2
429.644	571.2
430.053	566
430.461	592.4
430.87	610.8
431.279	612
431.666	614.6
432.075	622.6
432.484	652.2
432.893	655
433.302	685.2
433.711	735.4
434.099	716
434.508	735.6
434.918	755.4
435.327	796.2
435.737	807.8
436.125	831.4
436.534	864
436.944	883
437.353	899.4
437.763	951.6
438.173	946.4
438.561	977
438.971	968.6
439.381	1029.2
439.791	1043.6
440.201	1037.6
440.589	1080
440.999	1104.8
441.409	1122
441.819	1120.6
442.23	1163
442.619	1180.4
443.029	1198.4
443.439	1203.6
443.85	1211.2
444.26	1228.6
444.649	1222.4
445.06	1231.2
445.471	1262.2
445.881	1274.4
446.292	1307.4
446.682	1304.4
447.092	1284
447.503	1344.6
447.914	1314.2
448.325	1341.2
448.715	1339.2
449.126	1331.4
449.537	1330.6
449.948	1345
450.338	1345.2
450.75	1365.8
451.161	1360.8
451.572	1370.4
451.984	1373.6
452.374	1363
452.786	1372
453.197	1393.6
453.609	1392.4
453.999	1386.6
454.411	1372.8
454.823	1394.4
455.235	1393.8
455.647	1380.4
456.037	1391.2
456.449	1398.8
456.862	1403.6
457.274	1408
457.665	1396.4
458.077	1420.6
458.489	1449
458.902	1406
459.293	1416.4
459.705	1407.6
460.118	1404.4
460.53	1409.8
460.921	1424
461.334	1424
461.747	1395.6
462.16	1427.8
462.551	1446.8
462.964	1431
463.377	1413.8
463.79	1408.6
464.182	1434
464.595	1420.2
465.008	1444.8
465.421	1424.8
465.813	1416.8
466.226	1428.8
466.64	1422
467.053	1448.6
467.445	1418
467.859	1419.6
468.272	1428.4
468.686	1443.6
469.078	1424.6
469.492	1419.6
469.906	1430
470.298	1438
470.712	1406
471.126	1439.6
471.54	1399.8
471.933	1398.4
472.347	1410.8
472.761	1400.4
473.175	1400
473.568	1407
473.982	1404.4
474.397	1405.4
474.79	1388.8
475.204	1389.4
475.619	1382.8
476.033	1399.8
476.426	1380.8
476.841	1375.6
477.256	1382.8
477.649	1368.4
478.064	1347.2
478.479	1349.2
478.872	1340.6
479.287	1331
479.702	1351.8
480.118	1342.4
480.511	1329.6
480.927	1327.4
481.342	1321
481.736	1322.8
482.151	1298
482.566	1318
482.96	1313.2
483.376	1308.2
483.792	1301.8
484.186	1293
484.602	1283
485.017	1291
485.412	1274.8
485.827	1285.8
486.243	1273
486.638	1289.8
487.054	1263.6
487.47	1280.6
487.865	1243.8
488.281	1248.2
488.697	1231.2
489.092	1231
489.508	1232.6
489.925	1247.4
490.32	1221.4
490.736	1210.6
491.153	1204.8
491.548	1203.8
491.964	1211.2
492.381	1180
492.776	1189.6
493.193	1182.6
493.61	1176.4
494.006	1175.2
494.422	1176.8
494.84	1151.4
495.235	1162.2
495.652	1169.8
496.069	1130.8
496.465	1135
496.883	1134.2
497.3	1150
497.696	1120
498.113	1118.4
498.509	1102.4
498.927	1101.6
499.344	1095.6
499.741	1088
500.158	1098.4
500.576	1078.8
500.973	1075.4
501.39	1068.8
501.787	1054.4
502.205	1059
502.623	1062.8
503.02	1039.6
503.438	1040.6
503.856	1033.6
504.253	1041
504.671	1027.6
505.068	1015.6
505.486	1034.2
505.905	1033.4
506.302	1013.8
506.72	1012.4
507.118	989
507.536	992.6
507.955	996.6
508.352	982.2
508.771	985.2
509.169	985.4
509.587	955.6
510.006	965.4
510.404	945.2
510.823	944
511.221	939.8
511.64	944.2
512.038	949.4
512.457	932.6
512.877	927
513.275	918.2
513.694	909.4
514.092	906
514.512	911.2
514.91	910.6
515.33	916.8
515.749	906.4
516.148	895.2
516.568	892
516.966	887.4
517.386	878.6
517.785	882
518.205	873.2
518.603	866.2
519.024	863.2
519.444	868.2
519.843	872
520.263	872.6
520.662	857.4
521.082	856.8
521.481	849.8
521.902	848.6
522.301	850.8
522.722	844
523.121	830
523.542	828.4
523.963	818.2
524.362	808.8
524.783	811.4
525.183	808.6
525.604	811.6
526.003	800
526.425	794.4
526.824	813
527.246	812.8
527.646	790.4
528.067	788
528.467	792.6
528.888	786
529.289	785.6
529.71	783.8
530.11	774
530.532	774
530.932	762.2
531.354	761.8
531.755	783.2
532.176	776.4
532.577	760.8
532.999	753.4
533.4	738.2
533.822	751.4
534.223	753.6
534.645	746.2
535.046	738.4
535.468	738
535.869	741.6
536.292	736.6
536.693	759.6
537.115	729
537.516	732.6
537.939	719
538.34	747
538.742	731.6
539.165	726.4
539.566	723.6
539.989	713
540.391	710.8
540.814	711
541.216	711.4
541.639	705.4
542.041	721
542.464	707.2
542.866	696
543.268	693.8
543.691	703.2
544.093	692
544.517	704.8
544.919	679
545.343	721
545.745	673.2
546.147	689.8
546.571	683.6
546.974	683.4
547.398	679
547.8	687.6
548.224	669.4
548.627	669.4
549.03	680.4
549.454	666
549.857	661.2
550.281	659.8
550.684	665.4
551.087	667.2
551.512	667.4
551.915	668.6
552.34	659.2
552.743	656.8
553.146	657.8
553.571	646.8
553.975	665
554.399	640.6
554.803	686.4
555.207	642.6
555.632	639.8
556.036	650
556.461	637.6
556.865	642
557.268	630.6
557.694	626.4
558.098	643.2
558.502	634
558.927	612.8
559.332	633.2
559.736	630
560.162	631
560.566	627.6
560.992	628.4
561.396	625.2
561.801	613.2
562.227	628.8
562.631	618.2
563.036	620.4
563.462	616.8
563.867	613.2
564.272	603.8
564.698	612
565.103	603.4
565.508	632.2
565.935	612.4
566.34	603.8
566.745	610.8
567.172	611.2
567.577	626
567.982	613.4
568.409	604.2
568.815	595.2
569.22	604.2
569.626	596.4
570.053	593.8
570.459	588.8
570.865	601.2
571.292	600.2
571.698	603
572.104	578.2
572.531	587
572.937	600.8
573.343	591.6
573.75	589.8
574.177	591.8
574.583	603.2
574.99	588
575.396	597.8
575.824	581.6
576.231	577.2
576.637	577.6
577.065	598.4
577.472	579.4
577.879	574.2
578.286	590.2
578.714	576.8
579.121	578.6
579.528	580
579.935	580.8
580.364	576
580.771	563.8
581.178	565.2
581.585	573
582.014	571.4
582.421	572.6
582.829	557.4
583.236	574.6
583.644	559.6
584.073	563
584.481	558.8
584.889	560.2
585.296	569.2
585.726	567.8
586.134	558
586.542	557.4
586.95	582
587.358	550.8
587.787	560
588.196	561
588.604	560.6
589.012	566
589.421	557.4
589.851	544.6
590.259	565.4
590.668	560
591.076	586.2
591.485	543.4
591.894	549.6
592.324	563
592.733	566
593.142	542.6
593.551	542.6
593.96	583.8
594.369	541.6
594.8	539.6
595.209	544.8
595.618	537.4
596.028	537.8
596.437	539.8
596.847	542.4
597.256	547.4
597.687	550.4
598.097	541.2
598.507	541
598.917	548.8
599.327	551.2
599.736	547.8
600.146	545.2
600.556	536.8
600.988	550.6
601.398	532.6
601.808	549
602.219	533.4
602.629	539.4
603.039	536.6
603.45	558.2
603.86	538.6
604.271	541.2
604.703	536.4
605.114	536.4
605.525	540.6
605.935	543.6
606.346	558
606.757	539.8
607.168	532.8
607.579	527.2
607.99	535.4
608.402	532.2
608.813	536.2
609.224	527.2
609.636	523.4
610.047	524.2
610.48	534
610.892	544
611.303	539.4
611.715	541.8
612.127	533
612.539	533.4
612.95	532.8
613.362	532.8
613.774	525.2
614.186	526.2
614.599	530.6
615.011	544.4
615.423	532.2
615.835	534.2
616.248	526.2
616.66	528.4
617.073	527
617.485	532.6
617.898	536.6
618.311	528.8
618.723	533.2
619.136	557.8
619.549	543.4
619.962	551.2
620.375	532.2
620.788	534.6
621.201	527.8
621.614	532.6
622.028	532.4
622.441	532.2
622.854	545
623.268	526.6
623.681	538.8
624.095	535.2
624.509	537.2
624.922	538.2
625.336	518
625.728	533.6
626.142	543.6
626.556	542.4
626.97	543.4
627.384	531
627.799	526.6
628.213	546.2
628.627	530.6
629.041	526
629.456	519.2
629.87	532.2
630.285	540
630.699	537
631.093	522.2
631.507	530.8
631.922	532.2
632.337	542.2
632.752	525
633.167	525.6
633.582	531.4
633.997	523.4
634.412	520.2
634.806	523.8
635.221	519.4
635.637	533.2
636.052	510.6
636.468	523.2
636.883	548
637.299	526.8
637.715	509.4
638.109	523.8
638.525	521
638.941	538.8
639.357	526.2
639.773	525.2
640.189	514
640.584	522.8
641	522.8
641.416	514.2
641.832	507.2
642.249	516.4
642.665	518.2
643.06	523
643.477	526.8
643.894	510.4
644.31	518.2
644.727	519
645.123	514.4
645.54	506.6
645.957	512.2
646.374	529.6
646.77	524.4
647.187	550.2
647.604	521.6
648.021	508
648.439	514
648.835	518.6
649.252	519.2
649.67	522
650.088	512.8
650.484	522.2
650.902	530.2
651.32	527
651.738	518.4
652.134	513
652.552	529.4
652.971	526.6
653.389	519.4
653.786	526.6
654.204	528.8
654.622	516.2
655.019	518.6
655.438	522.8
655.857	518
656.275	517.8
656.673	506.6
657.091	523.4
657.51	505.6
657.908	519.2
658.327	532.8
658.746	504.6
659.144	518
659.563	525
659.982	521.4
660.38	503.4
660.8	516.6
661.219	525
661.617	519.8
662.037	509
662.457	524.8
662.855	509.2
663.275	535.4
663.695	517.4
664.094	509.4
664.514	515.8
664.934	506.6
665.333	516.2
665.753	506.6
666.152	511.6
666.572	499
666.993	523
667.392	511.6
667.812	511.4
668.212	508.8
668.632	512.2
669.053	510.6
669.453	519
669.874	519.8
670.273	509.8
670.694	502.4
671.116	521.2
671.515	515.6
671.937	518
672.337	509.2
672.758	513
673.158	516.8
673.58	506.6
673.98	512.2
674.402	521
674.824	516.6
675.224	512
675.646	508
676.047	514.6
676.469	513
676.869	514.2
677.292	512.2
677.693	507.4
678.115	504.6
678.516	510
678.939	518.8
679.34	513.4
679.762	515.8
680.164	516.6
680.586	512
680.988	519.4
681.411	533.6
681.812	507.4
682.236	502.2
682.637	503.4
683.061	505.2
683.462	507
683.864	505.4
684.288	517.8
684.69	504.6
685.114	522
685.516	504
685.94	504
686.342	518.8
686.766	512.8
687.168	515.6
687.571	524
687.995	509
688.398	500.6
688.822	508.6
689.225	519
689.628	524
690.052	507.4
690.456	514.2
690.88	507.4
691.284	506.4
691.687	511.6
692.112	508.2
692.515	498.4
692.919	512
693.344	510.2
693.747	503.8
694.173	505.2
694.577	522
694.98	511.4
695.406	501.8
695.81	512.2
696.214	511.4
696.64	512.8
697.044	507.6
697.448	513
697.874	497.8
698.279	494.8
698.684	504.6
699.11	500.6
699.514	507.4
699.919	500.6
700.324	498.4
700.75	512.4
701.156	499.4
701.561	519.2
701.987	507.4
702.393	515.6
702.798	512.6
703.203	502.6
703.63	497.4
704.036	494.4
704.442	507.4
704.847	501.4
705.274	507.6
705.68	511.6
706.086	508.8
706.492	504.8
706.92	502.6
707.326	509.4
707.732	506.8
708.139	497.6
708.545	498.8
708.973	501.4
709.38	506.4
709.786	499.4
710.193	522.4
710.6	508.2
711.028	496
711.435	502.6
711.842	508.8
712.249	494
712.656	504.6
713.064	508.8
713.492	502.2
713.9	500.8
714.307	509.2
714.715	503.2
715.123	509.4
715.53	507.6
715.938	515.4
716.367	504.6
716.775	513.4
717.184	504.6
717.592	517.4
718	509.6
718.408	536.4
718.816	546.2
719.225	516.2
719.633	499
720.042	502.6
720.472	507.4
720.881	523
721.29	512.2
721.699	500.6
722.108	509.8
722.517	508.6
722.926	504.8
723.335	519.8
723.744	499.2
724.154	511.2
724.563	506.4
724.973	508.4
725.382	511.4
725.792	509.8
726.202	498.6
726.612	512.6
727.022	502
727.432	502
779.813	509.2
780.223	540.8
780.634	506
781.044	498.4
781.454	502.6
781.865	514.4
782.276	504.2
782.686	511.8
783.097	507.4
783.508	508.2
783.919	503
784.33	516.6
784.741	515.4
785.152	497.4
785.563	496
785.974	497.2
786.386	510.6
786.776	501
787.188	503
787.599	494.4
788.011	507
788.423	507
788.835	489.8
789.247	490.8
789.659	491.2
790.071	497.2
790.483	531.2
790.874	501
791.286	502.6
791.699	496.2
792.111	502.2
792.524	499.6
792.937	500.6
793.349	494
793.741	496
794.154	503.2
794.567	516.4
794.98	506.6
795.393	488.6
795.785	521.4
796.198	494.2
796.612	500.4
797.026	500.6
797.439	486.2
797.831	498
798.245	497
798.659	502.4
799.073	497.2
799.487	502.6
799.88	502.8
800.294	503.2
800.708	501.4
801.123	503.4
801.516	512
801.93	491
802.345	496.8
802.76	499.2
803.153	515.2
803.568	512.8
803.983	513.2
804.377	506.2
804.792	494.2
805.207	491.6
805.601	505
806.016	533.8
806.432	493.8
806.826	520.4
807.242	511.4
807.658	501.4
808.052	504.6
808.468	497.4
808.884	500.6
809.279	504.4
809.695	504.8
810.111	519.4
810.506	502.8
810.922	518.6
811.339	500.4
811.734	508.4
812.151	495.6
812.546	503.2
812.963	496.8
813.38	503.2
813.776	500.4
814.193	520.8
814.589	503.8
815.006	500.8
815.402	490.6
815.82	501.6
816.237	505.2
816.633	503.2
817.051	494.8
817.448	499.8
817.866	493.2
818.262	511.2
818.68	500
819.077	492.2
819.495	504.4
819.892	527.4
820.311	496.2
820.708	503.4
821.127	500.2
821.524	510.4
821.943	506
822.34	520.4
822.759	501
823.157	497.4
823.576	517.8
823.974	509.4
824.393	591.6
824.791	496.8
825.189	493.2
825.609	506.4
826.007	504.4
826.427	494
826.826	495.8
827.246	507
827.644	494
828.043	513.2
828.463	494.6
828.862	506.4
829.261	502.8
829.682	495.2
830.081	505.6
830.502	502
830.901	516
831.301	500.4
831.722	492
832.121	498.4
832.521	505
832.943	507.6
833.342	500.4
833.742	500
834.164	499.2
834.564	495.4
834.965	502.6
835.386	499.6
835.787	497.4
836.188	507
836.588	495
837.01	497.4
837.411	485.6
837.812	502.8
838.213	501.8
838.636	499.8
839.037	552.8
839.438	500.2
839.84	502.4
840.263	508.4
840.664	503.4
841.066	492.2
841.468	506.8
841.891	508.2
842.293	504
842.695	505.8
843.098	507.6
843.5	496.6
843.902	503.4
844.326	508
844.729	498.2
845.131	509.6
845.534	502
845.937	519.6
846.34	518.4
846.764	492.8
847.167	498.8
847.571	496
847.974	496.8
848.377	488.4
848.781	530.6
849.184	511.4
849.588	504.6
849.992	494.6
850.396	498.4
850.821	515.8
851.225	494.4
851.63	492.8
852.034	504
