#lambda/nm	C1
208.295	466.4
208.67	437
209.045	392.6
209.419	404.6
209.794	544.8
210.169	527.6
210.544	621
210.919	535
211.295	522.2
211.67	536.6
212.045	531.8
212.421	535.6
212.796	564.4
213.172	527.4
213.547	524
213.923	532.8
214.299	524.2
214.675	545
215.051	538
215.427	543.2
215.803	549.8
216.179	536.6
216.555	537
216.932	548.4
217.308	539.6
217.684	535.4
218.061	533.2
218.438	541
218.814	532.4
219.191	544.2
219.568	529.4
219.945	532.8
220.322	544.6
220.699	543.2
221.076	544.8
221.453	540.6
221.83	524.8
222.208	535.2
222.585	531.2
222.962	533
223.34	538
223.717	536.8
224.095	531
224.473	536
224.851	532.4
225.229	531
225.607	545
225.985	536.2
226.363	534.8
226.741	546.2
227.119	532.8
227.497	549
227.876	524.6
228.254	543.6
228.633	548.4
229.011	535
229.39	543.2
229.769	539.4
230.148	543.8
230.527	549.8
230.905	532.4
231.284	544
231.664	525.4
232.043	545.4
232.422	542.8
232.801	535
233.181	537.8
233.56	537.6
233.94	533.6
234.319	522
234.699	538.2
235.079	570.4
235.458	569.8
235.838	557.4
236.218	530
236.598	535.6
236.978	526.6
237.358	535.4
237.738	535.4
238.119	543.4
238.499	520.6
238.88	542.6
239.26	545.2
239.641	533
240.021	535.8
240.402	534.6
240.783	529.6
241.163	538.6
241.544	535
241.925	545
242.306	556
242.687	531.8
243.069	541.6
243.45	548.2
243.831	535.8
244.212	533.2
244.594	562.4
244.975	540.8
245.357	536
245.739	524.2
246.12	539.8
246.502	544.4
246.884	531.2
247.266	534.8
247.648	528.4
248.03	553.6
248.412	536.8
248.794	545.2
249.176	531.6
249.559	543.6
249.941	528.8
250.323	532
250.706	532.8
251.089	540.8
251.471	531.8
251.854	537.4
252.237	538.8
252.62	540
253.002	541.8
253.385	531.8
253.769	552.4
254.152	540
254.535	547.2
254.918	531
255.301	540.4
255.685	540.8
256.068	531.2
256.452	553
256.835	538.4
257.219	546
257.603	546.4
257.986	523.4
258.37	539.8
258.754	522.2
259.138	534.2
259.522	543.8
259.906	534.8
260.29	540.2
260.675	530.2
261.059	528.6
261.443	527.4
261.828	533.6
262.212	535.4
262.597	523.2
262.981	530.4
263.366	537.2
263.751	544.8
264.136	533
264.521	537.8
264.906	531.2
265.291	549.8
265.676	536.8
266.061	535.6
266.446	552
266.831	543.2
267.217	558.2
267.602	546
267.987	542.2
268.373	533.2
268.759	544.6
269.144	536.8
269.53	539.8
269.916	532
270.302	535.2
270.688	543.6
271.074	540.6
271.46	551.2
271.846	563.8
272.232	535.8
272.618	535.2
273.004	535
273.391	552.4
273.777	546.2
274.164	540.8
274.55	550.2
274.937	544.2
275.324	535.4
275.71	541.4
276.097	545.6
276.484	527.8
276.871	534.4
277.258	541.2
277.645	525.6
278.032	539.6
278.419	531.6
278.807	548
279.194	529.8
279.581	525
279.969	533.4
280.356	544
280.744	535.6
281.131	563.8
281.519	545.6
281.907	532.8
282.295	530.8
282.682	547.2
283.07	540.6
283.458	546.4
283.846	551.4
284.235	550.8
284.623	540.6
285.011	534.6
285.399	548.4
285.788	536.2
286.176	530.6
286.565	551.4
286.953	541.2
287.342	536.6
287.731	528.6
288.119	533.2
288.508	532.2
288.897	536.8
289.286	530
289.675	538
290.064	546.6
290.453	532.8
290.821	544
291.21	545
291.599	526.6
291.989	537.6
292.378	549
292.768	550.6
293.157	536.2
293.547	543
293.936	537.4
294.326	533.8
294.716	542.8
295.106	523.6
295.496	540
295.886	535.2
296.276	534
296.666	522
297.056	529.4
297.446	521
297.836	537.6
298.227	529.8
298.617	534.6
299.008	550.8
299.398	525.6
299.789	527.6
300.179	542.4
300.57	545.6
300.961	529.2
301.352	529
301.742	541.4
302.133	541.6
302.524	535.2
302.915	545.4
303.307	531.6
303.698	548.4
304.089	543
304.48	531.8
304.872	540
305.263	523.8
305.655	533.8
306.046	536.8
306.438	534
306.829	527.8
307.221	545.2
307.613	534.4
308.005	548
308.397	543.8
308.789	550
309.181	559.2
309.573	550.2
309.965	542.8
310.357	535.8
310.749	543
311.142	533.6
311.534	535.2
311.926	545.8
312.319	533.6
312.711	531.4
313.104	551.2
313.497	532.6
313.889	555.8
314.282	543.6
314.675	544.2
315.068	539
315.461	535
315.854	555.8
316.247	542.2
316.64	530.2
317.033	531
317.405	546.6
317.798	536.4
318.192	539.8
318.585	535.4
318.979	535.6
319.372	531.2
319.766	534.4
320.16	548
320.553	547.4
320.947	555
321.341	532.4
321.735	534.6
322.129	527
322.523	555.6
322.917	533.2
323.311	544.6
323.705	535.2
324.099	543
324.494	555
324.888	551.2
325.282	537
325.677	543.8
326.071	539.8
326.466	549.2
326.861	539.6
327.255	547.4
327.65	544.2
328.045	547.4
328.44	544.4
328.835	538.4
329.23	530.8
329.625	559.6
330.02	533.4
330.415	554
330.81	533.2
331.206	541.2
331.601	537.4
331.996	544
332.37	562.8
332.766	530.4
333.161	553.8
333.557	531.2
333.953	531
334.348	719.6
334.744	544
335.14	528
335.536	537.8
335.932	549.2
336.328	535.8
336.724	548
337.12	536.8
337.516	535.8
337.913	541.8
338.309	544
338.705	540
339.102	544.6
339.498	535.8
339.895	549.2
340.291	527.8
340.688	547.8
341.085	530.8
341.481	532
341.878	531.4
342.275	551.4
342.672	526
343.069	535.4
343.466	521.2
343.842	541.6
344.239	533.8
344.636	533
345.033	529.8
345.431	534.2
345.828	535.8
346.225	527
346.623	562.8
347.02	540.8
347.418	543.8
347.816	549.8
348.213	527.6
348.611	537
349.009	527.2
349.407	540.2
349.805	526.4
350.203	526.2
350.601	548.4
350.999	538
351.397	586.4
351.795	532.6
352.193	543.4
352.57	544.2
352.969	543.6
353.367	526.2
353.766	526.2
354.164	528.8
354.563	541.6
354.961	526.4
355.36	528
355.759	531.2
356.158	523.2
356.557	529.2
356.956	519.6
357.355	516.6
357.754	533.2
358.153	531.8
358.552	543.4
358.951	525.8
359.35	543
359.75	532.6
360.149	525.6
360.527	517
360.926	526.8
361.326	530.8
361.726	526.8
362.125	532.8
362.525	541.8
362.925	535.4
363.325	532.8
363.724	540
364.124	530.8
364.524	530.2
364.924	532.4
365.324	541.6
365.725	518.2
366.125	531
366.525	532.4
366.904	529.8
367.304	525.2
367.705	537
368.105	540.2
368.506	527.4
368.906	539.8
369.307	532.8
369.708	534.4
370.108	527.8
370.509	544
370.91	524.4
371.311	529.6
371.712	532
372.113	530.8
372.514	521.8
372.894	529
373.295	520
373.696	545.2
374.097	538
374.499	554.4
374.9	540.2
375.301	527
375.703	533.2
376.105	526
376.506	539
376.908	536.4
377.309	533
377.711	537.2
378.113	527.8
378.493	531
378.895	529.2
379.297	531.8
379.699	514.6
380.102	531.2
380.504	528.6
380.906	524.6
381.308	545.8
381.71	525.2
382.113	536.4
382.515	518.4
382.918	535.8
383.299	528.6
383.701	536.4
384.104	527.2
384.507	510
384.909	529
385.312	523
385.715	525.6
386.118	529.8
386.521	514.2
386.924	535.4
387.327	521
387.709	517
388.112	516
388.515	521
388.918	526.6
389.322	532.2
389.725	522.6
390.129	547.6
390.532	530.8
390.936	523.4
391.339	521.8
391.743	523.6
392.125	518.6
392.529	543.4
392.933	542.6
393.337	528.6
393.74	523.2
394.144	523.6
394.548	512.8
394.953	523.6
395.357	528.8
395.761	529.8
396.144	527
396.548	527.4
396.952	528
397.357	529.4
397.761	521
398.166	521
398.57	519.4
398.975	516.8
399.379	526.2
399.763	568.6
400.168	529.2
400.572	522
400.977	524
401.382	542.2
401.787	526.8
402.192	538.8
402.597	536.4
403.002	525
403.386	532
403.791	541.4
404.197	520.6
404.602	526.4
405.007	530.8
405.413	522.8
405.818	533.4
406.224	521.8
406.608	522.8
407.014	520.4
407.42	537.2
407.825	525.2
408.231	525.2
408.637	532.6
409.043	534.8
409.449	522.4
409.834	528.2
410.24	527.6
410.646	539
411.052	536.8
411.458	530.4
411.865	531.6
412.271	535.6
412.677	527.4
413.062	532
413.469	523.2
413.875	552.4
414.282	534
414.689	537.4
415.095	531.6
415.502	518.8
415.888	525.8
416.294	521
416.701	556
417.108	526.6
417.515	535.6
417.923	530.4
418.33	546.8
418.715	538.6
419.123	525.2
419.53	523.6
419.937	532.4
420.345	543.6
420.752	525.6
421.16	542.8
421.546	529.4
421.953	534.2
422.361	522.8
422.769	525.2
423.177	524.8
423.585	552.6
423.992	541.8
424.379	539.2
424.787	535.2
425.195	546.6
425.603	530
426.011	542
426.419	546.4
426.806	539
427.214	540.6
427.623	545.6
428.031	555.2
428.44	557.8
428.848	556.4
429.235	559.6
429.644	557
430.053	564.6
430.461	585.8
430.87	600.4
431.279	605
431.666	601.6
432.075	625.2
432.484	636.8
432.893	643.2
433.302	667.2
433.711	716.8
434.099	711.6
434.508	712.4
434.918	728.4
435.327	768
435.737	782.6
436.125	790.2
436.534	819.8
436.944	844.4
437.353	868.6
437.763	906
438.173	910.6
438.561	933.4
438.971	939.4
439.381	971.4
439.791	986.8
440.201	982.4
440.589	1020.6
440.999	1038.4
441.409	1057.4
441.819	1065.8
442.23	1099.2
442.619	1105.2
443.029	1125.6
443.439	1154
443.85	1161.6
444.26	1162
444.649	1168.8
445.06	1173.6
445.471	1174.8
445.881	1199.6
446.292	1218.6
446.682	1243.2
447.092	1224.6
447.503	1286.2
447.914	1246
448.325	1258
448.715	1250.8
449.126	1258.4
449.537	1253.8
449.948	1267.2
450.338	1272.4
450.75	1284.6
451.161	1290.4
451.572	1291.6
451.984	1291
452.374	1297.6
452.786	1302.8
453.197	1306.8
453.609	1304.6
453.999	1301.6
454.411	1289.2
454.823	1314.4
455.235	1288
455.647	1301
456.037	1318.8
456.449	1310.4
456.862	1320
457.274	1317.2
457.665	1322.4
458.077	1307.6
458.489	1337.8
458.902	1316
459.293	1324.6
459.705	1312.6
460.118	1307.2
460.53	1315.2
460.921	1343.2
461.334	1330.2
461.747	1325.4
462.16	1342.8
462.551	1341.2
462.964	1342.2
463.377	1314
463.79	1337.6
464.182	1352.8
464.595	1312.4
465.008	1330.8
465.421	1335.8
465.813	1323.2
466.226	1327.2
466.64	1336.6
467.053	1361.4
467.445	1335
467.859	1342.2
468.272	1335.6
468.686	1342.4
469.078	1340
469.492	1325
469.906	1347.2
470.298	1342.2
470.712	1323
471.126	1349.4
471.54	1314
471.933	1315.8
472.347	1314.6
472.761	1310
473.175	1324.4
473.568	1316.6
473.982	1297.2
474.397	1307
474.79	1291.8
475.204	1314
475.619	1306
476.033	1307.2
476.426	1280
476.841	1275.4
477.256	1306
477.649	1272
478.064	1271
478.479	1270.2
478.872	1260.4
479.287	1256.4
479.702	1260.8
480.118	1252.8
480.511	1255.8
480.927	1247.8
481.342	1239.6
481.736	1236.2
482.151	1225.6
482.566	1237
482.96	1231
483.376	1224.4
483.792	1207.6
484.186	1209
484.602	1217.4
485.017	1199.6
485.412	1198
485.827	1208.6
486.243	1182.8
486.638	1212
487.054	1199
487.47	1184.2
487.865	1165
488.281	1166.4
488.697	1161.8
489.092	1157.8
489.508	1146.8
489.925	1159.6
490.32	1132.8
490.736	1137.8
491.153	1132
491.548	1125
491.964	1138.6
492.381	1096.8
492.776	1116.4
493.193	1109.6
493.61	1114.2
494.006	1105
494.422	1111.2
494.84	1089.2
495.235	1096
495.652	1090
496.069	1080
496.465	1071.8
496.883	1067
497.3	1079.6
497.696	1054.8
498.113	1053.2
498.509	1025.2
498.927	1025.6
499.344	1024.6
499.741	1035.6
500.158	1022
500.576	1030.6
500.973	1014
501.39	994
501.787	1006.2
502.205	1007.6
502.623	994.6
503.02	994.8
503.438	989.2
503.856	988.4
504.253	979.2
504.671	968
505.068	971
505.486	975.8
505.905	980
506.302	965
506.72	960.4
507.118	940.4
507.536	942
507.955	942.6
508.352	943.8
508.771	941.2
509.169	926.4
509.587	918.8
510.006	916.4
510.404	911.8
510.823	917.2
511.221	900.2
511.64	906.4
512.038	897.4
512.457	896.6
512.877	889
513.275	880.4
513.694	888.8
514.092	880.2
514.512	870.6
514.91	873.2
515.33	873
515.749	864.6
516.148	871.2
516.568	857.8
516.966	857
517.386	837.4
517.785	846.2
518.205	842
518.603	836
519.024	832.4
519.444	838.2
519.843	828.2
520.263	839.2
520.662	835.4
521.082	803.2
521.481	826.2
521.902	815.6
522.301	811.2
522.722	807.6
523.121	808.8
523.542	792.2
523.963	797.4
524.362	788.8
524.783	773
525.183	788.6
525.604	784
526.003	771
526.425	774
526.824	784.2
527.246	774.8
527.646	770.8
528.067	757.4
528.467	765
528.888	762
529.289	755.2
529.71	751
530.11	746.8
530.532	745
530.932	738.8
531.354	727.6
531.755	769.6
532.176	744.4
532.577	729
532.999	733.2
533.4	732.4
533.822	736.6
534.223	724.2
534.645	712
535.046	713.4
535.468	711.4
535.869	722
536.292	706.8
536.693	737
537.115	709.8
537.516	701
537.939	702.8
538.34	706.6
538.742	706.4
539.165	704.2
539.566	703.6
539.989	689.4
540.391	689.8
540.814	694.2
541.216	692.6
541.639	698.4
542.041	695.2
542.464	684.6
542.866	675
543.268	660
543.691	675.8
544.093	696
544.517	696.2
544.919	660.8
545.343	692
545.745	660
546.147	672.8
546.571	669.4
546.974	659.8
547.398	659.8
547.8	674.8
548.224	665.2
548.627	644.8
549.03	657.6
549.454	642.6
549.857	633.8
550.281	654.4
550.684	644.4
551.087	656.8
551.512	646.8
551.915	657.4
552.34	641.4
552.743	642.4
553.146	636.4
553.571	640.2
553.975	648.8
554.399	630.2
554.803	673.6
555.207	622.6
555.632	625.8
556.036	635.8
556.461	615
556.865	633
557.268	623
557.694	630.6
558.098	635.4
558.502	617.2
558.927	611.8
559.332	625.2
559.736	624
560.162	612.8
560.566	613
560.992	619.4
561.396	606.4
561.801	612.2
562.227	605.8
562.631	611.2
563.036	611.6
563.462	609.8
563.867	611
564.272	592.8
564.698	600.8
565.103	593.2
565.508	614.2
565.935	597
566.34	598
566.745	603
567.172	600.2
567.577	609.4
567.982	597.8
568.409	595
568.815	587
569.22	593.4
569.626	592.2
570.053	579.4
570.459	590.2
570.865	599.4
571.292	596
571.698	586
572.104	569.4
572.531	572.2
572.937	586.8
573.343	581
573.75	571.2
574.177	583
574.583	592.8
574.99	584
575.396	584
575.824	570.4
576.231	583
576.637	571.4
577.065	594.6
577.472	571.8
577.879	583.8
578.286	582.2
578.714	569.6
579.121	565.6
579.528	573.2
579.935	580
580.364	575
580.771	557.8
581.178	552
581.585	566.6
582.014	564.4
582.421	569.4
582.829	559
583.236	557.6
583.644	564.6
584.073	555.2
584.481	567.8
584.889	552.8
585.296	561.6
585.726	558.8
586.134	555.2
586.542	552.2
586.95	572.2
587.358	558.4
587.787	549
588.196	551
588.604	558.2
589.012	554.2
589.421	543.8
589.851	549.6
590.259	563.2
590.668	547.6
591.076	583.8
591.485	552.8
591.894	558.6
592.324	569.8
592.733	563.6
593.142	541.4
593.551	543.2
593.96	581.8
594.369	551.2
594.8	548.2
595.209	556.6
595.618	534.4
596.028	551
596.437	553
596.847	556.6
597.256	563
597.687	567
598.097	553.2
598.507	544.4
598.917	562
599.327	561.2
599.736	570.2
600.146	568.6
600.556	566.8
600.988	576
601.398	559.2
601.808	576
602.219	554.6
602.629	570.4
603.039	571.6
603.45	595.8
603.86	571.8
604.271	590.4
604.703	579.6
605.114	578.6
605.525	584.6
605.935	593.8
606.346	610.4
606.757	592.2
607.168	586.4
607.579	591.6
607.99	612.4
608.402	606.4
608.813	607.2
609.224	608.8
609.636	609.4
610.047	606.6
610.48	627
610.892	635.2
611.303	633
611.715	631.6
612.127	636.6
612.539	638
612.95	643.2
613.362	640.6
613.774	641.4
614.186	646.4
614.599	649.2
615.011	672.2
615.423	667.4
615.835	670.8
616.248	665.2
616.66	682.2
617.073	669.6
617.485	672.6
617.898	684.2
618.311	676.4
618.723	695.2
619.136	718.8
619.549	708
619.962	722
620.375	695.8
620.788	711.4
621.201	695.2
621.614	711
622.028	705.4
622.441	718.2
622.854	729
623.268	713.6
623.681	728.4
624.095	714
624.509	724.8
624.922	727.8
625.336	708.2
625.728	722.4
626.142	726.2
626.556	724.4
626.97	725
627.384	717.6
627.799	715.2
628.213	734.6
628.627	714.8
629.041	727
629.456	724.4
629.87	705.2
630.285	719.4
630.699	729.8
631.093	714.4
631.507	715.4
631.922	702.4
632.337	715
632.752	699.4
633.167	700.8
633.582	698
633.997	689.4
634.412	683.2
634.806	693.4
635.221	685
635.637	699.8
636.052	679.6
636.468	682.6
636.883	694.6
637.299	677
637.715	664
638.109	671
638.525	663
638.941	680.4
639.357	676
639.773	681.2
640.189	662.2
640.584	652.8
641	664
641.416	641
641.832	647.6
642.249	656.6
642.665	655.6
643.06	651.4
643.477	652.8
643.894	624.2
644.31	641.2
644.727	648.6
645.123	631.2
645.54	622.8
645.957	628.8
646.374	622.6
646.77	617.6
647.187	637.2
647.604	615.8
648.021	600.4
648.439	604.2
648.835	617.6
649.252	620
649.67	607.8
650.088	607.6
650.484	603.4
650.902	605.8
651.32	606.4
651.738	591.2
652.134	591.4
652.552	599.6
652.971	594.6
653.389	592.8
653.786	602
654.204	589.4
654.622	587
655.019	581.4
655.438	590.6
655.857	574.2
656.275	581
656.673	576.8
657.091	582.8
657.51	572.2
657.908	571
658.327	584.8
658.746	569
659.144	556.2
659.563	582.2
659.982	569.8
660.38	556.4
660.8	570.6
661.219	572.4
661.617	565.6
662.037	556.6
662.457	564.8
662.855	545
663.275	581.8
663.695	551.4
664.094	557.2
664.514	559.4
664.934	551.4
665.333	560
665.753	543.8
666.152	544.4
666.572	535.8
666.993	554
667.392	541
667.812	540.8
668.212	542.6
668.632	554.4
669.053	541.8
669.453	541.8
669.874	540.4
670.273	540.8
670.694	527
671.116	547.4
671.515	536
671.937	533
672.337	531.4
672.758	536
673.158	542.8
673.58	526.6
673.98	532.6
674.402	538.4
674.824	531.8
675.224	529.2
675.646	524.2
676.047	527.8
676.469	532.4
676.869	527.6
677.292	537.2
677.693	522.2
678.115	518.2
678.516	532.6
678.939	530
679.34	529.8
679.762	537.8
680.164	532
680.586	516.4
680.988	525.6
681.411	539.6
681.812	522.8
682.236	516.8
682.637	507.6
683.061	505.4
683.462	520.2
683.864	517.4
684.288	522.4
684.69	508
685.114	527.4
685.516	520
685.94	513.6
686.342	527
686.766	510
687.168	515.4
687.571	530.6
687.995	521
688.398	507.8
688.822	510.2
689.225	536
689.628	527.6
690.052	521.2
690.456	526.8
690.88	509.4
691.284	506.2
691.687	513.6
692.112	509
692.515	506.4
692.919	516.2
693.344	515.4
693.747	514.8
694.173	501.2
694.577	522.4
694.98	516.4
695.406	504.2
695.81	518.2
696.214	520
696.64	512.6
697.044	509.6
697.448	510.4
697.874	519.6
698.279	513.2
698.684	507.8
699.11	504.6
699.514	508.4
699.919	508
700.324	511
700.75	508.6
701.156	514.2
701.561	514.6
701.987	515.6
702.393	520
702.798	520.6
703.203	509.4
703.63	504.8
704.036	511
704.442	509
704.847	501.6
705.274	520
705.68	512
706.086	521.8
706.492	507.8
706.92	507.8
707.326	514.8
707.732	511
708.139	504.2
708.545	509.2
708.973	506.8
709.38	518.6
709.786	500.8
710.193	526.6
710.6	516.8
711.028	499.2
711.435	505.2
711.842	516.2
712.249	501.8
712.656	515.8
713.064	520
713.492	503.4
713.9	506
714.307	511.2
714.715	515
715.123	509.8
715.53	511.4
715.938	520.8
716.367	513.2
716.775	509.2
717.184	494.6
717.592	502.4
718	509.6
718.408	540.6
718.816	547.2
719.225	513.4
719.633	503.8
720.042	503.2
720.472	511.8
720.881	516.4
721.29	512.6
721.699	501.8
722.108	504.4
722.517	511.6
722.926	507.6
723.335	516.4
723.744	501.2
724.154	505
724.563	508.6
724.973	508.2
725.382	509.8
725.792	503.8
726.202	502
726.612	508.8
727.022	501.8
727.432	493.6
779.813	508.4
780.223	534.4
780.634	498.6
781.044	498
781.454	503.4
781.865	512.4
782.276	488.6
782.686	504.2
783.097	501
783.508	502.4
783.919	505.6
784.33	516.2
784.741	514
785.152	504.2
785.563	494.6
785.974	500.2
786.386	511
786.776	501.2
787.188	501.6
787.599	504
788.011	512.2
788.423	504.8
788.835	497.8
789.247	495
789.659	500.8
790.071	497.2
790.483	544.8
790.874	495.8
791.286	507
791.699	502.6
792.111	496.4
792.524	510.4
792.937	496
793.349	496
793.741	496
794.154	506
794.567	518.8
794.98	500
795.393	496
795.785	508.2
796.198	500.2
796.612	500.8
797.026	504.6
797.439	493.8
797.831	497.4
798.245	492.8
798.659	501
799.073	498
799.487	488.8
799.88	509.4
800.294	498.6
800.708	509.6
801.123	504.4
801.516	520.4
801.93	491.6
802.345	486.8
802.76	498.6
803.153	503.6
803.568	507.6
803.983	514.4
804.377	504
804.792	492.8
805.207	491
805.601	501.2
806.016	527.4
806.432	501.2
806.826	526
807.242	516.2
807.658	505
808.052	499.8
808.468	498.2
808.884	501.4
809.279	503.6
809.695	513.4
810.111	520
810.506	501.4
810.922	516.2
811.339	499.4
811.734	512.4
812.151	500.6
812.546	497.8
812.963	498.8
813.38	501
813.776	511.2
814.193	516.6
814.589	497.2
815.006	497
815.402	500
815.82	500.8
816.237	505.4
816.633	513
817.051	493.6
817.448	508.2
817.866	491
818.262	513.8
818.68	499.2
819.077	496.4
819.495	503.6
819.892	532
820.311	500
820.708	505.2
821.127	496.4
821.524	511.2
821.943	502.4
822.34	522.4
822.759	500.6
823.157	503.4
823.576	512.2
823.974	510.4
824.393	588.4
824.791	500.6
825.189	495.2
825.609	503.2
826.007	503.2
826.427	496.6
826.826	498.2
827.246	502.2
827.644	492.8
828.043	508
828.463	499.6
828.862	506.4
829.261	502
829.682	492.6
830.081	507.4
830.502	493
830.901	499
831.301	496.2
831.722	486
832.121	499
832.521	498.2
832.943	502.6
833.342	501.8
833.742	498
834.164	500.6
834.564	491.6
834.965	492.6
835.386	501.8
835.787	500.8
836.188	504
836.588	502.2
837.01	492.8
837.411	492.2
837.812	504.2
838.213	495.4
838.636	492
839.037	554.6
839.438	496.2
839.84	503.2
840.263	501.2
840.664	503
841.066	500.8
841.468	498
841.891	497.6
842.293	509.4
842.695	500.6
843.098	512.2
843.5	498.2
843.902	505
844.326	506.4
844.729	504.8
845.131	510.8
845.534	505.8
845.937	514
846.34	515.8
846.764	496
847.167	505
847.571	495.2
847.974	495.2
848.377	499.6
848.781	531.6
849.184	514.2
849.588	497.2
849.992	494.4
850.396	506.8
850.821	518
851.225	501.2
851.63	496.4
852.034	514.2
852.438	499.8
852.843	527
853.247	500.2
853.652	488.8
