#lambda/nm	C1
208.295	467.8
208.67	432.2
209.045	395.8
209.419	399.8
209.794	532.4
210.169	526
210.544	627.8
210.919	546.2
211.295	532
211.67	539.2
212.045	537.4
212.421	529.2
212.796	565
213.172	522
213.547	533.4
213.923	534
214.299	538.8
214.675	542.6
215.051	536.8
215.427	544.2
215.803	552.4
216.179	540
216.555	526.8
216.932	541.8
217.308	536.8
217.684	539.6
218.061	541
218.438	547.6
218.814	532
219.191	552.4
219.568	533.4
219.945	536
220.322	543.4
220.699	539.4
221.076	553
221.453	547.2
221.83	534.6
222.208	530.4
222.585	531.6
222.962	537.4
223.34	541.4
223.717	530.8
224.095	530.8
224.473	536.8
224.851	536.6
225.229	534
225.607	552.4
225.985	533.4
226.363	541.6
226.741	531
227.119	534.6
227.497	547
227.876	527
228.254	539
228.633	551.6
229.011	541
229.39	546.2
229.769	545.4
230.148	536.4
230.527	554.8
230.905	536.6
231.284	542
231.664	529.6
232.043	552.4
232.422	544.2
232.801	529.6
233.181	537.8
233.56	536
233.94	535.2
234.319	525.6
234.699	530.8
235.079	567.4
235.458	565.4
235.838	548.8
236.218	528.2
236.598	530.2
236.978	528.4
237.358	536.4
237.738	534.6
238.119	546.4
238.499	528.2
238.88	537.4
239.26	541.8
239.641	530
240.021	540.8
240.402	539.2
240.783	535.4
241.163	544.8
241.544	542.6
241.925	528.4
242.306	554
242.687	533.8
243.069	537.4
243.45	541.6
243.831	529.6
244.212	540.8
244.594	573.2
244.975	544.4
245.357	541
245.739	532.2
246.12	539.2
246.502	549.2
246.884	535.6
247.266	539.6
247.648	538.6
248.03	556.6
248.412	538.6
248.794	538.6
249.176	535.2
249.559	546.6
249.941	527
250.323	531
250.706	531.8
251.089	528.6
251.471	541.2
251.854	542
252.237	539.6
252.62	544.4
253.002	541
253.385	542.6
253.769	551.4
254.152	537
254.535	543.8
254.918	533.4
255.301	528.8
255.685	538.6
256.068	529.2
256.452	557.8
256.835	550.4
257.219	553.6
257.603	550.6
257.986	526.2
258.37	541.4
258.754	527.8
259.138	539.6
259.522	547.2
259.906	530.4
260.29	538
260.675	534.8
261.059	545.2
261.443	532
261.828	545.2
262.212	539.6
262.597	521.8
262.981	537.4
263.366	545.6
263.751	541.2
264.136	529.4
264.521	537.2
264.906	533.4
265.291	556
265.676	534.8
266.061	542.2
266.446	550.8
266.831	537.2
267.217	551.4
267.602	542.4
267.987	538.4
268.373	537.4
268.759	540.6
269.144	544.8
269.53	532.6
269.916	534
270.302	531.4
270.688	539.8
271.074	540.8
271.46	546.8
271.846	558
272.232	533.6
272.618	533
273.004	542.2
273.391	547.8
273.777	545.6
274.164	538.6
274.55	546
274.937	538.6
275.324	536.6
275.71	547.8
276.097	546.4
276.484	529.6
276.871	541.6
277.258	537.2
277.645	531.4
278.032	531.4
278.419	536.6
278.807	541.6
279.194	531
279.581	529.6
279.969	539.2
280.356	533.6
280.744	540.2
281.131	553
281.519	538
281.907	534.2
282.295	535.4
282.682	543.8
283.07	536
283.458	547.4
283.846	545.6
284.235	548.4
284.623	536.8
285.011	529.4
285.399	547
285.788	538.8
286.176	528.4
286.565	546
286.953	532.6
287.342	539.8
287.731	529.8
288.119	529.2
288.508	537.6
288.897	539.2
289.286	528.2
289.675	543.2
290.064	551
290.453	535.2
290.821	543
291.21	548.6
291.599	534.8
291.989	541.4
292.378	543.2
292.768	548
293.157	543
293.547	550.8
293.936	533.8
294.326	531.8
294.716	541.6
295.106	535.6
295.496	535.6
295.886	533.6
296.276	537
296.666	535.6
297.056	534.6
297.446	529.8
297.836	546.6
298.227	535.6
298.617	536.2
299.008	545.6
299.398	533.4
299.789	532.8
300.179	538.2
300.57	551.8
300.961	535.6
301.352	535.2
301.742	544.6
302.133	539.4
302.524	540
302.915	541
303.307	535.2
303.698	549.4
304.089	546
304.48	532.8
304.872	544.2
305.263	541.2
305.655	531.8
306.046	554.4
306.438	541.6
306.829	534.8
307.221	552
307.613	547.4
308.005	553.8
308.397	549.8
308.789	554.4
309.181	555.6
309.573	556.6
309.965	543.8
310.357	533.8
310.749	548.2
311.142	539.8
311.534	542
311.926	549.4
312.319	535
312.711	536.2
313.104	543.4
313.497	539.4
313.889	577.4
314.282	557.2
314.675	557.8
315.068	543.6
315.461	542
315.854	567.4
316.247	551.8
316.64	542.4
317.033	538.6
317.405	545.6
317.798	532.4
318.192	542.6
318.585	534
318.979	541.8
319.372	532.6
319.766	541.4
320.16	547.4
320.553	556.8
320.947	552.8
321.341	540.4
321.735	538.8
322.129	527.2
322.523	556
322.917	538
323.311	550.6
323.705	535
324.099	538.2
324.494	544.2
324.888	539.6
325.282	540.6
325.677	548.2
326.071	539.4
326.466	549
326.861	538
327.255	556.4
327.65	552.2
328.045	548.8
328.44	540
328.835	533.6
329.23	529.6
329.625	562.4
330.02	539.8
330.415	551
330.81	534.2
331.206	540.2
331.601	527.8
331.996	542.4
332.37	553
332.766	527.2
333.161	558.6
333.557	531.4
333.953	536.6
334.348	757
334.744	530.6
335.14	532.4
335.536	534.4
335.932	546.8
336.328	528.4
336.724	544.8
337.12	529.4
337.516	537.6
337.913	534.2
338.309	549.4
338.705	536.6
339.102	542.8
339.498	531.8
339.895	552.4
340.291	538.6
340.688	545.4
341.085	529.4
341.481	539.8
341.878	541
342.275	555.4
342.672	533
343.069	526.4
343.466	525.4
343.842	544.6
344.239	535.6
344.636	534.6
345.033	529.2
345.431	529.4
345.828	537.6
346.225	535
346.623	567.8
347.02	535.2
347.418	544.6
347.816	551.6
348.213	529.6
348.611	538.8
349.009	528.6
349.407	548.2
349.805	525
350.203	525.6
350.601	540.6
350.999	534.8
351.397	563.8
351.795	549.4
352.193	538
352.57	540.6
352.969	547.4
353.367	529
353.766	534.8
354.164	535.6
354.563	541.4
354.961	530
355.36	536.2
355.759	535
356.158	524
356.557	533
356.956	520.6
357.355	526.6
357.754	534.6
358.153	532.6
358.552	550.8
358.951	527.6
359.35	545.4
359.75	528.2
360.149	524
360.527	525.2
360.926	532.4
361.326	539.6
361.726	532.8
362.125	530
362.525	538.4
362.925	531
363.325	538.6
363.724	529.8
364.124	524.4
364.524	526.6
364.924	540.4
365.324	545.2
365.725	526.6
366.125	536.6
366.525	534.6
366.904	519.8
367.304	519.4
367.705	545.8
368.105	536.8
368.506	529
368.906	521
369.307	529.4
369.708	529.2
370.108	521.8
370.509	533.8
370.91	523.6
371.311	537.8
371.712	530.8
372.113	524.8
372.514	517
372.894	526.6
373.295	527.4
373.696	542
374.097	539
374.499	562
374.9	532.6
375.301	528.2
375.703	532.6
376.105	531.2
376.506	534.2
376.908	531.4
377.309	527.6
377.711	521.8
378.113	524.4
378.493	524.8
378.895	517.6
379.297	542.4
379.699	519.4
380.102	533.4
380.504	527.2
380.906	534
381.308	550.2
381.71	523.4
382.113	538
382.515	530.6
382.918	534.4
383.299	524.8
383.701	537.6
384.104	532.2
384.507	512
384.909	523.8
385.312	522.8
385.715	517
386.118	527.2
386.521	520.8
386.924	540.4
387.327	524
387.709	517.6
388.112	520.6
388.515	528
388.918	531.2
389.322	532.6
389.725	527.8
390.129	545.2
390.532	532.6
390.936	526.6
391.339	526.4
391.743	534.8
392.125	524.4
392.529	537.6
392.933	535.4
393.337	529.6
393.74	529.6
394.144	536.4
394.548	524.2
394.953	529
395.357	532.8
395.761	531.2
396.144	527.6
396.548	530.6
396.952	526.6
397.357	533.2
397.761	521.6
398.166	532
398.57	532.8
398.975	528.4
399.379	533.4
399.763	570.8
400.168	527.2
400.572	533.2
400.977	530.2
401.382	536
401.787	540
402.192	532
402.597	547
403.002	522.2
403.386	531.2
403.791	545.4
404.197	522.6
404.602	534.6
405.007	529.6
405.413	521.4
405.818	530
406.224	529
406.608	518.4
407.014	524.4
407.42	544.6
407.825	526.8
408.231	538.8
408.637	533.8
409.043	542.6
409.449	523.8
409.834	528.8
410.24	532
410.646	542
411.052	541.8
411.458	534.8
411.865	526
412.271	533.2
412.677	530.4
413.062	538.8
413.469	527.4
413.875	552.4
414.282	536.4
414.689	533
415.095	535.4
415.502	521.2
415.888	542.6
416.294	522.8
416.701	556.2
417.108	522.8
417.515	534.4
417.923	525
418.33	542
418.715	540.6
419.123	527.6
419.53	524.4
419.937	532.6
420.345	543.8
420.752	525.2
421.16	546
421.546	528
421.953	526.4
422.361	523.6
422.769	533.4
423.177	527.6
423.585	547.6
423.992	542.6
424.379	533.4
424.787	537.6
425.195	551.8
425.603	536.4
426.011	542.2
426.419	541.4
426.806	531.6
427.214	531.8
427.623	541.4
428.031	548.4
428.44	546.6
428.848	543.4
429.235	560.8
429.644	560.6
430.053	568.8
430.461	577.2
430.87	600
431.279	599.8
431.666	590.6
432.075	609.4
432.484	629
432.893	639.8
433.302	660.4
433.711	710.6
434.099	696.8
434.508	714
434.918	729.2
435.327	752.2
435.737	765.2
436.125	789.4
436.534	814.6
436.944	840.2
437.353	855.8
437.763	893.6
438.173	896.6
438.561	932
438.971	919.2
439.381	963.2
439.791	980.4
440.201	989
440.589	1015.4
440.999	1037.2
441.409	1047.6
441.819	1069
442.23	1096.2
442.619	1103.2
443.029	1106.4
443.439	1121.6
443.85	1142.6
444.26	1145.2
444.649	1153.6
445.06	1153.8
445.471	1172.6
445.881	1197
446.292	1210
446.682	1215.2
447.092	1194.8
447.503	1262.8
447.914	1234
448.325	1227.6
448.715	1229
449.126	1220.4
449.537	1242.8
449.948	1236
450.338	1264.4
450.75	1264
451.161	1270.6
451.572	1277
451.984	1280.6
452.374	1270
452.786	1273.8
453.197	1296.2
453.609	1295.8
453.999	1275.2
454.411	1280
454.823	1299.8
455.235	1307.8
455.647	1300.8
456.037	1323
456.449	1303.4
456.862	1317.2
457.274	1317.2
457.665	1319.4
458.077	1313.6
458.489	1354.4
458.902	1328.6
459.293	1319.6
459.705	1331.8
460.118	1307.2
460.53	1328.2
460.921	1320.6
461.334	1321.6
461.747	1331.6
462.16	1328
462.551	1317.8
462.964	1325.2
463.377	1306.2
463.79	1320.6
464.182	1327.8
464.595	1320
465.008	1326
465.421	1329.2
465.813	1324.4
466.226	1320
466.64	1320
467.053	1370.8
467.445	1349.4
467.859	1368.8
468.272	1330.4
468.686	1348.2
469.078	1330.2
469.492	1320.8
469.906	1337.2
470.298	1347.6
470.712	1331.6
471.126	1341.2
471.54	1307.2
471.933	1322.6
472.347	1302
472.761	1295.2
473.175	1298
473.568	1301.2
473.982	1288.4
474.397	1295.2
474.79	1298.8
475.204	1294.8
475.619	1281.4
476.033	1295.6
476.426	1276.4
476.841	1276.8
477.256	1287.8
477.649	1269
478.064	1258
478.479	1259.6
478.872	1245.2
479.287	1254.4
479.702	1252
480.118	1261.4
480.511	1248
480.927	1243
481.342	1241.2
481.736	1239.8
482.151	1233.8
482.566	1223
482.96	1222.6
483.376	1247
483.792	1221.2
484.186	1222.6
484.602	1211.6
485.017	1212.6
485.412	1198.8
485.827	1199.4
486.243	1186.6
486.638	1201.8
487.054	1196.6
487.47	1203.4
487.865	1163
488.281	1174.6
488.697	1162.4
489.092	1160.8
489.508	1146
489.925	1147.8
490.32	1133
490.736	1131
491.153	1137.6
491.548	1133.4
491.964	1125.8
492.381	1119.6
492.776	1125
493.193	1108.8
493.61	1113.2
494.006	1103.6
494.422	1088
494.84	1101.4
495.235	1095.6
495.652	1083.6
496.069	1095.6
496.465	1072.4
496.883	1078.8
497.3	1090.2
497.696	1057.6
498.113	1066.6
498.509	1045.4
498.927	1036.6
499.344	1042.8
499.741	1030
500.158	1033.6
500.576	1030.8
500.973	1026
501.39	1005.4
501.787	1006.2
502.205	1000
502.623	1008.8
503.02	983.8
503.438	998.6
503.856	984.8
504.253	999.6
504.671	975.6
505.068	973.2
505.486	955.4
505.905	970.8
506.302	968.8
506.72	961.4
507.118	951.2
507.536	942.4
507.955	936.8
508.352	945.4
508.771	934.6
509.169	940
509.587	915.6
510.006	922.8
510.404	911
510.823	910.8
511.221	900.2
511.64	894.2
512.038	907.8
512.457	892.4
512.877	892
513.275	887
513.694	889.4
514.092	874
514.512	878.6
514.91	880.2
515.33	872.6
515.749	865.4
516.148	856
516.568	871.8
516.966	855.2
517.386	844.6
517.785	839.8
518.205	835.2
518.603	839.2
519.024	823.8
519.444	831.8
519.843	831
520.263	848.6
520.662	828.2
521.082	814.2
521.481	812
521.902	808
522.301	803.8
522.722	798.6
523.121	800.8
523.542	794.8
523.963	784.4
524.362	798.4
524.783	789.4
525.183	781.6
525.604	787.4
526.003	772.8
526.425	767.8
526.824	772
527.246	766.6
527.646	776
528.067	760
528.467	763
528.888	748.4
529.289	749.2
529.71	748.6
530.11	743.4
530.532	750.4
530.932	739.4
531.354	726.2
531.755	772
532.176	740.6
532.577	732
532.999	728
533.4	734.6
533.822	731
534.223	728.8
534.645	719.8
535.046	720
535.468	712.8
535.869	723.4
536.292	714.8
536.693	750.2
537.115	722.2
537.516	702.2
537.939	706.4
538.34	723.2
538.742	697.4
539.165	705.2
539.566	698.4
539.989	694.4
540.391	692.4
540.814	697
541.216	691.6
541.639	695.2
542.041	689.6
542.464	689.8
542.866	679.8
543.268	678.6
543.691	688.2
544.093	680.2
544.517	696.8
544.919	669
545.343	696.2
545.745	663.2
546.147	674
546.571	656.6
546.974	666.4
547.398	665.6
547.8	682.2
548.224	658
548.627	647.4
549.03	654
549.454	662
549.857	649.2
550.281	652
550.684	647.4
551.087	649.6
551.512	650.4
551.915	648.2
552.34	653.4
552.743	650.4
553.146	634.4
553.571	648.4
553.975	655.4
554.399	633.4
554.803	679.6
555.207	623.8
555.632	630
556.036	641.4
556.461	625.8
556.865	631.4
557.268	623
557.694	633.8
558.098	633
558.502	622.6
558.927	622.8
559.332	619.6
559.736	611.8
560.162	622.2
560.566	623.4
560.992	616.2
561.396	617.6
561.801	614
562.227	604
562.631	608.8
563.036	601.8
563.462	608.6
563.867	606.8
564.272	603.4
564.698	603.2
565.103	590
565.508	612.4
565.935	607.2
566.34	598.6
566.745	610.8
567.172	592.6
567.577	614.2
567.982	616.8
568.409	594.4
568.815	578.2
569.22	589.2
569.626	602
570.053	576
570.459	580.6
570.865	584.4
571.292	596.4
571.698	593.8
572.104	574.6
572.531	574.8
572.937	591.4
573.343	582.8
573.75	580
574.177	583.8
574.583	580
574.99	578.4
575.396	581.2
575.824	580.8
576.231	579.8
576.637	578.6
577.065	594.6
577.472	586.4
577.879	570
578.286	589.6
578.714	573.4
579.121	566
579.528	571
579.935	570.4
580.364	563
580.771	557.4
581.178	567.2
581.585	567.6
582.014	573
582.421	566
582.829	563.2
583.236	572
583.644	561.6
584.073	563
584.481	562.2
584.889	565
585.296	564.2
585.726	562.6
586.134	558
586.542	559.6
586.95	576
587.358	548.8
587.787	559.4
588.196	550.4
588.604	559
589.012	560.2
589.421	548.8
589.851	551.8
590.259	559.6
590.668	549
591.076	580
591.485	543
591.894	553.6
592.324	565
592.733	559.6
593.142	534.4
593.551	545.8
593.96	552.2
594.369	539.4
594.8	548.4
595.209	557.2
595.618	534.6
596.028	539.6
596.437	535.2
596.847	546
597.256	541.8
597.687	545.4
598.097	535.6
598.507	529.8
598.917	549
599.327	551
599.736	549
600.146	547.4
600.556	543.4
600.988	551.4
601.398	537.6
601.808	543.4
602.219	533
602.629	546.8
603.039	539.6
603.45	563
603.86	537.4
604.271	549.2
604.703	536.2
605.114	533
605.525	538.2
605.935	535.4
606.346	556.4
606.757	541.2
607.168	541.2
607.579	525.2
607.99	547
608.402	540.4
608.813	546.8
609.224	531.4
609.636	522.2
610.047	528.8
610.48	536.2
610.892	537.2
611.303	536.6
611.715	528
612.127	535.8
612.539	541.6
612.95	528.8
613.362	528.8
613.774	526.8
614.186	535.2
614.599	532.8
615.011	539.4
615.423	538
615.835	522
616.248	530
616.66	537
617.073	527
617.485	524.2
617.898	539.4
618.311	532.2
618.723	527.2
619.136	548.6
619.549	539.6
619.962	545
620.375	524.2
620.788	536
621.201	528.8
621.614	532.4
622.028	526.6
622.441	533.6
622.854	531.8
623.268	523.4
623.681	527.4
624.095	533.2
624.509	541
624.922	525.8
625.336	519.2
625.728	534.2
626.142	540.8
626.556	539.6
626.97	534.8
627.384	523.4
627.799	528
628.213	540.6
628.627	538.6
629.041	528.4
629.456	529.8
629.87	534.6
630.285	533.8
630.699	545.6
631.093	529.4
631.507	535.4
631.922	535.8
632.337	540.8
632.752	523.2
633.167	539
633.582	530.6
633.997	524.6
634.412	527.4
634.806	539.2
635.221	529.2
635.637	538
636.052	520.2
636.468	532.8
636.883	540
637.299	525.6
637.715	509.6
638.109	537.8
638.525	523.4
638.941	546.2
639.357	527.6
639.773	539.2
640.189	523.2
640.584	530.2
641	524.6
641.416	528.4
641.832	521.6
642.249	524.4
642.665	537.4
643.06	537.8
643.477	531
643.894	513
644.31	529.8
644.727	531.2
645.123	528
645.54	522
645.957	535.8
646.374	538.2
646.77	527
647.187	554.8
647.604	521
648.021	519.8
648.439	517.6
648.835	529.4
649.252	524.2
649.67	522.6
650.088	524
650.484	528.4
650.902	528
651.32	524.6
651.738	529.4
652.134	522
652.552	532.2
652.971	530.4
653.389	521.8
653.786	533.4
654.204	523.2
654.622	517.2
655.019	524.4
655.438	528
655.857	518.8
656.275	529.8
656.673	513.6
657.091	529.2
657.51	513
657.908	526.8
658.327	529.4
658.746	516
659.144	521
659.563	527.8
659.982	519.2
660.38	506
660.8	510.8
661.219	523.8
661.617	519
662.037	514
662.457	526.2
662.855	507.6
663.275	549
663.695	518.4
664.094	511.4
664.514	518.8
664.934	508.4
665.333	524
665.753	514
666.152	513.2
666.572	512.8
666.993	528.6
667.392	505.6
667.812	501.6
668.212	502.6
668.632	520.6
669.053	515.8
669.453	520
669.874	515.8
670.273	513
670.694	504
671.116	517.8
671.515	518.8
671.937	501.8
672.337	510
672.758	515.4
673.158	518.6
673.58	505.6
673.98	509.8
674.402	522
674.824	514.6
675.224	509.6
675.646	507.4
676.047	517.4
676.469	511
676.869	527
677.292	516.8
677.693	507.8
678.115	513.8
678.516	510.6
678.939	525
679.34	508.6
679.762	526.4
680.164	518.6
680.586	514.2
680.988	517.6
681.411	532.4
681.812	509.6
682.236	503.8
682.637	504.2
683.061	498.6
683.462	511.4
683.864	511.6
684.288	510.4
684.69	503.4
685.114	520.8
685.516	522.2
685.94	500.6
686.342	518.6
686.766	496.8
687.168	506.8
687.571	521.4
687.995	507.8
688.398	507.8
688.822	505.8
689.225	518.6
689.628	523.4
690.052	508.6
690.456	517.4
690.88	514
691.284	506
691.687	514.2
692.112	504
692.515	496.6
692.919	515
693.344	507.8
693.747	505.2
694.173	508
694.577	521.2
694.98	516.6
695.406	504.8
695.81	506.8
696.214	510.6
696.64	514
697.044	511
697.448	519
697.874	510.2
698.279	504.8
698.684	500.8
699.11	502.6
699.514	501.4
699.919	508.6
700.324	499.4
700.75	505.8
701.156	510.6
701.561	520.8
701.987	511.4
702.393	513.8
702.798	510.8
703.203	506
703.63	504.6
704.036	504.8
704.442	515
704.847	497.6
705.274	507.8
705.68	511.4
706.086	517.2
706.492	496.6
706.92	500.2
707.326	510.2
707.732	506.6
708.139	490.2
708.545	502.6
708.973	504
709.38	502
709.786	498.8
710.193	516.4
710.6	507
711.028	493.4
711.435	507
711.842	509.4
712.249	504
712.656	504.2
713.064	511
713.492	503.2
713.9	506.6
714.307	505
714.715	502.8
715.123	511.2
715.53	505
715.938	517.4
716.367	501
716.775	502.6
717.184	500.4
717.592	504.6
718	515.6
718.408	528.2
718.816	535.4
719.225	509.4
719.633	504.4
720.042	495.2
720.472	497.6
720.881	516.4
721.29	506
721.699	496.2
722.108	504
722.517	511
722.926	500.2
723.335	511.2
723.744	512
724.154	503
724.563	507.4
724.973	504.2
725.382	506
725.792	502.2
726.202	486
726.612	509.6
727.022	500.2
727.432	495.8
779.813	504
780.223	551
780.634	503.6
781.044	501.4
781.454	498.2
781.865	514
782.276	500.2
782.686	513.4
783.097	501
783.508	503.4
783.919	506.2
784.33	514.8
784.741	516
785.152	511.4
785.563	490.6
785.974	501.2
786.386	512.8
786.776	503.2
787.188	503.6
787.599	500
788.011	515
788.423	507.4
788.835	503
789.247	494.2
789.659	502.8
790.071	508
790.483	534.6
790.874	507.8
791.286	506.4
791.699	495.6
792.111	508.2
792.524	509.4
792.937	500.8
793.349	498.8
793.741	505
794.154	503.4
794.567	521.8
794.98	500.6
795.393	498.2
795.785	517
796.198	505.6
796.612	507.8
797.026	502.6
797.439	490
797.831	505.8
798.245	493.2
798.659	498.4
799.073	495.6
799.487	504.6
799.88	504.4
800.294	510.6
800.708	508.2
801.123	516.6
801.516	522.6
801.93	493.4
802.345	492.4
802.76	507.4
803.153	500
803.568	519.6
803.983	518.4
804.377	508
804.792	495
805.207	495.4
805.601	508
806.016	542
806.432	496.6
806.826	531.6
807.242	505.2
807.658	501.8
808.052	494
808.468	490.4
808.884	496.6
809.279	501.8
809.695	510
810.111	518.4
810.506	505
810.922	512.6
811.339	498.6
811.734	504.2
812.151	494.4
812.546	501.4
812.963	498.8
813.38	492.4
813.776	497.8
814.193	526.8
814.589	492.2
815.006	500.2
815.402	503.4
815.82	501.6
816.237	499.6
816.633	506.2
817.051	494.6
817.448	505
817.866	496.6
818.262	520.4
818.68	502.8
819.077	503.8
819.495	502.4
819.892	530.4
820.311	494.2
820.708	495.2
821.127	501.4
821.524	508
821.943	502.2
822.34	512
822.759	506.4
823.157	505.6
823.576	521.6
823.974	515.6
824.393	588.4
824.791	499.4
825.189	499
825.609	496
826.007	495
826.427	493.8
826.826	498.6
827.246	504
827.644	500.6
828.043	505
828.463	499.8
828.862	504.6
829.261	508.6
829.682	494
830.081	503.4
830.502	504.4
830.901	509.8
831.301	495
831.722	494
832.121	501.6
832.521	505
832.943	503.8
833.342	493.4
833.742	495.8
834.164	493
834.564	498.2
834.965	503.4
835.386	500
835.787	500.6
836.188	503.2
836.588	498
837.01	508.2
837.411	495
837.812	507.4
838.213	508
838.636	497.2
839.037	551.8
839.438	503.4
839.84	505.6
840.263	502
840.664	508.4
841.066	498.8
841.468	499.8
841.891	507.4
842.293	511.8
842.695	507.4
843.098	512.2
843.5	500.8
843.902	505
844.326	501
844.729	501.8
845.131	515.2
845.534	501.2
845.937	509
846.34	511.8
846.764	499.2
847.167	505
847.571	501.4
847.974	496.8
848.377	498
848.781	535.2
849.184	510.4
849.588	504.4
849.992	497
850.396	502.4
850.821	513.2
851.225	505.4
851.63	494.2
852.034	508.8
852.438	491.4
852.843	558.8
