#lambda/nm	C1
208.295	464.4
208.67	432.2
209.045	395.4
209.419	400.2
209.794	531.8
210.169	514
210.544	623
210.919	536.4
211.295	528.2
211.67	535.2
212.045	526.2
212.421	536.2
212.796	562.4
213.172	527.4
213.547	526.6
213.923	527.6
214.299	527.6
214.675	543.6
215.051	542.4
215.427	537.2
215.803	550
216.179	539.2
216.555	528.2
216.932	537
217.308	537
217.684	527
218.061	538.8
218.438	538.2
218.814	529.4
219.191	551
219.568	527.4
219.945	529.6
220.322	538.8
220.699	539.2
221.076	540
221.453	536.4
221.83	531.6
222.208	528.4
222.585	530.8
222.962	531.8
223.34	535
223.717	534.6
224.095	531.2
224.473	537
224.851	533.2
225.229	531
225.607	549.2
225.985	529.2
226.363	534.2
226.741	542.4
227.119	537
227.497	557
227.876	531.4
228.254	537.8
228.633	538.2
229.011	531.2
229.39	542.4
229.769	539
230.148	546.6
230.527	551.6
230.905	533.4
231.284	541.4
231.664	524.8
232.043	543.8
232.422	534.8
232.801	531.4
233.181	540
233.56	539.6
233.94	531.4
234.319	519.6
234.699	530
235.079	566.2
235.458	561.6
235.838	546.6
236.218	534.4
236.598	524
236.978	532
237.358	524.6
237.738	527.2
238.119	532.2
238.499	521.4
238.88	535.2
239.26	544.2
239.641	522
240.021	534.4
240.402	536.2
240.783	532.4
241.163	529.8
241.544	530.6
241.925	532.6
242.306	546.4
242.687	532.4
243.069	535.4
243.45	544.4
243.831	526.8
244.212	527.8
244.594	563.2
244.975	550.2
245.357	534.6
245.739	536.6
246.12	538.8
246.502	546.8
246.884	533.8
247.266	535
247.648	540
248.03	556.2
248.412	538
248.794	542
249.176	532.4
249.559	542
249.941	530.6
250.323	522.8
250.706	534
251.089	536.2
251.471	534
251.854	537.2
252.237	521.6
252.62	539
253.002	539.2
253.385	528.6
253.769	549.2
254.152	537.6
254.535	546.2
254.918	524.2
255.301	528.4
255.685	536.6
256.068	533.2
256.452	554.4
256.835	534.8
257.219	540
257.603	548.6
257.986	529.8
258.37	536
258.754	524.2
259.138	540.8
259.522	538.2
259.906	530.2
260.29	526.4
260.675	531.8
261.059	529
261.443	519.6
261.828	536.8
262.212	535.6
262.597	529.8
262.981	519.4
263.366	536.4
263.751	539
264.136	532
264.521	537
264.906	522.4
265.291	543
265.676	538.2
266.061	541.8
266.446	552.4
266.831	532.6
267.217	557.2
267.602	540.8
267.987	535.8
268.373	531.4
268.759	545.6
269.144	541.4
269.53	534.8
269.916	521.4
270.302	523.6
270.688	537.8
271.074	541
271.46	548
271.846	556.6
272.232	530
272.618	530
273.004	531.4
273.391	543.6
273.777	544
274.164	539
274.55	548
274.937	548.8
275.324	532.8
275.71	539.2
276.097	537.8
276.484	523
276.871	539.4
277.258	535.4
277.645	523.8
278.032	526
278.419	527.4
278.807	538.6
279.194	533.8
279.581	527.6
279.969	545.8
280.356	538.6
280.744	537.8
281.131	556
281.519	541.8
281.907	534.4
282.295	529.4
282.682	545.6
283.07	547.6
283.458	542
283.846	546.6
284.235	543.4
284.623	542.6
285.011	532.2
285.399	536.4
285.788	538
286.176	522
286.565	549.2
286.953	533.2
287.342	533.4
287.731	526.2
288.119	524.6
288.508	530.8
288.897	535.8
289.286	527
289.675	537.8
290.064	541.8
290.453	532.8
290.821	534.8
291.21	548
291.599	538.6
291.989	535.8
292.378	539.2
292.768	553.8
293.157	536
293.547	543.4
293.936	534.6
294.326	527.8
294.716	536.4
295.106	534.2
295.496	545.4
295.886	536.4
296.276	540.6
296.666	524
297.056	532.6
297.446	528
297.836	543.4
298.227	533.8
298.617	536.8
299.008	544
299.398	536.8
299.789	533
300.179	530.2
300.57	540.4
300.961	529.6
301.352	529
301.742	533.8
302.133	525.4
302.524	528.2
302.915	533.4
303.307	521.8
303.698	545.8
304.089	542.8
304.48	528.4
304.872	540.4
305.263	536.6
305.655	537.6
306.046	528.8
306.438	539.8
306.829	525.8
307.221	545.8
307.613	539.8
308.005	533.6
308.397	538.6
308.789	539.2
309.181	547.2
309.573	547.4
309.965	549.2
310.357	530.6
310.749	547.2
311.142	523
311.534	531.4
311.926	532.2
312.319	530.6
312.711	536
313.104	541
313.497	534
313.889	568.8
314.282	545.8
314.675	549.2
315.068	541.6
315.461	537.2
315.854	554
316.247	535.2
316.64	536.8
317.033	533.2
317.405	533.8
317.798	541.6
318.192	537.8
318.585	532.8
318.979	535.8
319.372	533.2
319.766	533.4
320.16	547.4
320.553	545.4
320.947	548.8
321.341	529.6
321.735	531.6
322.129	530.4
322.523	555.6
322.917	531.2
323.311	541.6
323.705	542.2
324.099	539.4
324.494	543.8
324.888	547.4
325.282	532.4
325.677	541
326.071	541.6
326.466	547.6
326.861	535
327.255	543.4
327.65	546.6
328.045	548.8
328.44	533.6
328.835	537
329.23	529
329.625	544.8
330.02	527.6
330.415	550.8
330.81	536.2
331.206	538
331.601	526
331.996	542
332.37	557.4
332.766	524.2
333.161	552
333.557	531.8
333.953	532
334.348	769.6
334.744	542.4
335.14	534.8
335.536	532.8
335.932	544.2
336.328	542.4
336.724	543.6
337.12	539.6
337.516	528.2
337.913	538.4
338.309	547.2
338.705	534.6
339.102	542
339.498	534.2
339.895	546.4
340.291	535.2
340.688	547.4
341.085	528.8
341.481	534.2
341.878	528
342.275	551.2
342.672	530.6
343.069	525.6
343.466	522.6
343.842	542.2
344.239	528
344.636	534.6
345.033	528.2
345.431	523.6
345.828	535.6
346.225	531.2
346.623	565.6
347.02	537.8
347.418	547.2
347.816	550.8
348.213	517.8
348.611	534.2
349.009	531.4
349.407	536.2
349.805	533.4
350.203	522.2
350.601	541.8
350.999	526.6
351.397	570.6
351.795	537.8
352.193	540.6
352.57	537.2
352.969	543.4
353.367	519.2
353.766	526.6
354.164	531.2
354.563	539
354.961	535.4
355.36	523.2
355.759	527.2
356.158	523
356.557	528.4
356.956	523
357.355	523
357.754	536.2
358.153	529.4
358.552	547.8
358.951	527.8
359.35	537
359.75	527.8
360.149	525
360.527	512
360.926	523.2
361.326	531.6
361.726	526
362.125	525.2
362.525	540.2
362.925	527.8
363.325	525.8
363.724	536.2
364.124	524.6
364.524	522.8
364.924	519
365.324	537.4
365.725	516.8
366.125	526.8
366.525	534.8
366.904	537.8
367.304	519.2
367.705	543.4
368.105	539
368.506	525
368.906	529.6
369.307	524.2
369.708	539
370.108	523.6
370.509	538
370.91	521.4
371.311	524.8
371.712	534.4
372.113	532.6
372.514	518.2
372.894	524.2
373.295	526.4
373.696	534.8
374.097	535.4
374.499	548
374.9	534
375.301	522.8
375.703	528.4
376.105	531.4
376.506	523.6
376.908	527.6
377.309	524
377.711	522.4
378.113	528.6
378.493	530.6
378.895	524
379.297	535.6
379.699	516.4
380.102	533.6
380.504	530.6
380.906	528.6
381.308	543.6
381.71	532
382.113	535.4
382.515	523.4
382.918	528.4
383.299	526.6
383.701	540
384.104	529.6
384.507	513
384.909	523.6
385.312	518.6
385.715	520.6
386.118	528.4
386.521	512.2
386.924	530.4
387.327	523.8
387.709	517.2
388.112	516.6
388.515	523.2
388.918	527.6
389.322	530.8
389.725	523.8
390.129	539.6
390.532	525.4
390.936	520.2
391.339	523
391.743	522.6
392.125	523.4
392.529	528.2
392.933	533
393.337	522.4
393.74	531.4
394.144	528.8
394.548	524.8
394.953	523
395.357	537.2
395.761	518.2
396.144	523.2
396.548	520.4
396.952	523.4
397.357	525.4
397.761	522.4
398.166	517.6
398.57	523
398.975	522.4
399.379	527.2
399.763	554.2
400.168	523.6
400.572	519.6
400.977	516.8
401.382	544.8
401.787	531.8
402.192	532.8
402.597	534.8
403.002	508.4
403.386	531
403.791	536
404.197	517.2
404.602	519.6
405.007	526
405.413	523.4
405.818	524.4
406.224	515
406.608	523.6
407.014	518.2
407.42	539
407.825	518.4
408.231	521.2
408.637	529.6
409.043	535.2
409.449	520.6
409.834	517.2
410.24	529.4
410.646	535.2
411.052	534.4
411.458	525.8
411.865	537.2
412.271	533
412.677	526.6
413.062	528.6
413.469	529
413.875	542.2
414.282	542.2
414.689	529
415.095	539.4
415.502	520
415.888	530
416.294	512.8
416.701	567
417.108	517.8
417.515	534.6
417.923	516
418.33	545.4
418.715	531.8
419.123	524.2
419.53	517.2
419.937	521.6
420.345	541.6
420.752	532
421.16	541.2
421.546	532.6
421.953	535.8
422.361	527
422.769	525
423.177	521.4
423.585	546.8
423.992	547.2
424.379	533
424.787	534.4
425.195	546.2
425.603	528.2
426.011	541.4
426.419	541.6
426.806	529.4
427.214	534.8
427.623	544.4
428.031	546.6
428.44	536.6
428.848	544.4
429.235	558
429.644	550.2
430.053	554
430.461	561.2
430.87	577.4
431.279	574.6
431.666	580.6
432.075	586.8
432.484	612.6
432.893	609.8
433.302	637.2
433.711	667.4
434.099	657.2
434.508	664.2
434.918	667.8
435.327	695.8
435.737	711
436.125	728
436.534	749.4
436.944	759.2
437.353	781.2
437.763	802.4
438.173	803.4
438.561	834.8
438.971	813.4
439.381	850.6
439.791	867.2
440.201	863
440.589	903.8
440.999	918.4
441.409	913.8
441.819	932.2
442.23	948.6
442.619	966.6
443.029	967.6
443.439	971
443.85	985.8
444.26	1014.4
444.649	1007.8
445.06	1002.6
445.471	1001.6
445.881	1010.4
446.292	1047
446.682	1061.6
447.092	1046
447.503	1092
447.914	1045
448.325	1062
448.715	1066.8
449.126	1060.6
449.537	1079.8
449.948	1073.6
450.338	1086
450.75	1091.2
451.161	1076.8
451.572	1088.8
451.984	1081.2
452.374	1096.4
452.786	1101
453.197	1102.4
453.609	1113.8
453.999	1102.8
454.411	1100.2
454.823	1106.4
455.235	1116.8
455.647	1102.8
456.037	1116.4
456.449	1110.8
456.862	1114.4
457.274	1131.6
457.665	1110.2
458.077	1125.6
458.489	1150
458.902	1120.2
459.293	1121
459.705	1121.4
460.118	1107.2
460.53	1121.6
460.921	1113.8
461.334	1126.2
461.747	1122.8
462.16	1137.8
462.551	1131
462.964	1138.2
463.377	1108.2
463.79	1107
464.182	1141.8
464.595	1121.4
465.008	1135.2
465.421	1131.6
465.813	1099.2
466.226	1125
466.64	1115.2
467.053	1147
467.445	1127.6
467.859	1130.2
468.272	1120.2
468.686	1141.2
469.078	1131.8
469.492	1123.6
469.906	1133.2
470.298	1122.4
470.712	1125
471.126	1139.8
471.54	1103.2
471.933	1113.6
472.347	1111.2
472.761	1108.2
473.175	1114.8
473.568	1112.4
473.982	1111.4
474.397	1121.8
474.79	1101.2
475.204	1100.6
475.619	1103
476.033	1108.2
476.426	1110.2
476.841	1095
477.256	1096.4
477.649	1073
478.064	1061.8
478.479	1076.4
478.872	1070.8
479.287	1057
479.702	1052.8
480.118	1068.8
480.511	1066.8
480.927	1062.8
481.342	1068.2
481.736	1055.6
482.151	1062.4
482.566	1059
482.96	1056.2
483.376	1051.4
483.792	1044.6
484.186	1050
484.602	1047
485.017	1041.6
485.412	1028.2
485.827	1024.4
486.243	1027.4
486.638	1042.4
487.054	1032.4
487.47	1027.6
487.865	1005.4
488.281	996.6
488.697	1003.6
489.092	1003.8
489.508	983
489.925	995.6
490.32	972.2
490.736	994.6
491.153	999.4
491.548	978.2
491.964	984.2
492.381	956.2
492.776	962.2
493.193	954.6
493.61	973.6
494.006	963
494.422	960.6
494.84	936.4
495.235	949.2
495.652	943
496.069	938.8
496.465	920.2
496.883	918.6
497.3	949.6
497.696	917.2
498.113	923.2
498.509	898.4
498.927	908.8
499.344	894.8
499.741	893.8
500.158	909.2
500.576	895.8
500.973	911.8
501.39	880.6
501.787	868.4
502.205	875.8
502.623	876.2
503.02	858.4
503.438	874
503.856	857.6
504.253	867.2
504.671	865
505.068	841.6
505.486	840.8
505.905	862.4
506.302	850.6
506.72	843.2
507.118	824
507.536	837.8
507.955	829
508.352	831.8
508.771	820.8
509.169	827.8
509.587	819.8
510.006	829.2
510.404	811.6
510.823	814
511.221	806.2
511.64	806.4
512.038	816.2
512.457	799.2
512.877	793.2
513.275	794.6
513.694	796.6
514.092	784.4
514.512	795.8
514.91	793.8
515.33	781.4
515.749	779.6
516.148	786.4
516.568	773.6
516.966	760.6
517.386	769.8
517.785	766.8
518.205	764.2
518.603	766
519.024	749
519.444	756.2
519.843	759.6
520.263	760.6
520.662	743.8
521.082	751
521.481	751.2
521.902	738.2
522.301	747
522.722	729.8
523.121	724.6
523.542	718
523.963	730.8
524.362	720.8
524.783	729.2
525.183	721
525.604	725.2
526.003	708
526.425	715
526.824	716.8
527.246	712.8
527.646	712.4
528.067	710.8
528.467	706.8
528.888	696.8
529.289	698
529.71	697.6
530.11	694.2
530.532	684.4
530.932	678.8
531.354	687.6
531.755	705.8
532.176	694.2
532.577	678.4
532.999	676.4
533.4	669.6
533.822	685.8
534.223	679.8
534.645	670.6
535.046	667.8
535.468	675.6
535.869	687
536.292	663
536.693	690.6
537.115	665.6
537.516	659.6
537.939	653.6
538.34	678.4
538.742	670.8
539.165	662.6
539.566	657.4
539.989	655
540.391	652.4
540.814	658.6
541.216	649.4
541.639	646
542.041	642
542.464	641.4
542.866	637.6
543.268	636
543.691	639.6
544.093	639.8
544.517	658.4
544.919	631.4
545.343	654.8
545.745	628.8
546.147	625.2
546.571	614.4
546.974	620.8
547.398	629
547.8	640.6
548.224	621.2
548.627	621.8
549.03	620.6
549.454	614.6
549.857	612
550.281	618.4
550.684	612.4
551.087	625.8
551.512	621
551.915	622.4
552.34	606.8
552.743	605
553.146	609.4
553.571	610.8
553.975	619.4
554.399	599.2
554.803	642.4
555.207	598.8
555.632	601.8
556.036	603.8
556.461	594.4
556.865	609.4
557.268	597.2
557.694	591
558.098	593.4
558.502	592.6
558.927	598.8
559.332	596.2
559.736	593.8
560.162	597
560.566	587
560.992	604.2
561.396	596.6
561.801	584.2
562.227	584.8
562.631	585.6
563.036	584.4
563.462	588.8
563.867	584.6
564.272	574.4
564.698	582.2
565.103	577.4
565.508	591.4
565.935	578.2
566.34	582
566.745	582.2
567.172	578.2
567.577	582.4
567.982	586.6
568.409	574.8
568.815	559.8
569.22	576.8
569.626	583.6
570.053	559.2
570.459	579.8
570.865	574.2
571.292	569.8
571.698	566.4
572.104	555
572.531	565
572.937	571.2
573.343	568.2
573.75	556.8
574.177	563.4
574.583	566.6
574.99	559.4
575.396	572.6
575.824	565.8
576.231	558.6
576.637	554.4
577.065	579.8
577.472	546.8
577.879	554.4
578.286	575
578.714	547.4
579.121	559.2
579.528	562.4
579.935	566.2
580.364	553.2
580.771	548
581.178	543.6
581.585	552.6
582.014	557.8
582.421	549.6
582.829	545.8
583.236	550.8
583.644	546.8
584.073	546.6
584.481	548.4
584.889	542
585.296	551.2
585.726	548.4
586.134	541.6
586.542	541
586.95	554.2
587.358	535.4
587.787	545
588.196	545
588.604	538.8
589.012	538.8
589.421	532.8
589.851	536.6
590.259	544
590.668	531.4
591.076	567.2
591.485	530.8
591.894	547.4
592.324	544
592.733	538.8
593.142	522.6
593.551	539
593.96	539.4
594.369	523.2
594.8	527.4
595.209	533
595.618	525.2
596.028	526.2
596.437	522.8
596.847	521
597.256	525.2
597.687	527.6
598.097	527
598.507	517
598.917	528.2
599.327	534.2
599.736	522.2
600.146	534.4
600.556	528.8
600.988	536.4
601.398	527
601.808	538.2
602.219	521.4
602.629	523.8
603.039	522.2
603.45	546.6
603.86	526.6
604.271	539.8
604.703	533.6
605.114	517.4
605.525	536.8
605.935	539
606.346	549.6
606.757	529.8
607.168	527.4
607.579	520.8
607.99	537.6
608.402	532.4
608.813	535.2
609.224	526.6
609.636	525
610.047	519.2
610.48	532.2
610.892	541.8
611.303	536.2
611.715	540.4
612.127	527.4
612.539	535.8
612.95	530
613.362	517.6
613.774	530.2
614.186	520.6
614.599	524.8
615.011	537.6
615.423	527.4
615.835	522
616.248	521
616.66	530.2
617.073	523.8
617.485	524
617.898	537.2
618.311	533.6
618.723	534
619.136	550
619.549	544.2
619.962	568.2
620.375	532.4
620.788	530.8
621.201	522.8
621.614	542
622.028	534.8
622.441	527
622.854	540.8
623.268	530.6
623.681	536
624.095	534.4
624.509	543
624.922	532.8
625.336	523.2
625.728	534.6
626.142	543.6
626.556	549
626.97	545.6
627.384	528.4
627.799	530
628.213	532.2
628.627	533.8
629.041	528.8
629.456	523.8
629.87	530
630.285	537
630.699	536.4
631.093	531.6
631.507	533.2
631.922	537
632.337	541.8
632.752	522.8
633.167	532.2
633.582	527
633.997	529.2
634.412	525.6
634.806	532.4
635.221	523.8
635.637	531.2
636.052	522.8
636.468	519.8
636.883	534.6
637.299	518.2
637.715	515.6
638.109	523.2
638.525	515.4
638.941	524.8
639.357	523.2
639.773	532.8
640.189	523.6
640.584	522.2
641	520.8
641.416	509.8
641.832	524.2
642.249	521
642.665	521.4
643.06	525.8
643.477	527.8
643.894	515.4
644.31	514.6
644.727	525
645.123	519.8
645.54	513
645.957	524.4
646.374	527.4
646.77	518.4
647.187	540.8
647.604	525.8
648.021	505.8
648.439	513.2
648.835	513.6
649.252	517.8
649.67	513.4
650.088	521.6
650.484	516.8
650.902	519.4
651.32	524.6
651.738	510.2
652.134	520.6
652.552	531.6
652.971	524.6
653.389	513.8
653.786	532.2
654.204	522.8
654.622	513.6
655.019	517.8
655.438	519
655.857	518
656.275	517.2
656.673	513
657.091	523
657.51	515
657.908	522
658.327	529.8
658.746	511.4
659.144	512.8
659.563	519.4
659.982	517.8
660.38	508.2
660.8	516.8
661.219	528.2
661.617	521.6
662.037	510.8
662.457	520
662.855	500
663.275	533.8
663.695	517.2
664.094	504.4
664.514	513.2
664.934	505.8
665.333	518.6
665.753	500.4
666.152	506.6
666.572	512.4
666.993	515.2
667.392	511.4
667.812	515.8
668.212	511.2
668.632	523.4
669.053	506.4
669.453	513
669.874	507.4
670.273	516.4
670.694	504.4
671.116	520.2
671.515	514.2
671.937	509
672.337	501
672.758	501.4
673.158	514.2
673.58	505.8
673.98	511.8
674.402	514.4
674.824	508.4
675.224	505.4
675.646	499.8
676.047	510.2
676.469	508.8
676.869	517.4
677.292	512.2
677.693	507.4
678.115	515.2
678.516	508.6
678.939	511.8
679.34	513.6
679.762	515
680.164	508.6
680.586	506
680.988	507
681.411	527.8
681.812	502.6
682.236	500.4
682.637	502
683.061	501.8
683.462	508.4
683.864	505.8
684.288	508.2
684.69	498
685.114	512.4
685.516	506.6
685.94	497.6
686.342	509.6
686.766	508
687.168	501.2
687.571	511.8
687.995	508
688.398	498.8
688.822	493.4
689.225	526.6
689.628	512.8
690.052	506
690.456	506.2
690.88	507.8
691.284	492.4
691.687	507.2
692.112	496.2
692.515	496.2
692.919	505.4
693.344	499
693.747	497
694.173	502.4
694.577	517
694.98	505
695.406	495.2
695.81	505
696.214	504.4
696.64	507.8
697.044	505.4
697.448	508
697.874	499.2
698.279	494.2
698.684	501.8
699.11	500.8
699.514	496.2
699.919	502.8
700.324	495
700.75	510.4
701.156	499.6
701.561	516
701.987	504.4
702.393	511.2
702.798	508.6
703.203	504.4
703.63	493.8
704.036	502.4
704.442	504.8
704.847	498.4
705.274	500.8
705.68	505.8
706.086	510.2
706.492	496
706.92	505.4
707.326	508.2
707.732	501.4
708.139	497.6
708.545	501.8
708.973	506.2
709.38	501.2
709.786	500.2
710.193	519.2
710.6	508.8
711.028	493.8
711.435	499.4
711.842	505.2
712.249	498.2
712.656	499
713.064	514
713.492	497
713.9	504.2
714.307	507.6
714.715	497.4
715.123	511.8
715.53	511.8
715.938	507
716.367	508.4
716.775	510
717.184	499.8
717.592	501
718	514.4
718.408	531.4
718.816	537
719.225	509.6
719.633	504
720.042	503
720.472	503.4
720.881	522.4
721.29	501.8
721.699	500.6
722.108	506.4
722.517	503.4
722.926	498.6
723.335	510
723.744	506
724.154	503.6
724.563	501.2
724.973	511.6
725.382	500
725.792	503
726.202	497.6
726.612	511.6
727.022	501
727.432	499
779.813	502
780.223	540
780.634	501.6
781.044	502.8
781.454	499.2
781.865	515
782.276	502.4
782.686	510
783.097	499.8
783.508	506
783.919	509.2
784.33	510.6
784.741	517.4
785.152	499
785.563	491.4
785.974	501.6
786.386	514
786.776	502.2
787.188	494
787.599	484
788.011	511.6
788.423	504
788.835	485.8
789.247	495.4
789.659	489.8
790.071	512.4
790.483	540
790.874	497.6
791.286	505.6
791.699	498
792.111	499.8
792.524	502.2
792.937	501.6
793.349	494.6
793.741	501.4
794.154	506.2
794.567	508.2
794.98	500.2
795.393	486
795.785	516.6
796.198	490.8
796.612	493.6
797.026	495
797.439	491
797.831	495
798.245	497.8
798.659	498.6
799.073	495.6
799.487	491
799.88	507
800.294	506
800.708	501.4
801.123	494
801.516	514.6
801.93	497
802.345	493.6
802.76	502.6
803.153	511.4
803.568	501.6
803.983	516.8
804.377	506
804.792	488.8
805.207	501.6
805.601	501.8
806.016	534.4
806.432	501
806.826	524
807.242	512.6
807.658	502.8
808.052	496.6
808.468	501.2
808.884	503.2
809.279	506.8
809.695	515.2
810.111	521.8
810.506	508.4
810.922	510
811.339	500.2
811.734	506.2
812.151	496.2
812.546	497.6
812.963	497.2
813.38	508.4
813.776	503.4
814.193	516.8
814.589	500
815.006	501.2
815.402	500.2
815.82	494.6
816.237	503.4
816.633	498.8
817.051	497.6
817.448	498.6
817.866	496.6
818.262	516.2
818.68	499.4
819.077	495.6
819.495	506.4
819.892	533.6
820.311	500.6
820.708	499.4
821.127	497.4
821.524	499.4
821.943	502.6
822.34	520.4
822.759	505.6
823.157	501.6
823.576	505.8
823.974	503.2
824.393	587.6
824.791	501.4
825.189	492.8
825.609	491.2
826.007	498.8
826.427	488.8
826.826	492.4
827.246	492.8
827.644	492.2
828.043	505.4
828.463	496.2
828.862	510.6
829.261	501.6
829.682	494.8
830.081	505.6
830.502	487
830.901	502.4
831.301	491.4
831.722	490
832.121	501.4
832.521	489.8
832.943	499
833.342	494.2
833.742	491
834.164	490.4
834.564	488.6
834.965	498.4
835.386	493.2
835.787	487.8
836.188	495.6
836.588	498.4
837.01	500.6
837.411	479.8
837.812	497.2
838.213	501.2
838.636	493.8
839.037	553.2
839.438	494.2
839.84	494.6
840.263	496
840.664	493.8
841.066	495
841.468	495.4
841.891	495.4
842.293	497
842.695	504
843.098	498.4
843.5	494.8
843.902	497.8
844.326	500.8
844.729	494.8
845.131	494.2
845.534	495.2
845.937	502.4
846.34	503.4
846.764	489.8
847.167	496.6
847.571	488.2
847.974	490.4
848.377	494.4
848.781	532.6
849.184	501.6
849.588	487.6
849.992	499.8
850.396	502.2
850.821	513
851.225	498.4
851.63	497.6
852.034	508.6
852.438	494.2
852.843	518.2
