#lambda/nm	C1
208.295	464
208.67	427.2
209.045	395
209.419	401.6
209.794	541
210.169	525.6
210.544	634.8
210.919	538
211.295	539.4
211.67	540.2
212.045	526.6
212.421	535.2
212.796	569.2
213.172	538
213.547	537.8
213.923	532.2
214.299	524.8
214.675	548.8
215.051	540.4
215.427	544.2
215.803	552.2
216.179	555.8
216.555	535.2
216.932	549
217.308	543
217.684	543.4
218.061	535.4
218.438	541.2
218.814	530
219.191	542.6
219.568	532.4
219.945	531.2
220.322	547.6
220.699	533.8
221.076	545.2
221.453	539.6
221.83	526.4
222.208	538.4
222.585	533.4
222.962	537.2
223.34	537
223.717	533.8
224.095	527.4
224.473	538.6
224.851	531.6
225.229	522.4
225.607	554.2
225.985	527.2
226.363	535.6
226.741	537.2
227.119	545.4
227.497	550.8
227.876	527.2
228.254	541.6
228.633	543.4
229.011	543.8
229.39	540.2
229.769	535.6
230.148	540.8
230.527	548.8
230.905	538.6
231.284	542.8
231.664	535.8
232.043	543.8
232.422	539.6
232.801	539.8
233.181	541
233.56	537.6
233.94	536.2
234.319	529
234.699	527.4
235.079	572.4
235.458	567.4
235.838	557.2
236.218	523.4
236.598	527.4
236.978	525
237.358	529.6
237.738	528.8
238.119	540
238.499	535
238.88	536
239.26	552.4
239.641	527
240.021	534
240.402	536.2
240.783	537.2
241.163	537
241.544	539.4
241.925	537.2
242.306	545.4
242.687	530.4
243.069	538.8
243.45	552
243.831	538.4
244.212	535
244.594	570.8
244.975	543.4
245.357	544.2
245.739	530.2
246.12	544.4
246.502	546.4
246.884	537.6
247.266	524.8
247.648	539.6
248.03	556.6
248.412	540.8
248.794	539.6
249.176	538
249.559	538
249.941	529
250.323	527.2
250.706	537.8
251.089	540
251.471	536
251.854	547.8
252.237	533.2
252.62	550.8
253.002	529.4
253.385	535.4
253.769	554
254.152	536
254.535	543.4
254.918	531.8
255.301	537.2
255.685	533.6
256.068	528.4
256.452	561.2
256.835	546.4
257.219	544.6
257.603	555.6
257.986	536.2
258.37	546
258.754	528.8
259.138	545.8
259.522	545
259.906	531.8
260.29	541.8
260.675	533.4
261.059	541.6
261.443	530
261.828	536
262.212	536.8
262.597	523.6
262.981	531.6
263.366	550.4
263.751	536.8
264.136	535.6
264.521	532
264.906	534
265.291	544
265.676	532.8
266.061	549
266.446	548.4
266.831	534.8
267.217	561.2
267.602	537.2
267.987	542.4
268.373	530.4
268.759	543.8
269.144	545.2
269.53	539.8
269.916	527.6
270.302	537
270.688	541.2
271.074	535
271.46	546.2
271.846	559.6
272.232	535.2
272.618	532.8
273.004	532.2
273.391	550
273.777	549.6
274.164	546.2
274.55	542.8
274.937	530.2
275.324	538.8
275.71	529.4
276.097	544.2
276.484	531
276.871	545.2
277.258	540.4
277.645	529.2
278.032	537.2
278.419	535
278.807	537.6
279.194	534.4
279.581	531
279.969	539.2
280.356	534.2
280.744	532.2
281.131	556.8
281.519	542
281.907	534.2
282.295	528
282.682	544.8
283.07	542.2
283.458	541.4
283.846	541.2
284.235	545.6
284.623	545.8
285.011	526.6
285.399	538.8
285.788	532
286.176	529.8
286.565	546
286.953	533.2
287.342	531.6
287.731	536
288.119	536.6
288.508	532.8
288.897	535.8
289.286	527
289.675	536.2
290.064	538.6
290.453	536.2
290.821	536.2
291.21	542
291.599	543.4
291.989	533.8
292.378	541.6
292.768	552.2
293.157	543.6
293.547	545.2
293.936	538.4
294.326	534
294.716	537.6
295.106	537
295.496	544.2
295.886	543.2
296.276	542.6
296.666	534.2
297.056	543.6
297.446	526.8
297.836	547.2
298.227	529.2
298.617	536
299.008	541.2
299.398	541
299.789	528.2
300.179	540
300.57	549
300.961	532.8
301.352	531.4
301.742	542.2
302.133	540.4
302.524	531.8
302.915	534
303.307	527.6
303.698	539.2
304.089	542.6
304.48	540.4
304.872	539.8
305.263	536.4
305.655	532.8
306.046	540.8
306.438	537.8
306.829	538.6
307.221	547
307.613	535.2
308.005	545.6
308.397	548
308.789	555.8
309.181	556.6
309.573	548.6
309.965	555.8
310.357	535.2
310.749	553.2
311.142	534
311.534	534
311.926	546.8
312.319	536.6
312.711	531.2
313.104	544.2
313.497	535
313.889	569.2
314.282	549.6
314.675	554.8
315.068	543.6
315.461	543
315.854	569.8
316.247	542.6
316.64	536.4
317.033	536.4
317.405	555
317.798	538.8
318.192	548
318.585	534.4
318.979	545.6
319.372	542.2
319.766	534.4
320.16	543.4
320.553	549.8
320.947	550.8
321.341	539.6
321.735	539.6
322.129	522.4
322.523	550.2
322.917	529.4
323.311	543.4
323.705	544
324.099	545.4
324.494	549.8
324.888	546.8
325.282	537.8
325.677	553.2
326.071	550.4
326.466	535.6
326.861	536.6
327.255	545.6
327.65	548.2
328.045	556.6
328.44	542.6
328.835	536.6
329.23	533
329.625	563.2
330.02	535.4
330.415	551.8
330.81	545.6
331.206	541.6
331.601	530
331.996	537
332.37	547.6
332.766	533
333.161	556.8
333.557	532
333.953	535.6
334.348	841.8
334.744	539.2
335.14	535
335.536	529
335.932	551.6
336.328	539.8
336.724	546.2
337.12	530
337.516	539.6
337.913	534.2
338.309	543.8
338.705	536
339.102	548.6
339.498	531.2
339.895	547.2
340.291	532.2
340.688	543
341.085	524
341.481	540
341.878	537.6
342.275	551.2
342.672	532.2
343.069	527.4
343.466	531.6
343.842	544.2
344.239	531.6
344.636	543.2
345.033	527.4
345.431	526.6
345.828	528.4
346.225	532.8
346.623	567
347.02	540.2
347.418	538.2
347.816	548.4
348.213	529.8
348.611	538
349.009	525.6
349.407	548.4
349.805	527.2
350.203	530
350.601	544.2
350.999	528.8
351.397	575.6
351.795	531.6
352.193	539.4
352.57	533.4
352.969	538
353.367	528.6
353.766	529.6
354.164	535.6
354.563	548.4
354.961	538.8
355.36	527.6
355.759	534.4
356.158	531.6
356.557	527.8
356.956	528.4
357.355	519.2
357.754	536.4
358.153	538.2
358.552	552
358.951	532.8
359.35	540
359.75	532
360.149	525.6
360.527	518.2
360.926	533.2
361.326	533.8
361.726	528.2
362.125	526.8
362.525	534.4
362.925	528.2
363.325	524.2
363.724	537
364.124	527.2
364.524	532.6
364.924	538.8
365.324	536.8
365.725	519
366.125	539.6
366.525	535.4
366.904	520.8
367.304	520.2
367.705	541.6
368.105	539.8
368.506	530.6
368.906	529
369.307	529
369.708	532.4
370.108	508.4
370.509	533
370.91	526.4
371.311	535.4
371.712	537.4
372.113	530.6
372.514	516.2
372.894	521.6
373.295	521.2
373.696	534.4
374.097	535.8
374.499	555.2
374.9	534.4
375.301	525.4
375.703	531
376.105	520.8
376.506	537.4
376.908	534.4
377.309	528.2
377.711	524.4
378.113	530
378.493	532.8
378.895	531.6
379.297	536.6
379.699	516.4
380.102	531.2
380.504	529.6
380.906	526.2
381.308	554.2
381.71	534.8
382.113	539.8
382.515	529.8
382.918	531.2
383.299	527.2
383.701	539
384.104	525.4
384.507	511.4
384.909	525.2
385.312	524
385.715	520.8
386.118	525.8
386.521	525.4
386.924	540.8
387.327	526.6
387.709	517.2
388.112	511
388.515	522.4
388.918	531.6
389.322	537.8
389.725	530.2
390.129	547.4
390.532	533
390.936	526.8
391.339	523
391.743	527.8
392.125	526.6
392.529	533
392.933	532
393.337	521.6
393.74	525.8
394.144	534
394.548	527.2
394.953	530.2
395.357	534
395.761	522.2
396.144	533.2
396.548	528
396.952	529.4
397.357	529
397.761	521.2
398.166	516.4
398.57	522.6
398.975	515.4
399.379	523
399.763	567
400.168	528.4
400.572	516.2
400.977	522.8
401.382	546
401.787	528.4
402.192	541.8
402.597	536.2
403.002	520.4
403.386	544
403.791	544.6
404.197	523
404.602	535.4
405.007	529.4
405.413	527.4
405.818	533
406.224	519.6
406.608	520.2
407.014	520.4
407.42	545.8
407.825	528.6
408.231	534
408.637	533.2
409.043	540.2
409.449	522.4
409.834	536
410.24	536
410.646	539.8
411.052	530
411.458	534.8
411.865	531.6
412.271	543.4
412.677	530.6
413.062	533.6
413.469	528.6
413.875	545.4
414.282	546.8
414.689	525.6
415.095	532.6
415.502	521
415.888	534.2
416.294	515.6
416.701	563.4
417.108	519.8
417.515	533.8
417.923	529.8
418.33	548
418.715	532.2
419.123	530.8
419.53	524.2
419.937	529.2
420.345	541.8
420.752	522
421.16	547.8
421.546	525.4
421.953	542.6
422.361	522.4
422.769	525.8
423.177	522.8
423.585	551.6
423.992	553
424.379	544.6
424.787	538.8
425.195	555.2
425.603	528.4
426.011	549.6
426.419	544
426.806	536.2
427.214	538
427.623	546
428.031	550.2
428.44	551.6
428.848	562.2
429.235	566
429.644	565
430.053	572
430.461	587.6
430.87	610.6
431.279	605.6
431.666	608.8
432.075	634.8
432.484	651.4
432.893	654.4
433.302	696.2
433.711	731
434.099	719.4
434.508	732.8
434.918	754.2
435.327	791.2
435.737	815.2
436.125	845.6
436.534	856.4
436.944	880.8
437.353	909.6
437.763	933.6
438.173	936.8
438.561	977
438.971	963.8
439.381	1003.8
439.791	1033.2
440.201	1037.8
440.589	1073.4
440.999	1097.4
441.409	1108.2
441.819	1126.2
442.23	1151.6
442.619	1174
443.029	1172.8
443.439	1190.8
443.85	1198
444.26	1215.8
444.649	1225.6
445.06	1220.2
445.471	1236.8
445.881	1272.6
446.292	1266.6
446.682	1279.4
447.092	1259.4
447.503	1325.8
447.914	1296.6
448.325	1318.6
448.715	1298.8
449.126	1298.8
449.537	1304.4
449.948	1322.4
450.338	1322.2
450.75	1341.2
451.161	1357
451.572	1350.6
451.984	1340
452.374	1337.2
452.786	1365.8
453.197	1364.8
453.609	1363.2
453.999	1350.6
454.411	1355
454.823	1348.6
455.235	1381
455.647	1363.8
456.037	1370.2
456.449	1371.6
456.862	1380
457.274	1389.2
457.665	1382.2
458.077	1372.6
458.489	1409.6
458.902	1392.8
459.293	1380
459.705	1382.2
460.118	1381
460.53	1384
460.921	1400.6
461.334	1399.6
461.747	1399
462.16	1396.6
462.551	1418.4
462.964	1396.8
463.377	1375.6
463.79	1396
464.182	1407
464.595	1388.4
465.008	1390
465.421	1390.6
465.813	1381.6
466.226	1381
466.64	1366.4
467.053	1424
467.445	1397
467.859	1417.6
468.272	1403.8
468.686	1408
469.078	1403.4
469.492	1383.6
469.906	1375.6
470.298	1406.2
470.712	1380.8
471.126	1410.6
471.54	1373.6
471.933	1369.4
472.347	1377.8
472.761	1395.6
473.175	1373.2
473.568	1372.2
473.982	1354.6
474.397	1365.4
474.79	1354.6
475.204	1361
475.619	1352
476.033	1353
476.426	1345.2
476.841	1328
477.256	1353.4
477.649	1344
478.064	1316
478.479	1306.2
478.872	1311
479.287	1309.6
479.702	1296
480.118	1306.4
480.511	1304.8
480.927	1298
481.342	1278.8
481.736	1289
482.151	1285
482.566	1292.4
482.96	1281.4
483.376	1282.6
483.792	1261.4
484.186	1284.4
484.602	1257.8
485.017	1262.8
485.412	1248.6
485.827	1274
486.243	1233.4
486.638	1244
487.054	1248.2
487.47	1247.8
487.865	1231.2
488.281	1231.6
488.697	1208.2
489.092	1225.2
489.508	1190.2
489.925	1203.2
490.32	1190.8
490.736	1195.4
491.153	1175.4
491.548	1188
491.964	1188.2
492.381	1155.4
492.776	1160
493.193	1159.8
493.61	1156.4
494.006	1152.4
494.422	1145.8
494.84	1138.6
495.235	1140.8
495.652	1132.4
496.069	1123.4
496.465	1110
496.883	1109.2
497.3	1129
497.696	1107.8
498.113	1091.6
498.509	1092.8
498.927	1079.4
499.344	1081.4
499.741	1077
500.158	1079.6
500.576	1080.4
500.973	1074.8
501.39	1043.2
501.787	1036
502.205	1046.4
502.623	1016.6
503.02	1040
503.438	1043.6
503.856	1024.8
504.253	1019
504.671	1031.6
505.068	1000.4
505.486	1004.2
505.905	1011.4
506.302	994.2
506.72	1005.6
507.118	966
507.536	984.2
507.955	986
508.352	965.4
508.771	978.2
509.169	970.2
509.587	942.8
510.006	951.2
510.404	946.4
510.823	940
511.221	947.8
511.64	933.4
512.038	947
512.457	935
512.877	925.6
513.275	919.8
513.694	902
514.092	906.2
514.512	916.4
514.91	898.6
515.33	899.4
515.749	893.2
516.148	888.6
516.568	893
516.966	883.2
517.386	874.4
517.785	871
518.205	870.2
518.603	849.4
519.024	861.8
519.444	862.2
519.843	870.8
520.263	852.4
520.662	850
521.082	836.8
521.481	852.8
521.902	841.2
522.301	826.4
522.722	829
523.121	822.8
523.542	825.2
523.963	813.4
524.362	813.8
524.783	801
525.183	797.8
525.604	806
526.003	801.6
526.425	799.2
526.824	797.4
527.246	793
527.646	800.8
528.067	786.8
528.467	773.4
528.888	784.8
529.289	776.8
529.71	782.2
530.11	767.4
530.532	763.8
530.932	758.8
531.354	761.2
531.755	773
532.176	762
532.577	753
532.999	751.8
533.4	752.6
533.822	754.6
534.223	742.2
534.645	743
535.046	736.6
535.468	734.2
535.869	749.6
536.292	718.6
536.693	760
537.115	728.8
537.516	727.4
537.939	714.2
538.34	747.8
538.742	723
539.165	720
539.566	716.2
539.989	704.4
540.391	712.6
540.814	704.2
541.216	705.2
541.639	704.4
542.041	711.4
542.464	699
542.866	690
543.268	681.2
543.691	693.8
544.093	700.4
544.517	711.8
544.919	688.8
545.343	703.8
545.745	681.8
546.147	694.4
546.571	680.2
546.974	678
547.398	678.2
547.8	693.6
548.224	674.4
548.627	672
549.03	673.8
549.454	658.2
549.857	657.4
550.281	661.8
550.684	664.4
551.087	667.2
551.512	670
551.915	664.4
552.34	658.6
552.743	648.2
553.146	650.6
553.571	650.8
553.975	661.6
554.399	643.2
554.803	679.6
555.207	640
555.632	632.4
556.036	646.4
556.461	631
556.865	629.4
557.268	631.6
557.694	637.6
558.098	640.4
558.502	635
558.927	621.2
559.332	626.2
559.736	630
560.162	620
560.566	618.8
560.992	632.4
561.396	628.8
561.801	616.8
562.227	608.4
562.631	610.2
563.036	618.8
563.462	621
563.867	611.8
564.272	600
564.698	612
565.103	605.6
565.508	629.8
565.935	601
566.34	606.8
566.745	619.4
567.172	601.8
567.577	621.6
567.982	613.6
568.409	612.2
568.815	592.4
569.22	594.4
569.626	608.6
570.053	589.4
570.459	599.6
570.865	602
571.292	596.8
571.698	603
572.104	581.8
572.531	593.4
572.937	596.4
573.343	596.6
573.75	589
574.177	593
574.583	589.4
574.99	573.8
575.396	594
575.824	576.2
576.231	592.8
576.637	571.4
577.065	610.6
577.472	576.4
577.879	580.6
578.286	584.8
578.714	577.8
579.121	579.8
579.528	580.6
579.935	582.8
580.364	568.4
580.771	563.8
581.178	571.4
581.585	580.8
582.014	577.6
582.421	576.6
582.829	570.4
583.236	574
583.644	565.2
584.073	569.2
584.481	568
584.889	568.4
585.296	579
585.726	562.2
586.134	555.8
586.542	557.8
586.95	582.8
587.358	556.6
587.787	566.6
588.196	555
588.604	559.4
589.012	558
589.421	543.8
589.851	549.6
590.259	559.8
590.668	555.6
591.076	585.2
591.485	545.4
591.894	556.8
592.324	574.8
592.733	565
593.142	543.6
593.551	542.4
593.96	551
594.369	546.2
594.8	542
595.209	553.2
595.618	540.6
596.028	539
596.437	539.4
596.847	548.2
597.256	553
597.687	545.4
598.097	542.8
598.507	534.8
598.917	550.8
599.327	549.8
599.736	555.8
600.146	555
600.556	546.4
600.988	555.2
601.398	547.4
601.808	553
602.219	532.4
602.629	538.4
603.039	546
603.45	557.4
603.86	539.2
604.271	550.8
604.703	539.6
605.114	541.8
605.525	537
605.935	545.4
606.346	556.6
606.757	545.6
607.168	545.8
607.579	536.2
607.99	551.2
608.402	532.8
608.813	541
609.224	539.4
609.636	522.6
610.047	533
610.48	534.4
610.892	541.4
611.303	539
611.715	534.8
612.127	531
612.539	537
612.95	536.2
613.362	532.2
613.774	529.6
614.186	530.6
614.599	535.8
615.011	546.4
615.423	529.6
615.835	530.6
616.248	526.2
616.66	541.4
617.073	525.4
617.485	530.8
617.898	547.2
618.311	539.2
618.723	533.8
619.136	559.2
619.549	545.8
619.962	558.2
620.375	529.4
620.788	541.4
621.201	529.4
621.614	545.6
622.028	533.8
622.441	540.6
622.854	550.4
623.268	533.8
623.681	543.4
624.095	531.6
624.509	541.8
624.922	541.4
625.336	525.6
625.728	537.8
626.142	549
626.556	550
626.97	541.2
627.384	537.8
627.799	533.4
628.213	546.4
628.627	537.6
629.041	532.4
629.456	537
629.87	533.2
630.285	540
630.699	541.6
631.093	535.6
631.507	546.8
631.922	541
632.337	547
632.752	532.4
633.167	535.8
633.582	535.8
633.997	533.8
634.412	530.2
634.806	535.4
635.221	527.8
635.637	541.6
636.052	526.8
636.468	540.6
636.883	539.4
637.299	525.4
637.715	510.6
638.109	532.8
638.525	519.4
638.941	543.8
639.357	533.2
639.773	539.8
640.189	538
640.584	526
641	528
641.416	526
641.832	524.6
642.249	524.6
642.665	535.2
643.06	525.8
643.477	526.4
643.894	520
644.31	523.6
644.727	526
645.123	526.8
645.54	521.8
645.957	532
646.374	533.6
646.77	531
647.187	553.4
647.604	527.2
648.021	513.2
648.439	519.4
648.835	525.6
649.252	525.2
649.67	524
650.088	523.4
650.484	526.8
650.902	531
651.32	529.4
651.738	520
652.134	522
652.552	538.6
652.971	531.4
653.389	522
653.786	528.2
654.204	528
654.622	517.6
655.019	520.8
655.438	528.2
655.857	523.4
656.275	519.2
656.673	514.6
657.091	530.8
657.51	508.4
657.908	526.8
658.327	533.6
658.746	510.8
659.144	520.2
659.563	527.2
659.982	526.2
660.38	513
660.8	522
661.219	522.8
661.617	524.2
662.037	514.8
662.457	528.6
662.855	505.6
663.275	545.4
663.695	514
664.094	516
664.514	523.4
664.934	510.6
665.333	526.6
665.753	521.8
666.152	508.4
666.572	512
666.993	528.8
667.392	509.4
667.812	512.8
668.212	512.4
668.632	528.6
669.053	512.4
669.453	519.6
669.874	512.8
670.273	518.8
670.694	514
671.116	523
671.515	521.2
671.937	513.6
672.337	508
672.758	505.2
673.158	528
673.58	512.8
673.98	516.4
674.402	523.8
674.824	516.4
675.224	509
675.646	510.2
676.047	515.2
676.469	513.6
676.869	521
677.292	515.8
677.693	509.6
678.115	514.4
678.516	511.6
678.939	513.2
679.34	505.6
679.762	519.6
680.164	521.4
680.586	507.8
680.988	514.2
681.411	540.6
681.812	511
682.236	501
682.637	504.6
683.061	508.4
683.462	510.2
683.864	512.8
684.288	513.2
684.69	506.6
685.114	521.6
685.516	526.2
685.94	506.6
686.342	514.8
686.766	506.6
687.168	504.2
687.571	524.4
687.995	500.8
688.398	502
688.822	506.6
689.225	531.8
689.628	525.8
690.052	509
690.456	511.6
690.88	514.8
691.284	500.8
691.687	509.4
692.112	505.6
692.515	500.8
692.919	506.2
693.344	504
693.747	506.8
694.173	502.6
694.577	527.8
694.98	501.4
695.406	504.2
695.81	516
696.214	512.6
696.64	520.4
697.044	516.2
697.448	513
697.874	510.6
698.279	509
698.684	494.4
699.11	508.6
699.514	511
699.919	499.6
700.324	500.2
700.75	514
701.156	510.8
701.561	515.8
701.987	511.6
702.393	518.4
702.798	523.2
703.203	508.8
703.63	499.4
704.036	506.8
704.442	508.8
704.847	505.2
705.274	504.6
705.68	513.6
706.086	515.4
706.492	499
706.92	503.8
707.326	512.2
707.732	504.2
708.139	507.4
708.545	502.6
708.973	506.2
709.38	502.4
709.786	501
710.193	524.2
710.6	506
711.028	504.4
711.435	516
711.842	508.4
712.249	496
712.656	500.2
713.064	506.6
713.492	501
713.9	511.2
714.307	509.8
714.715	499.6
715.123	506.6
715.53	505
715.938	515
716.367	510.6
716.775	510.8
717.184	500.4
717.592	505
718	515.8
718.408	532.6
718.816	545
719.225	512
719.633	507.4
720.042	503.2
720.472	506
720.881	518.2
721.29	503.4
721.699	500.2
722.108	511.8
722.517	512
722.926	502
723.335	510.4
723.744	500
724.154	504.8
724.563	503.6
724.973	508.4
725.382	508.2
725.792	503.8
726.202	500.2
726.612	507
727.022	502.2
727.432	496
779.813	503.8
780.223	542.6
780.634	501.6
781.044	505.2
781.454	510.4
781.865	515.2
782.276	502.4
782.686	515.8
783.097	508.2
783.508	493.4
783.919	505.6
784.33	507.6
784.741	513
785.152	496.6
785.563	496
785.974	503.6
786.386	509.8
786.776	497.8
787.188	503.4
787.599	497.2
788.011	502.2
788.423	502.8
788.835	494
789.247	499.8
789.659	501.6
790.071	498
790.483	533.4
790.874	505.4
791.286	508.4
791.699	499.6
792.111	505.6
792.524	502.6
792.937	507
793.349	501.2
793.741	496
794.154	504.6
794.567	513.8
794.98	510.4
795.393	498.2
795.785	516
796.198	504.4
796.612	508.4
797.026	500.8
797.439	493.2
797.831	500
798.245	491.2
798.659	500.4
799.073	506.4
799.487	497.6
799.88	505.4
800.294	500.6
800.708	516.4
801.123	500.4
801.516	520
801.93	496.6
802.345	489.2
802.76	508
803.153	519.4
803.568	521.2
803.983	509
804.377	500.2
804.792	494.4
805.207	496
805.601	506.4
806.016	521.8
806.432	500
806.826	521.2
807.242	502.8
807.658	504.8
808.052	498.6
808.468	500.4
808.884	498.6
809.279	505.6
809.695	509.4
810.111	514.6
810.506	506.8
810.922	514
811.339	501
811.734	514.2
812.151	496.2
812.546	498.2
812.963	498
813.38	504.2
813.776	504.8
814.193	525.6
814.589	493.2
815.006	497
815.402	496.2
815.82	499.6
816.237	497.2
816.633	502.6
817.051	501
817.448	507.6
817.866	494.4
818.262	523.6
818.68	506.6
819.077	496.8
819.495	495.6
819.892	537.8
820.311	494.4
820.708	506.4
821.127	503.2
821.524	505.4
821.943	508.6
822.34	518.2
822.759	511.4
823.157	501.2
823.576	521.8
823.974	518.8
824.393	566.2
824.791	500.8
825.189	496.4
825.609	505.8
826.007	503.4
826.427	494
826.826	500.2
827.246	511
827.644	492
828.043	514
828.463	500.2
828.862	509.6
829.261	507.2
829.682	491.8
830.081	513.8
830.502	500.2
830.901	509.8
831.301	495
831.722	491.4
832.121	504.8
832.521	497.4
832.943	502.2
833.342	497.2
833.742	493
834.164	490.6
834.564	489.4
834.965	501.4
835.386	497.4
835.787	498
836.188	495
836.588	489
837.01	500.4
837.411	490.6
837.812	507.4
838.213	500.8
838.636	500
839.037	553.6
839.438	506.6
839.84	503.6
840.263	503.6
840.664	504
841.066	499.8
841.468	503.8
841.891	490.6
842.293	506.6
842.695	499.8
843.098	511.2
843.5	500.2
843.902	500
844.326	504.2
844.729	499.6
845.131	512
845.534	497.8
845.937	506.8
846.34	513
846.764	490.8
847.167	503.8
847.571	495.2
847.974	500.6
848.377	499.6
848.781	544.6
849.184	505.8
849.588	503.8
849.992	497.8
850.396	503.4
850.821	515
851.225	507
851.63	499.8
852.034	513.2
852.438	499.6
852.843	522.6
