#lambda/nm	C1
208.295	468.2
208.67	431.8
209.045	398.6
209.419	399.8
209.794	546.8
210.169	518
210.544	619.8
210.919	549
211.295	529.4
211.67	540.4
212.045	529.8
212.421	531.8
212.796	568.2
213.172	530
213.547	525.8
213.923	534.4
214.299	536
214.675	534.4
215.051	540.2
215.427	550.6
215.803	553.8
216.179	539.4
216.555	532.4
216.932	545.6
217.308	533
217.684	533.4
218.061	540.4
218.438	539
218.814	529.6
219.191	533.2
219.568	532.8
219.945	537.2
220.322	534.8
220.699	537.2
221.076	544.4
221.453	534.4
221.83	537
222.208	532.6
222.585	536.8
222.962	540
223.34	544.6
223.717	532.6
224.095	537
224.473	536.2
224.851	531
225.229	524.2
225.607	545.6
225.985	527.8
226.363	531.2
226.741	529.8
227.119	540.2
227.497	552.6
227.876	523.8
228.254	538.8
228.633	536.2
229.011	536.8
229.39	541.6
229.769	535.8
230.148	538.8
230.527	557.6
230.905	532.8
231.284	536
231.664	530.4
232.043	544.6
232.422	539.6
232.801	524.8
233.181	535.8
233.56	535
233.94	542.2
234.319	527.8
234.699	530.4
235.079	568.2
235.458	569.6
235.838	544.8
236.218	525.4
236.598	519.8
236.978	531.8
237.358	532.8
237.738	529.6
238.119	544.6
238.499	526.4
238.88	534.2
239.26	545.8
239.641	531.8
240.021	528.2
240.402	536.6
240.783	524.6
241.163	532
241.544	546.4
241.925	539
242.306	549.8
242.687	529.2
243.069	532.6
243.45	543.4
243.831	535.2
244.212	530.8
244.594	564.4
244.975	542.4
245.357	540
245.739	535.6
246.12	543
246.502	546
246.884	539.4
247.266	533.6
247.648	535.2
248.03	548.2
248.412	533
248.794	534.8
249.176	535
249.559	543
249.941	529.4
250.323	535.6
250.706	530.8
251.089	539.4
251.471	537
251.854	544
252.237	538.2
252.62	543.4
253.002	533.8
253.385	537.6
253.769	544.4
254.152	542.2
254.535	540.4
254.918	533.8
255.301	527.4
255.685	529.6
256.068	524.8
256.452	552.6
256.835	534.8
257.219	534.4
257.603	541.8
257.986	523.4
258.37	539.6
258.754	522
259.138	531
259.522	542.4
259.906	531.4
260.29	535.8
260.675	527.6
261.059	532.4
261.443	525
261.828	534.6
262.212	537.6
262.597	518.2
262.981	526.6
263.366	547.8
263.751	529.6
264.136	521
264.521	523
264.906	521
265.291	545.4
265.676	527
266.061	538.4
266.446	546.2
266.831	538.8
267.217	550.6
267.602	540.6
267.987	540.8
268.373	525.6
268.759	546.8
269.144	539.8
269.53	535
269.916	532.8
270.302	539.4
270.688	541.6
271.074	538.4
271.46	544.8
271.846	557.4
272.232	536.4
272.618	532.8
273.004	536.8
273.391	548
273.777	548.2
274.164	531.8
274.55	546.4
274.937	542.8
275.324	530.6
275.71	532.8
276.097	536.4
276.484	528.4
276.871	545.4
277.258	536.2
277.645	532.8
278.032	540.4
278.419	532.2
278.807	536.2
279.194	528.2
279.581	528.2
279.969	531
280.356	543.4
280.744	536.2
281.131	557.2
281.519	547.8
281.907	539
282.295	529.4
282.682	547.4
283.07	541.2
283.458	546
283.846	545.6
284.235	543.2
284.623	541.8
285.011	530
285.399	536.8
285.788	535.6
286.176	532.2
286.565	553.4
286.953	526.8
287.342	531.4
287.731	524.4
288.119	530
288.508	528
288.897	541.4
289.286	528.2
289.675	540.6
290.064	544.2
290.453	536.8
290.821	539.6
291.21	547.8
291.599	529
291.989	531.8
292.378	538.4
292.768	545.8
293.157	531.6
293.547	545.8
293.936	536.8
294.326	531.4
294.716	535.4
295.106	529.2
295.496	538.2
295.886	541.2
296.276	534
296.666	528.2
297.056	532.8
297.446	528
297.836	546.2
298.227	538
298.617	542.4
299.008	550.2
299.398	534
299.789	537.4
300.179	537.2
300.57	541.4
300.961	533.2
301.352	534.2
301.742	545
302.133	537.8
302.524	530.4
302.915	527.4
303.307	523
303.698	551.8
304.089	542.2
304.48	539
304.872	535.8
305.263	532
305.655	528.4
306.046	536.6
306.438	536
306.829	528.4
307.221	543.4
307.613	546.6
308.005	538.4
308.397	538.6
308.789	546.8
309.181	552
309.573	543.6
309.965	540.8
310.357	527.2
310.749	554.8
311.142	530.6
311.534	530
311.926	539
312.319	534.4
312.711	537
313.104	542.6
313.497	531
313.889	566.2
314.282	550
314.675	554.6
315.068	539.8
315.461	547.2
315.854	560.2
316.247	540
316.64	534.6
317.033	541.8
317.405	541.6
317.798	539.2
318.192	540.2
318.585	528.4
318.979	545.6
319.372	533.2
319.766	539.6
320.16	547.2
320.553	548.6
320.947	544.6
321.341	529
321.735	535.4
322.129	525.2
322.523	556.2
322.917	532
323.311	540.6
323.705	543.2
324.099	542
324.494	547.2
324.888	542.2
325.282	536
325.677	545
326.071	541.6
326.466	546.8
326.861	534.8
327.255	553.8
327.65	540
328.045	556.2
328.44	541
328.835	538.6
329.23	530.8
329.625	556.4
330.02	538.6
330.415	545.4
330.81	533.2
331.206	538.6
331.601	529.6
331.996	541.8
332.37	552.4
332.766	521.8
333.161	560.8
333.557	532.6
333.953	530.8
334.348	882
334.744	542.2
335.14	533
335.536	529.2
335.932	546.2
336.328	538
336.724	539.2
337.12	531.6
337.516	532.6
337.913	534.2
338.309	539.4
338.705	535.8
339.102	546.8
339.498	527.2
339.895	549.4
340.291	531.6
340.688	543.6
341.085	527.6
341.481	541.4
341.878	539.2
342.275	546.8
342.672	529.6
343.069	527.8
343.466	523.2
343.842	535.2
344.239	527.8
344.636	530.8
345.033	527.4
345.431	529.6
345.828	538.8
346.225	525.6
346.623	558
347.02	535.8
347.418	539.4
347.816	542.2
348.213	527.6
348.611	536.6
349.009	529.8
349.407	548
349.805	526.8
350.203	523
350.601	546.6
350.999	531.8
351.397	576.4
351.795	533.8
352.193	543.2
352.57	538.4
352.969	536.8
353.367	527.8
353.766	519.8
354.164	523.6
354.563	540.8
354.961	532.4
355.36	534
355.759	533.2
356.158	525.6
356.557	528.8
356.956	524
357.355	521.2
357.754	529.4
358.153	529.6
358.552	546.6
358.951	524
359.35	547.2
359.75	528.8
360.149	526.8
360.527	515
360.926	520.6
361.326	522.6
361.726	525.2
362.125	528.6
362.525	534.2
362.925	525.6
363.325	528.2
363.724	531.2
364.124	519.8
364.524	514.2
364.924	525.8
365.324	531.4
365.725	515
366.125	530.6
366.525	535.4
366.904	522
367.304	513.4
367.705	541.6
368.105	536.6
368.506	529.6
368.906	537.8
369.307	524
369.708	530
370.108	521.6
370.509	536
370.91	524.4
371.311	529.6
371.712	534
372.113	529.2
372.514	513.6
372.894	533.2
373.295	529.4
373.696	537.8
374.097	535.6
374.499	544.8
374.9	533.2
375.301	515.6
375.703	524
376.105	516.6
376.506	539
376.908	525.2
377.309	528
377.711	522.6
378.113	530.6
378.493	527
378.895	521.4
379.297	538.8
379.699	512.2
380.102	534.8
380.504	527.8
380.906	527.2
381.308	549.8
381.71	531.6
382.113	535.8
382.515	523.8
382.918	536.8
383.299	534.8
383.701	538.8
384.104	525.8
384.507	518.4
384.909	524.2
385.312	517.6
385.715	526.8
386.118	531.6
386.521	515.6
386.924	533
387.327	522.6
387.709	521.8
388.112	506.8
388.515	521.4
388.918	521.2
389.322	531.6
389.725	519
390.129	546.6
390.532	528
390.936	526.6
391.339	523.2
391.743	523.6
392.125	519.6
392.529	533.8
392.933	539
393.337	524
393.74	524.4
394.144	531.8
394.548	518.4
394.953	533.4
395.357	532
395.761	533.2
396.144	521.4
396.548	523
396.952	523.6
397.357	521.6
397.761	516.2
398.166	527.8
398.57	520.6
398.975	512.2
399.379	524.2
399.763	561.6
400.168	524
400.572	525.2
400.977	525.2
401.382	538.6
401.787	534.6
402.192	534.6
402.597	541.6
403.002	513.6
403.386	534.2
403.791	538.6
404.197	514
404.602	523.8
405.007	523.2
405.413	526.2
405.818	527.8
406.224	516.6
406.608	524
407.014	515
407.42	543.8
407.825	516.4
408.231	527.8
408.637	525
409.043	535
409.449	527.2
409.834	521
410.24	524.4
410.646	541
411.052	534.4
411.458	538
411.865	537.6
412.271	536
412.677	526.2
413.062	531.4
413.469	515
413.875	552.2
414.282	534
414.689	521.2
415.095	529.2
415.502	522.8
415.888	526.4
416.294	519.6
416.701	561.6
417.108	526.4
417.515	529.6
417.923	529.4
418.33	537.2
418.715	535.8
419.123	523.4
419.53	526.6
419.937	525.2
420.345	539.6
420.752	522.4
421.16	534.8
421.546	533.8
421.953	529.4
422.361	520.6
422.769	532
423.177	526.8
423.585	545.8
423.992	547.6
424.379	537.8
424.787	531.4
425.195	547
425.603	532.8
426.011	535.2
426.419	540
426.806	535.2
427.214	527
427.623	537.8
428.031	549.4
428.44	534.8
428.848	554.4
429.235	554.4
429.644	551.2
430.053	550
430.461	578.6
430.87	590.2
431.279	583.8
431.666	577.2
432.075	597
432.484	608.2
432.893	621.6
433.302	640.8
433.711	680.8
434.099	683.6
434.508	680
434.918	688.4
435.327	717.8
435.737	729
436.125	750
436.534	767.6
436.944	791.8
437.353	809.4
437.763	835.4
438.173	833.2
438.561	865.8
438.971	870.6
439.381	890.4
439.791	908.8
440.201	916.2
440.589	938
440.999	966.8
441.409	976.2
441.819	965.6
442.23	1005.4
442.619	1004.8
443.029	1021.8
443.439	1023.2
443.85	1049.6
444.26	1056.8
444.649	1051.2
445.06	1058.6
445.471	1050.2
445.881	1074.4
446.292	1107
446.682	1099.8
447.092	1093
447.503	1153
447.914	1120
448.325	1134.8
448.715	1134.2
449.126	1127.2
449.537	1136.2
449.948	1138.2
450.338	1139.2
450.75	1144.6
451.161	1137.6
451.572	1159.4
451.984	1163.8
452.374	1147.2
452.786	1159.6
453.197	1171
453.609	1189.8
453.999	1160.4
454.411	1165.8
454.823	1178.4
455.235	1175.6
455.647	1170
456.037	1177.8
456.449	1167.8
456.862	1184.6
457.274	1178.4
457.665	1180
458.077	1188.2
458.489	1199.4
458.902	1181.2
459.293	1182.2
459.705	1189.4
460.118	1182.4
460.53	1167.8
460.921	1182.4
461.334	1182
461.747	1177.6
462.16	1198
462.551	1193.4
462.964	1189.4
463.377	1170.8
463.79	1180.4
464.182	1186.8
464.595	1184.8
465.008	1195
465.421	1187.2
465.813	1183.8
466.226	1174.8
466.64	1188.2
467.053	1215
467.445	1210.8
467.859	1201.4
468.272	1204.2
468.686	1192.2
469.078	1189.6
469.492	1174.6
469.906	1176.2
470.298	1203
470.712	1181.2
471.126	1222.8
471.54	1178.6
471.933	1169.4
472.347	1186.2
472.761	1178.2
473.175	1171.8
473.568	1173.4
473.982	1161
474.397	1177.4
474.79	1185.8
475.204	1161.4
475.619	1167.8
476.033	1173.2
476.426	1146.6
476.841	1152.2
477.256	1160.8
477.649	1140.8
478.064	1133.4
478.479	1133
478.872	1111.8
479.287	1113.8
479.702	1128.4
480.118	1125.4
480.511	1118.4
480.927	1119.2
481.342	1121.8
481.736	1100
482.151	1091.8
482.566	1104.4
482.96	1116.6
483.376	1127.2
483.792	1102.4
484.186	1096.4
484.602	1086.2
485.017	1085.2
485.412	1097.4
485.827	1086.4
486.243	1077.2
486.638	1089.2
487.054	1082.8
487.47	1072.4
487.865	1061.4
488.281	1055.2
488.697	1054
489.092	1050.4
489.508	1035.4
489.925	1053
490.32	1026.8
490.736	1040.6
491.153	1023.8
491.548	1026
491.964	1033.6
492.381	1006.4
492.776	1017
493.193	1002.4
493.61	1012.8
494.006	1008
494.422	999.6
494.84	973.6
495.235	994.6
495.652	976.2
496.069	978.4
496.465	969.6
496.883	978
497.3	998.8
497.696	966.4
498.113	967.6
498.509	942.8
498.927	948
499.344	939.6
499.741	938.6
500.158	940.4
500.576	941.6
500.973	947.8
501.39	921.4
501.787	903.2
502.205	922.2
502.623	901.2
503.02	911.4
503.438	902.2
503.856	901.2
504.253	902.2
504.671	902.2
505.068	902.8
505.486	887.2
505.905	905
506.302	881.2
506.72	881.2
507.118	873.4
507.536	866.6
507.955	878
508.352	869
508.771	866.2
509.169	860.8
509.587	848.2
510.006	851.6
510.404	838
510.823	839
511.221	836.8
511.64	839
512.038	842.4
512.457	833.8
512.877	827.6
513.275	829.4
513.694	820.6
514.092	813.4
514.512	808.8
514.91	806
515.33	802.4
515.749	809.2
516.148	805.2
516.568	802
516.966	797.6
517.386	799
517.785	797.6
518.205	789.2
518.603	780.8
519.024	773.8
519.444	773.2
519.843	782.6
520.263	782.6
520.662	773.8
521.082	774.2
521.481	763.8
521.902	755
522.301	758
522.722	763.8
523.121	754.4
523.542	756.8
523.963	739
524.362	728.6
524.783	730
525.183	731.4
525.604	727.6
526.003	731.6
526.425	722.6
526.824	726.2
527.246	740
527.646	736.2
528.067	733.4
528.467	728.2
528.888	713.6
529.289	711.4
529.71	711.4
530.11	717
530.532	712.2
530.932	707
531.354	692.6
531.755	726.2
532.176	700.4
532.577	703.4
532.999	695.8
533.4	700
533.822	694.8
534.223	688.6
534.645	684.8
535.046	684
535.468	683.8
535.869	695.4
536.292	675.8
536.693	709
537.115	676
537.516	678
537.939	668.6
538.34	687.2
538.742	676.8
539.165	670.2
539.566	668.8
539.989	661
540.391	663.8
540.814	669
541.216	668
541.639	657.4
542.041	666.6
542.464	662.4
542.866	652.4
543.268	646
543.691	665.8
544.093	657.4
544.517	662.8
544.919	638.4
545.343	664.4
545.745	632.4
546.147	648
546.571	642.2
546.974	633.4
547.398	643.8
547.8	655.2
548.224	642
548.627	621.4
549.03	637
549.454	624
549.857	614.6
550.281	614.6
550.684	612.4
551.087	626
551.512	632
551.915	637.4
552.34	623.8
552.743	606.8
553.146	619
553.571	613.6
553.975	631.6
554.399	613.4
554.803	652.4
555.207	599.4
555.632	601.2
556.036	609
556.461	597.8
556.865	608.6
557.268	598.2
557.694	611.8
558.098	603
558.502	597
558.927	593.8
559.332	603.6
559.736	601
560.162	599.6
560.566	594
560.992	604
561.396	597.8
561.801	593.6
562.227	594.2
562.631	590.6
563.036	584.2
563.462	597.8
563.867	586.2
564.272	573
564.698	593.2
565.103	575.8
565.508	599.4
565.935	592.6
566.34	574
566.745	600
567.172	589.2
567.577	596
567.982	591
568.409	579.6
568.815	583.2
569.22	581.6
569.626	587.4
570.053	570.8
570.459	582.8
570.865	584.8
571.292	578
571.698	573.4
572.104	557.2
572.531	573
572.937	578.2
573.343	571.2
573.75	567.6
574.177	572.2
574.583	567.8
574.99	563.4
575.396	577.2
575.824	569.2
576.231	569.8
576.637	567
577.065	589
577.472	559.8
577.879	566.6
578.286	576.8
578.714	550.6
579.121	558.8
579.528	574.4
579.935	563.4
580.364	559.4
580.771	545.6
581.178	550.2
581.585	556.4
582.014	556.6
582.421	549.2
582.829	554.6
583.236	557
583.644	550.8
584.073	558.2
584.481	553.2
584.889	550.6
585.296	565.4
585.726	555.4
586.134	542
586.542	546.8
586.95	560
587.358	540.6
587.787	542.4
588.196	543.2
588.604	541.4
589.012	547.4
589.421	539.8
589.851	542
590.259	554.6
590.668	541
591.076	575
591.485	533.6
591.894	545.4
592.324	551.4
592.733	555.6
593.142	524.2
593.551	537.2
593.96	571.8
594.369	533.4
594.8	528.2
595.209	542.4
595.618	525
596.028	534.6
596.437	540.8
596.847	534.8
597.256	536
597.687	539.4
598.097	536.6
598.507	537.6
598.917	535.2
599.327	549.6
599.736	539.2
600.146	547.8
600.556	544
600.988	552.4
601.398	536.6
601.808	548.4
602.219	526.8
602.629	540
603.039	539
603.45	553.6
603.86	533.2
604.271	544.8
604.703	535.6
605.114	534
605.525	538.4
605.935	545
606.346	550.6
606.757	538.8
607.168	533.4
607.579	533.4
607.99	546
608.402	540
608.813	542
609.224	532.2
609.636	528.8
610.047	528.8
610.48	542.6
610.892	544.2
611.303	544.6
611.715	538
612.127	532.4
612.539	537.4
612.95	542.6
613.362	539.6
613.774	535
614.186	541.8
614.599	535.2
615.011	555.4
615.423	554.2
615.835	545
616.248	543.4
616.66	551
617.073	539
617.485	537.4
617.898	549.6
618.311	547.4
618.723	549.4
619.136	571.6
619.549	559.4
619.962	561
620.375	539
620.788	543.6
621.201	544.6
621.614	549.4
622.028	544.4
622.441	553.8
622.854	567
623.268	541.4
623.681	553.4
624.095	550.2
624.509	556.4
624.922	549
625.336	530.8
625.728	547.2
626.142	565
626.556	559.2
626.97	556.2
627.384	549
627.799	546.2
628.213	555.6
628.627	551.8
629.041	553.8
629.456	550.6
629.87	545.6
630.285	553.6
630.699	560.8
631.093	547.8
631.507	554.6
631.922	548.2
632.337	559.4
632.752	541.4
633.167	553.8
633.582	550.4
633.997	542.6
634.412	544.8
634.806	551
635.221	545.2
635.637	558.2
636.052	535.6
636.468	547.4
636.883	561
637.299	549.4
637.715	525.8
638.109	548.2
638.525	539.4
638.941	549.8
639.357	539.6
639.773	549.6
640.189	538
640.584	542.6
641	541.8
641.416	528.4
641.832	542.4
642.249	534.2
642.665	537.2
643.06	540.2
643.477	542.6
643.894	524.6
644.31	533.2
644.727	529.4
645.123	534.2
645.54	524.4
645.957	528.6
646.374	547
646.77	522
647.187	551.2
647.604	535.8
648.021	525.8
648.439	526.8
648.835	530.8
649.252	523
649.67	528.8
650.088	530.8
650.484	527.6
650.902	529
651.32	528.2
651.738	526
652.134	531
652.552	530.4
652.971	534.2
653.389	523.4
653.786	533.2
654.204	529.4
654.622	523.4
655.019	520.8
655.438	520.6
655.857	525.8
656.275	525.8
656.673	528.4
657.091	529.8
657.51	522
657.908	528
658.327	537
658.746	516
659.144	518.4
659.563	524.6
659.982	528.4
660.38	516
660.8	520.4
661.219	529.6
661.617	522.2
662.037	519.6
662.457	530.8
662.855	513.4
663.275	542.6
663.695	518
664.094	518.4
664.514	519.4
664.934	511.2
665.333	533.6
665.753	514.6
666.152	513.2
666.572	513.6
666.993	531.6
667.392	516.8
667.812	514.2
668.212	507
668.632	524.8
669.053	515.6
669.453	517.2
669.874	515
670.273	515.4
670.694	513.2
671.116	521.4
671.515	523.2
671.937	515.2
672.337	511.2
672.758	513.6
673.158	522.8
673.58	512.6
673.98	515.4
674.402	530
674.824	514.4
675.224	511.4
675.646	503.8
676.047	513.6
676.469	510.6
676.869	515.6
677.292	515.8
677.693	509.4
678.115	503.8
678.516	506
678.939	510.8
679.34	507.2
679.762	515.6
680.164	507.6
680.586	502.8
680.988	508.2
681.411	524.8
681.812	511.2
682.236	499.2
682.637	510.2
683.061	507.2
683.462	516.4
683.864	499.2
684.288	511.4
684.69	501.6
685.114	511.6
685.516	510.2
685.94	494
686.342	521.4
686.766	500.8
687.168	495
687.571	521.2
687.995	511.6
688.398	497.4
688.822	496.8
689.225	522.4
689.628	527.8
690.052	501.4
690.456	510.2
690.88	506
691.284	500.8
691.687	506.8
692.112	498.4
692.515	500.8
692.919	509.2
693.344	508
693.747	507.4
694.173	499.4
694.577	516.4
694.98	506.4
695.406	509.4
695.81	510.2
696.214	504
696.64	507.2
697.044	514.2
697.448	511.8
697.874	501
698.279	510
698.684	497.4
699.11	502
699.514	499.2
699.919	506.2
700.324	500.6
700.75	501.8
701.156	502.2
701.561	514.6
701.987	515.4
702.393	507
702.798	513.6
703.203	505.8
703.63	492.4
704.036	506.4
704.442	493.8
704.847	496.6
705.274	502.4
705.68	506.2
706.086	518.4
706.492	491
706.92	502
707.326	512.8
707.732	506.4
708.139	493.8
708.545	497.8
708.973	502.4
709.38	502.2
709.786	500.6
710.193	519
710.6	504.4
711.028	500.4
711.435	502.2
711.842	503.6
712.249	498.4
712.656	501.4
713.064	513
713.492	498.4
713.9	498.8
714.307	515.6
714.715	502.6
715.123	504.8
715.53	505
715.938	504.4
716.367	510.8
716.775	501.2
717.184	496.2
717.592	500.4
718	509.6
718.408	536.8
718.816	539
719.225	510.4
719.633	504
720.042	491.4
720.472	501.4
720.881	519.4
721.29	511
721.699	492.4
722.108	500
722.517	507.2
722.926	497.4
723.335	515.4
723.744	498
724.154	510.2
724.563	508.4
724.973	500.2
725.382	501.2
725.792	505.8
726.202	489.6
726.612	515.2
727.022	505.6
727.432	497.8
779.813	500.8
780.223	532.8
780.634	498.4
781.044	497
781.454	501.4
781.865	510.8
782.276	503.4
782.686	506.6
783.097	503.8
783.508	505.8
783.919	495.8
784.33	515.4
784.741	513.8
785.152	499.6
785.563	499
785.974	501
786.386	506.8
786.776	499.6
787.188	505.8
787.599	496
788.011	510.8
788.423	501.8
788.835	495
789.247	500.6
789.659	504.2
790.071	500.6
790.483	535.6
790.874	502.4
791.286	508.6
791.699	498.2
792.111	498
792.524	506.6
792.937	498.2
793.349	499.4
793.741	504
794.154	501.2
794.567	512.6
794.98	497.8
795.393	483.2
795.785	508.2
796.198	493.2
796.612	504.8
797.026	501.6
797.439	486
797.831	494.6
798.245	494.4
798.659	493.4
799.073	502.6
799.487	495.4
799.88	493.6
800.294	495.8
800.708	502
801.123	499.4
801.516	516
801.93	490.4
802.345	487.2
802.76	499
803.153	513.4
803.568	512.6
803.983	509
804.377	501.4
804.792	494.4
805.207	490.8
805.601	508.2
806.016	527.6
806.432	493.8
806.826	531.4
807.242	511.4
807.658	499.8
808.052	499.4
808.468	499.8
808.884	493.2
809.279	497
809.695	512
810.111	517.8
810.506	508.4
810.922	517.2
811.339	496.4
811.734	502.2
812.151	502
812.546	502.4
812.963	495.6
813.38	505.6
813.776	498.6
814.193	519.4
814.589	495.6
815.006	499.4
815.402	498.4
815.82	498
816.237	508
816.633	493.8
817.051	493.8
817.448	502.4
817.866	490.2
818.262	516.2
818.68	496.6
819.077	494.6
819.495	494.2
819.892	539.8
820.311	489.4
820.708	502.6
821.127	497.6
821.524	507.6
821.943	501.4
822.34	511.2
822.759	505.4
823.157	502.4
823.576	512.8
823.974	504.4
824.393	591.2
824.791	495
825.189	490
825.609	493.6
826.007	494.6
826.427	490
826.826	495.6
827.246	496.6
827.644	489.6
828.043	506.4
828.463	489.6
828.862	499.6
829.261	502.4
829.682	485.4
830.081	502.6
830.502	494.6
830.901	506.8
831.301	498.2
831.722	490.6
832.121	504.4
832.521	499
832.943	509
833.342	497.8
833.742	486
834.164	501.2
834.564	492.2
834.965	495.4
835.386	495.8
835.787	499.4
836.188	499.4
836.588	500
837.01	494.4
837.411	486.4
837.812	499
838.213	498.4
838.636	495.4
839.037	558.2
839.438	494.8
839.84	493.8
840.263	504.4
840.664	498
841.066	494.4
841.468	499
841.891	496.4
842.293	499.2
842.695	499.6
843.098	502.8
843.5	498.2
843.902	510
844.326	502.6
844.729	502.2
845.131	502.6
845.534	500.6
845.937	509.4
846.34	514.6
846.764	493.4
847.167	494.2
847.571	486
847.974	503.4
848.377	490.4
848.781	536.2
849.184	507.6
849.588	493.8
849.992	490.4
850.396	497.4
850.821	511.6
851.225	496.4
851.63	497.6
