#lambda/nm	C1
208.295	470.6
208.67	435.4
209.045	400.8
209.419	406.4
209.794	540.4
210.169	526.2
210.544	634.8
210.919	544.4
211.295	529.8
211.67	536.8
212.045	533.8
212.421	538.8
212.796	565.4
213.172	529
213.547	531.6
213.923	535
214.299	529.6
214.675	545
215.051	541.8
215.427	548.6
215.803	548
216.179	540
216.555	532.4
216.932	538
217.308	540.2
217.684	542.6
218.061	547.2
218.438	539.6
218.814	534
219.191	541.6
219.568	525.6
219.945	540.2
220.322	535.4
220.699	545.2
221.076	548.6
221.453	534.2
221.83	530
222.208	541.8
222.585	535.4
222.962	533.6
223.34	547
223.717	533.8
224.095	539.2
224.473	533.2
224.851	540.4
225.229	523.8
225.607	550.4
225.985	527.2
226.363	536.4
226.741	545.6
227.119	544.4
227.497	548.8
227.876	533
228.254	546.2
228.633	535.4
229.011	541
229.39	543.2
229.769	542.2
230.148	555.6
230.527	550.2
230.905	533.6
231.284	542.8
231.664	538.4
232.043	548
232.422	535.6
232.801	536
233.181	540.2
233.56	539.2
233.94	545.8
234.319	530.8
234.699	533.6
235.079	568.8
235.458	566
235.838	544.8
236.218	530
236.598	534
236.978	536.6
237.358	534.2
237.738	529.4
238.119	544.4
238.499	531.4
238.88	534.2
239.26	548.8
239.641	520.4
240.021	534.6
240.402	530
240.783	544.8
241.163	535.4
241.544	535
241.925	535.6
242.306	550.2
242.687	537.8
243.069	535
243.45	542
243.831	540.2
244.212	530
244.594	567.8
244.975	544.4
245.357	546
245.739	532.4
246.12	533.8
246.502	557.8
246.884	537
247.266	530
247.648	536.2
248.03	558.4
248.412	544.6
248.794	539.2
249.176	532.4
249.559	543.6
249.941	526.2
250.323	528.6
250.706	529
251.089	541
251.471	543.2
251.854	536.2
252.237	535.2
252.62	549.4
253.002	534.2
253.385	535
253.769	554
254.152	535.8
254.535	544
254.918	526.8
255.301	534.8
255.685	540.8
256.068	530.8
256.452	554
256.835	540.2
257.219	544.4
257.603	550.2
257.986	533
258.37	545.2
258.754	523.8
259.138	547.2
259.522	546
259.906	525.2
260.29	541.6
260.675	534.8
261.059	535
261.443	529.2
261.828	540.6
262.212	541.4
262.597	524.8
262.981	534.2
263.366	542.4
263.751	533.8
264.136	534.8
264.521	535.4
264.906	526
265.291	538.2
265.676	530.2
266.061	539.4
266.446	555
266.831	537.4
267.217	553.6
267.602	541.4
267.987	540.2
268.373	533.8
268.759	543.2
269.144	540.2
269.53	539.8
269.916	533
270.302	535.6
270.688	532.8
271.074	539.4
271.46	551.6
271.846	566.4
272.232	536.8
272.618	534
273.004	541.8
273.391	553.2
273.777	552.4
274.164	536.2
274.55	538.8
274.937	537.8
275.324	531.6
275.71	544
276.097	541
276.484	536.4
276.871	540.6
277.258	537.8
277.645	527.8
278.032	534.4
278.419	531
278.807	537.8
279.194	524.2
279.581	529.8
279.969	545.6
280.356	537.2
280.744	535
281.131	556.6
281.519	544
281.907	530.2
282.295	531.6
282.682	549
283.07	536.8
283.458	551
283.846	546.2
284.235	545
284.623	538.6
285.011	529.8
285.399	537.8
285.788	536.4
286.176	524.4
286.565	549.6
286.953	535.4
287.342	531
287.731	533
288.119	531
288.508	538.2
288.897	531.6
289.286	521.4
289.675	530
290.064	545.8
290.453	533.8
290.821	534.8
291.21	544.8
291.599	534.6
291.989	530.2
292.378	539.2
292.768	547
293.157	539.6
293.547	542.2
293.936	534.6
294.326	529
294.716	538.8
295.106	537
295.496	532.8
295.886	548.6
296.276	531.2
296.666	531.8
297.056	525.2
297.446	526.8
297.836	550.2
298.227	528.6
298.617	545
299.008	541.6
299.398	538.2
299.789	536.2
300.179	540
300.57	542.4
300.961	529.2
301.352	531
301.742	546.6
302.133	532
302.524	540.2
302.915	537
303.307	527.4
303.698	546
304.089	540.2
304.48	528.4
304.872	541.8
305.263	534.8
305.655	533.8
306.046	546
306.438	539.8
306.829	528
307.221	548.4
307.613	534.4
308.005	542.8
308.397	542.4
308.789	557.2
309.181	555.8
309.573	554.6
309.965	551
310.357	533.2
310.749	552.6
311.142	534.8
311.534	534.6
311.926	544.4
312.319	538.2
312.711	528.6
313.104	544.2
313.497	532.6
313.889	562.4
314.282	550.8
314.675	556.8
315.068	534.8
315.461	541
315.854	569.2
316.247	539
316.64	532.6
317.033	538.4
317.405	542.6
317.798	531.6
318.192	541
318.585	531.2
318.979	540.2
319.372	537.4
319.766	536
320.16	541.6
320.553	550.2
320.947	546.4
321.341	538.6
321.735	533.2
322.129	527.6
322.523	559.6
322.917	526.8
323.311	542.4
323.705	539.4
324.099	536.8
324.494	555
324.888	535.6
325.282	540.6
325.677	551
326.071	535
326.466	545.6
326.861	535.6
327.255	549.8
327.65	553
328.045	552.8
328.44	535.6
328.835	536.6
329.23	531
329.625	548.4
330.02	529.6
330.415	560.6
330.81	538.4
331.206	539
331.601	535.6
331.996	546.8
332.37	560.4
332.766	533.8
333.161	559.8
333.557	534.8
333.953	539.4
334.348	878.8
334.744	537.6
335.14	535.4
335.536	532
335.932	555.2
336.328	532.8
336.724	543.8
337.12	543
337.516	543.8
337.913	534.8
338.309	558
338.705	535.4
339.102	538.8
339.498	531.4
339.895	551.6
340.291	524.4
340.688	538.8
341.085	535.6
341.481	533.4
341.878	535.4
342.275	554.6
342.672	530.8
343.069	537.4
343.466	526
343.842	543.8
344.239	530.8
344.636	538.8
345.033	530.4
345.431	534.8
345.828	536.8
346.225	526.6
346.623	561.6
347.02	529.2
347.418	544.4
347.816	544.2
348.213	527
348.611	536.8
349.009	529.6
349.407	539.8
349.805	518.8
350.203	531.2
350.601	541.8
350.999	533.2
351.397	583.2
351.795	540.2
352.193	544
352.57	544.6
352.969	544.2
353.367	527
353.766	527
354.164	528
354.563	544.2
354.961	530.8
355.36	530
355.759	531.8
356.158	521.8
356.557	534.2
356.956	524.8
357.355	523.8
357.754	536.4
358.153	541.2
358.552	555.4
358.951	531.4
359.35	546.6
359.75	530.2
360.149	525
360.527	524
360.926	519
361.326	538.8
361.726	524.2
362.125	524.4
362.525	542.8
362.925	530.2
363.325	539
363.724	534
364.124	521.6
364.524	522.6
364.924	530.8
365.324	537.8
365.725	515
366.125	540
366.525	529.4
366.904	528.6
367.304	515
367.705	540.8
368.105	544
368.506	536.8
368.906	535
369.307	526.4
369.708	526
370.108	524.6
370.509	538
370.91	528
371.311	531
371.712	534
372.113	532.4
372.514	522.2
372.894	533.6
373.295	524.2
373.696	535.4
374.097	536.4
374.499	548.6
374.9	536.6
375.301	529.8
375.703	530.8
376.105	526.4
376.506	536.8
376.908	529
377.309	536.8
377.711	525.4
378.113	520.8
378.493	529.4
378.895	529
379.297	539.6
379.699	510.8
380.102	529.6
380.504	526.2
380.906	522.6
381.308	552.6
381.71	520
382.113	538.2
382.515	527
382.918	532
383.299	531.8
383.701	537.8
384.104	524
384.507	509.8
384.909	525.2
385.312	520.2
385.715	523.4
386.118	523.4
386.521	522.2
386.924	543.6
387.327	522.8
387.709	519.2
388.112	511
388.515	524
388.918	525.6
389.322	532.4
389.725	525
390.129	544.6
390.532	526.6
390.936	527.8
391.339	513.4
391.743	530.8
392.125	523
392.529	535.8
392.933	530.2
393.337	520
393.74	523.2
394.144	522.6
394.548	519.4
394.953	524.2
395.357	536
395.761	529.6
396.144	531.6
396.548	527.4
396.952	524.6
397.357	523.2
397.761	523.8
398.166	523.4
398.57	518.4
398.975	521.4
399.379	525.2
399.763	565
400.168	530
400.572	526.8
400.977	519.6
401.382	545
401.787	528
402.192	539.6
402.597	548
403.002	521.6
403.386	531.8
403.791	539.2
404.197	521.4
404.602	534.6
405.007	530.6
405.413	522
405.818	525.6
406.224	524
406.608	519.2
407.014	525.4
407.42	539.2
407.825	519.2
408.231	534
408.637	538.8
409.043	537.8
409.449	533.2
409.834	523
410.24	528.2
410.646	542.6
411.052	540.8
411.458	531.8
411.865	533.2
412.271	536.2
412.677	527.2
413.062	529.2
413.469	522
413.875	545.4
414.282	540.4
414.689	531.4
415.095	533.2
415.502	517.6
415.888	530.8
416.294	523.6
416.701	559.8
417.108	524.4
417.515	538.8
417.923	527
418.33	545.4
418.715	533.4
419.123	530.2
419.53	523.6
419.937	529.8
420.345	544.8
420.752	530.2
421.16	541.2
421.546	532.2
421.953	526
422.361	535
422.769	528.2
423.177	521.6
423.585	551
423.992	545.2
424.379	548
424.787	534.6
425.195	552.8
425.603	527.8
426.011	536.4
426.419	546.4
426.806	535.4
427.214	538
427.623	544.8
428.031	549.4
428.44	561.2
428.848	560.6
429.235	568.8
429.644	564.6
430.053	567.8
430.461	588
430.87	615.8
431.279	608.4
431.666	609.2
432.075	641.8
432.484	654.2
432.893	664
433.302	693.8
433.711	732.6
434.099	723.6
434.508	737.6
434.918	756.2
435.327	792.2
435.737	812.6
436.125	831.8
436.534	858.8
436.944	882.4
437.353	902.4
437.763	942.8
438.173	949.6
438.561	971.8
438.971	990
439.381	1016.6
439.791	1039.8
440.201	1048.8
440.589	1074.2
440.999	1095.6
441.409	1122.8
441.819	1121.2
442.23	1159
442.619	1168.4
443.029	1192.4
443.439	1199
443.85	1221.2
444.26	1222.2
444.649	1220
445.06	1239.8
445.471	1264.2
445.881	1269
446.292	1280.6
446.682	1309
447.092	1290.6
447.503	1342
447.914	1305
448.325	1321.4
448.715	1331.8
449.126	1318.2
449.537	1342.4
449.948	1333.6
450.338	1325
450.75	1342.8
451.161	1363
451.572	1350.2
451.984	1359.2
452.374	1357.4
452.786	1357.6
453.197	1373.2
453.609	1382.6
453.999	1377.4
454.411	1368.8
454.823	1378.8
455.235	1393.8
455.647	1384.4
456.037	1377.2
456.449	1406.6
456.862	1398.4
457.274	1403.8
457.665	1399.2
458.077	1397
458.489	1419.2
458.902	1406.4
459.293	1406.4
459.705	1387.8
460.118	1388
460.53	1395.8
460.921	1418.4
461.334	1415.2
461.747	1425.6
462.16	1445.4
462.551	1422.6
462.964	1418.6
463.377	1421
463.79	1409.6
464.182	1432.8
464.595	1411.4
465.008	1408.8
465.421	1422.6
465.813	1408.6
466.226	1446.2
466.64	1405.2
467.053	1444.2
467.445	1422.4
467.859	1450.6
468.272	1432.4
468.686	1431
469.078	1437.2
469.492	1401.8
469.906	1417.2
470.298	1422.4
470.712	1397.4
471.126	1451.8
471.54	1383.4
471.933	1395
472.347	1399.8
472.761	1393.6
473.175	1389.6
473.568	1382.2
473.982	1381.2
474.397	1384.6
474.79	1381
475.204	1392.6
475.619	1373.2
476.033	1389.2
476.426	1378.6
476.841	1378.8
477.256	1374.8
477.649	1343.2
478.064	1338.6
478.479	1339.8
478.872	1339.8
479.287	1333
479.702	1344.8
480.118	1342.2
480.511	1345.8
480.927	1334.4
481.342	1316.4
481.736	1316.6
482.151	1304
482.566	1311.2
482.96	1300.8
483.376	1298.4
483.792	1292.2
484.186	1281.6
484.602	1273.6
485.017	1288.6
485.412	1265.2
485.827	1294.8
486.243	1262.6
486.638	1272.2
487.054	1259.2
487.47	1261.2
487.865	1244.2
488.281	1245
488.697	1230.8
489.092	1226.6
489.508	1226.4
489.925	1216.4
490.32	1200.8
490.736	1207
491.153	1193
491.548	1192.6
491.964	1196.8
492.381	1185.6
492.776	1182.8
493.193	1174.8
493.61	1174.8
494.006	1150.4
494.422	1158.6
494.84	1143.8
495.235	1151
495.652	1150.2
496.069	1135.2
496.465	1113.2
496.883	1133.8
497.3	1139.8
497.696	1114.2
498.113	1112.4
498.509	1089.6
498.927	1086.4
499.344	1088.4
499.741	1080.2
500.158	1072.6
500.576	1085.4
500.973	1067.6
501.39	1074.2
501.787	1051.4
502.205	1069
502.623	1046.6
503.02	1047.6
503.438	1035
503.856	1026
504.253	1033.4
504.671	1038.8
505.068	1011.8
505.486	1014
505.905	1027.8
506.302	1018.4
506.72	1001.4
507.118	978.2
507.536	992.4
507.955	987.2
508.352	987.6
508.771	980
509.169	971.2
509.587	965.4
510.006	963.6
510.404	943.6
510.823	941.8
511.221	946
511.64	947
512.038	947.2
512.457	943.4
512.877	927.6
513.275	930.4
513.694	913
514.092	911.6
514.512	916.8
514.91	913.6
515.33	906.4
515.749	903.2
516.148	900.8
516.568	900.4
516.966	882
517.386	884
517.785	881.6
518.205	878.6
518.603	866.4
519.024	861.2
519.444	861.2
519.843	868.2
520.263	872.6
520.662	865
521.082	848.6
521.481	849.4
521.902	850
522.301	843.2
522.722	840.8
523.121	824.2
523.542	822.6
523.963	814.2
524.362	819.4
524.783	818.4
525.183	803.4
525.604	811.2
526.003	795.4
526.425	801.2
526.824	791.4
527.246	800.8
527.646	798.4
528.067	796.6
528.467	787.6
528.888	784.8
529.289	784.4
529.71	775.6
530.11	772.2
530.532	762.2
530.932	765.8
531.354	755.8
531.755	783
532.176	761.6
532.577	758
532.999	751
533.4	750.6
533.822	754.6
534.223	752.6
534.645	744.4
535.046	740.8
535.468	733.8
535.869	741.2
536.292	725.8
536.693	759.8
537.115	736.8
537.516	721.4
537.939	728.4
538.34	739.2
538.742	738.8
539.165	725.2
539.566	714.2
539.989	719.2
540.391	715.4
540.814	715.6
541.216	709.6
541.639	708.6
542.041	715.6
542.464	712.8
542.866	701.4
543.268	689.4
543.691	708.8
544.093	695.8
544.517	703.4
544.919	687.6
545.343	714.2
545.745	689.6
546.147	686.4
546.571	682.8
546.974	671.8
547.398	677
547.8	689
548.224	671.2
548.627	664.8
549.03	680
549.454	657.8
549.857	662.2
550.281	653.6
550.684	660.2
551.087	664
551.512	660.6
551.915	668.4
552.34	660.8
552.743	655.6
553.146	645.6
553.571	658.8
553.975	662.6
554.399	651.6
554.803	684
555.207	639
555.632	637.4
556.036	645.8
556.461	638.6
556.865	646.6
557.268	635.4
557.694	633.2
558.098	642.2
558.502	634
558.927	626.8
559.332	626.6
559.736	626.6
560.162	633.4
560.566	622
560.992	635.4
561.396	625.4
561.801	619.2
562.227	619.4
562.631	611.2
563.036	614.6
563.462	620.6
563.867	623.2
564.272	602.8
564.698	617.4
565.103	607.2
565.508	629.4
565.935	617.6
566.34	608.8
566.745	622.2
567.172	604.4
567.577	614.2
567.982	611
568.409	607
568.815	592.4
569.22	592.6
569.626	600.8
570.053	582.2
570.459	600
570.865	605.2
571.292	590.6
571.698	601
572.104	582.8
572.531	594.4
572.937	599.2
573.343	589.6
573.75	590.8
574.177	591.6
574.583	586.2
574.99	582.8
575.396	586.4
575.824	583
576.231	582.6
576.637	578.2
577.065	603
577.472	579
577.879	572.8
578.286	588.2
578.714	571.6
579.121	580.2
579.528	586.8
579.935	579
580.364	574.2
580.771	558.8
581.178	569.8
581.585	567.8
582.014	568.6
582.421	565
582.829	568.8
583.236	575.4
583.644	557.2
584.073	560.8
584.481	565.4
584.889	559.4
585.296	562
585.726	561.6
586.134	553.8
586.542	545
586.95	574.2
587.358	549.8
587.787	556.4
588.196	552.8
588.604	555.6
589.012	558.8
589.421	553.2
589.851	552.4
590.259	564.6
590.668	549
591.076	582.6
591.485	549.8
591.894	548.6
592.324	565
592.733	557.2
593.142	547
593.551	556.8
593.96	557.4
594.369	545.2
594.8	537
595.209	551.2
595.618	537.6
596.028	545.4
596.437	540.8
596.847	543.2
597.256	549.2
597.687	547
598.097	545
598.507	540.6
598.917	545.8
599.327	547.2
599.736	552.8
600.146	551.2
600.556	542.2
600.988	550
601.398	548.8
601.808	549.6
602.219	528.6
602.629	545
603.039	551.8
603.45	570.4
603.86	540
604.271	562.6
604.703	539.2
605.114	541.4
605.525	544.8
605.935	544.6
606.346	559.6
606.757	553.6
607.168	540.2
607.579	539.4
607.99	553.4
608.402	547.6
608.813	552.6
609.224	536.2
609.636	539.8
610.047	536.6
610.48	545.8
610.892	559
611.303	549.2
611.715	547.4
612.127	542.4
612.539	552.2
612.95	554.2
613.362	539.6
613.774	543.6
614.186	543.4
614.599	542.8
615.011	550.4
615.423	553.4
615.835	542
616.248	541.2
616.66	551.2
617.073	545.8
617.485	548.8
617.898	557.4
618.311	553.2
618.723	547.8
619.136	573.8
619.549	555.2
619.962	573
620.375	556.6
620.788	554.4
621.201	545.6
621.614	558.6
622.028	552.4
622.441	563.6
622.854	567
623.268	553
623.681	558.2
624.095	555.6
624.509	562.2
624.922	553
625.336	548.8
625.728	558
626.142	568.4
626.556	572
626.97	561.6
627.384	559.4
627.799	558
628.213	562.8
628.627	555.4
629.041	552.4
629.456	546.4
629.87	564.8
630.285	560.2
630.699	569.8
631.093	546
631.507	562.8
631.922	551.4
632.337	562.8
632.752	547.8
633.167	551.4
633.582	550.6
633.997	545.8
634.412	552.8
634.806	556.2
635.221	546.8
635.637	564.4
636.052	545.4
636.468	556.8
636.883	559.6
637.299	539.6
637.715	539.6
638.109	542
638.525	534.4
638.941	549.2
639.357	548.2
639.773	544
640.189	537.2
640.584	538
641	545.4
641.416	535
641.832	541.2
642.249	534
642.665	538.4
643.06	532
643.477	542.2
643.894	530.4
644.31	538.2
644.727	541
645.123	540
645.54	532.4
645.957	525.8
646.374	540.4
646.77	536.2
647.187	561.6
647.604	535.4
648.021	513
648.439	523.4
648.835	533.8
649.252	539.2
649.67	527.2
650.088	531.2
650.484	537
650.902	530.8
651.32	537.8
651.738	529
652.134	530.6
652.552	543
652.971	531.8
653.389	526
653.786	542.4
654.204	534.6
654.622	519.6
655.019	527.6
655.438	534.6
655.857	524.4
656.275	525
656.673	518.4
657.091	533
657.51	515
657.908	527
658.327	539.6
658.746	513
659.144	523.6
659.563	530
659.982	527.8
660.38	512.2
660.8	522.2
661.219	541.2
661.617	521.8
662.037	516
662.457	539
662.855	508.4
663.275	545
663.695	519
664.094	514.6
664.514	513.8
664.934	511.4
665.333	518
665.753	512.2
666.152	505.2
666.572	505.6
666.993	538.4
667.392	524.4
667.812	518.4
668.212	515.4
668.632	528
669.053	512.8
669.453	521.4
669.874	523.2
670.273	521.2
670.694	507
671.116	522.2
671.515	524.8
671.937	515.4
672.337	512.6
672.758	519.8
673.158	523.8
673.58	503.6
673.98	512
674.402	520.2
674.824	508.2
675.224	515.6
675.646	512.8
676.047	504.2
676.469	514.2
676.869	517.4
677.292	517.2
677.693	514
678.115	510.2
678.516	513.8
678.939	517.8
679.34	511.2
679.762	522
680.164	517
680.586	505
680.988	520.4
681.411	528.2
681.812	501.8
682.236	504.2
682.637	502.4
683.061	499.8
683.462	509.4
683.864	508.8
684.288	518.6
684.69	506.2
685.114	518.8
685.516	515.6
685.94	497.4
686.342	513.6
686.766	506.4
687.168	504.8
687.571	530.8
687.995	508.8
688.398	500
688.822	511.4
689.225	522
689.628	520.6
690.052	510.6
690.456	515.4
690.88	511.6
691.284	507.8
691.687	512.2
692.112	494.6
692.515	503.2
692.919	503.8
693.344	506.6
693.747	507
694.173	505.2
694.577	510
694.98	502.8
695.406	512.4
695.81	503
696.214	510.6
696.64	510.8
697.044	518.4
697.448	515.2
697.874	512.2
698.279	510
698.684	497.4
699.11	502.2
699.514	502.4
699.919	509.8
700.324	493
700.75	507.4
701.156	506.8
701.561	516.6
701.987	512.8
702.393	516.4
702.798	520.4
703.203	512.4
703.63	511
704.036	501.2
704.442	513.8
704.847	501.2
705.274	514.6
705.68	513.6
706.086	524
706.492	502.4
706.92	500.2
707.326	521.4
707.732	504.8
708.139	494.4
708.545	497.4
708.973	505.8
709.38	505.6
709.786	495
710.193	514.8
710.6	514.6
711.028	493.4
711.435	507
711.842	502
712.249	504.8
712.656	502
713.064	508.6
713.492	502.4
713.9	497.4
714.307	506.8
714.715	502.4
715.123	512.8
715.53	511.2
715.938	517.8
716.367	503.2
716.775	503.2
717.184	495.6
717.592	502
718	518.4
718.408	539.2
718.816	539.6
719.225	510.6
719.633	507.2
720.042	503.6
720.472	499.6
720.881	517.6
721.29	514
721.699	499.8
722.108	510
722.517	498
722.926	502.6
723.335	515.4
723.744	502
724.154	510.4
724.563	507.8
724.973	510.4
725.382	505.6
725.792	509
726.202	498.8
726.612	519.4
727.022	509.8
727.432	498
779.813	510.6
780.223	538.4
780.634	499.4
781.044	504.6
781.454	508
781.865	513.8
782.276	506
782.686	511.4
783.097	500
783.508	510.2
783.919	503
784.33	520.2
784.741	516.8
785.152	503.4
785.563	491.4
785.974	507.2
786.386	512.6
786.776	499.4
787.188	506.8
787.599	499.8
788.011	513.8
788.423	506.8
788.835	511.6
789.247	495.4
789.659	490.8
790.071	492.6
790.483	538.8
790.874	501.6
791.286	503.2
791.699	506.8
792.111	501
792.524	500.8
792.937	502.8
793.349	491.4
793.741	500.8
794.154	500
794.567	520.2
794.98	495.2
795.393	497.6
795.785	518.8
796.198	499
796.612	507.4
797.026	497.8
797.439	479
797.831	491.4
798.245	493.6
798.659	500.4
799.073	502
799.487	502.6
799.88	506.4
800.294	507
800.708	506
801.123	507.2
801.516	525
801.93	494.4
802.345	491.4
802.76	508.6
803.153	507.4
803.568	502.2
803.983	512
804.377	504.6
804.792	493.8
805.207	484.8
805.601	504
806.016	529.6
806.432	499.6
806.826	529.8
807.242	511.4
807.658	507
808.052	496
808.468	499.2
808.884	499.8
809.279	510
809.695	502.8
810.111	519.4
810.506	502.8
810.922	521
811.339	492.4
811.734	505.8
812.151	504.8
812.546	502.4
812.963	494.8
813.38	503.6
813.776	502.4
814.193	517.2
814.589	490.4
815.006	498.2
815.402	501.2
815.82	505.2
816.237	501
816.633	504.2
817.051	499.8
817.448	501.2
817.866	498.8
818.262	517
818.68	496.4
819.077	504.2
819.495	499
819.892	541
820.311	494
820.708	501.4
821.127	498.8
821.524	510.2
821.943	507.4
822.34	517.2
822.759	501.8
823.157	507.2
823.576	509
823.974	507
824.393	552.4
824.791	498.8
825.189	491
825.609	493.2
826.007	505.4
826.427	482.8
826.826	497.4
827.246	503.4
827.644	487.4
828.043	497.2
828.463	494.4
828.862	508.8
829.261	500.4
829.682	487.2
830.081	512.4
830.502	496.4
830.901	505.2
831.301	495.8
831.722	489
832.121	500.8
832.521	497
832.943	496.2
833.342	501.2
833.742	498.8
834.164	502.8
834.564	495.2
834.965	494.2
835.386	509.2
835.787	502.4
836.188	501.8
836.588	500.4
837.01	493.8
837.411	492.6
837.812	504
838.213	503.2
838.636	493
839.037	554.2
839.438	499
839.84	498.2
840.263	504.6
840.664	508.2
841.066	496.8
841.468	499.8
841.891	498
842.293	507.6
842.695	499.8
843.098	508.8
843.5	489.2
843.902	502.6
844.326	501.6
844.729	503.4
845.131	509.2
845.534	507.4
845.937	507.2
846.34	518.6
846.764	504
847.167	503.2
847.571	498
847.974	502.6
848.377	496.8
848.781	539.6
849.184	511.8
849.588	489.8
849.992	496.4
850.396	511.2
850.821	519.4
851.225	504.4
