#lambda/nm	C1
208.295	471.6
208.67	434.6
209.045	397.4
209.419	403.2
209.794	542.2
210.169	528.6
210.544	626.2
210.919	543.4
211.295	533
211.67	537
212.045	530.8
212.421	528
212.796	568.8
213.172	528.8
213.547	538.8
213.923	536.4
214.299	537.2
214.675	541.2
215.051	545.2
215.427	546.2
215.803	552.6
216.179	549.4
216.555	530
216.932	542.4
217.308	541
217.684	536
218.061	549
218.438	542
218.814	523.4
219.191	544.4
219.568	533.6
219.945	531.6
220.322	546.2
220.699	549.4
221.076	546.6
221.453	543.2
221.83	527.4
222.208	535
222.585	533.6
222.962	540.4
223.34	532.8
223.717	532.2
224.095	529.4
224.473	533.6
224.851	531.8
225.229	531.2
225.607	551.4
225.985	536.6
226.363	539.2
226.741	534.2
227.119	534.4
227.497	543.8
227.876	528.6
228.254	547.8
228.633	544.8
229.011	535.6
229.39	540
229.769	539.8
230.148	540
230.527	549.6
230.905	539.2
231.284	545
231.664	543
232.043	546
232.422	546.6
232.801	528.6
233.181	546.2
233.56	531.6
233.94	534
234.319	530.4
234.699	528
235.079	569.2
235.458	564.8
235.838	554
236.218	533.8
236.598	529
236.978	534.6
237.358	530
237.738	532.4
238.119	540
238.499	530.6
238.88	539.6
239.26	552
239.641	524.4
240.021	533.4
240.402	535.8
240.783	541.6
241.163	536.8
241.544	543.4
241.925	533.2
242.306	553.4
242.687	535.4
243.069	542.6
243.45	542.2
243.831	532.4
244.212	533.8
244.594	565
244.975	541.4
245.357	539.6
245.739	533.2
246.12	536.2
246.502	550.4
246.884	528.6
247.266	534.4
247.648	539.8
248.03	551.6
248.412	541.4
248.794	532.2
249.176	532.8
249.559	545.8
249.941	532.2
250.323	526.4
250.706	534.4
251.089	538
251.471	540.8
251.854	532.2
252.237	538.2
252.62	540.8
253.002	542.4
253.385	538.6
253.769	551.4
254.152	539
254.535	535.4
254.918	531.8
255.301	538.8
255.685	532.6
256.068	535.6
256.452	558.4
256.835	538
257.219	538.4
257.603	547
257.986	532.2
258.37	538.8
258.754	527.8
259.138	536
259.522	541
259.906	533.2
260.29	544.6
260.675	538
261.059	543.4
261.443	531
261.828	544.8
262.212	541.2
262.597	524.6
262.981	537.2
263.366	533
263.751	535.2
264.136	535.8
264.521	534.2
264.906	535.8
265.291	547.6
265.676	535.2
266.061	543.2
266.446	548.6
266.831	545.8
267.217	552.6
267.602	536.2
267.987	543.4
268.373	541.4
268.759	546.4
269.144	546.2
269.53	538
269.916	530.8
270.302	535
270.688	537.8
271.074	529.4
271.46	543.4
271.846	560.2
272.232	543.6
272.618	540
273.004	537
273.391	542.6
273.777	550.4
274.164	539.6
274.55	545.6
274.937	542.4
275.324	535.6
275.71	551.4
276.097	542.6
276.484	533.6
276.871	536.2
277.258	539
277.645	523.8
278.032	538.6
278.419	534.8
278.807	540
279.194	531
279.581	529
279.969	534.6
280.356	535
280.744	541.4
281.131	552.4
281.519	548.2
281.907	536
282.295	534.6
282.682	550.6
283.07	544
283.458	546.4
283.846	551
284.235	546.2
284.623	535.2
285.011	529.4
285.399	538.4
285.788	527.6
286.176	528.4
286.565	549.4
286.953	525.4
287.342	532.8
287.731	532.8
288.119	525.4
288.508	529.6
288.897	529.4
289.286	524.6
289.675	538.8
290.064	541
290.453	538
290.821	531.4
291.21	547.4
291.599	531.6
291.989	532.4
292.378	533.2
292.768	549.2
293.157	552.6
293.547	544.6
293.936	534.8
294.326	530
294.716	542
295.106	539.2
295.496	539.2
295.886	548.6
296.276	534.2
296.666	529.4
297.056	535.4
297.446	528.4
297.836	546
298.227	541
298.617	539.8
299.008	543.6
299.398	531.6
299.789	535
300.179	543.2
300.57	544.4
300.961	541.6
301.352	531
301.742	547.6
302.133	536.4
302.524	527.4
302.915	534.2
303.307	518.2
303.698	553.4
304.089	537.8
304.48	533.6
304.872	537.4
305.263	534.6
305.655	531.8
306.046	548
306.438	539
306.829	531.6
307.221	545.2
307.613	539.4
308.005	546.2
308.397	548.2
308.789	550
309.181	562.2
309.573	552.2
309.965	542.8
310.357	535.8
310.749	541.8
311.142	538.2
311.534	538.6
311.926	544.8
312.319	535.2
312.711	531
313.104	553.8
313.497	537.4
313.889	567.2
314.282	549
314.675	549.8
315.068	536.2
315.461	540.2
315.854	571.2
316.247	543
316.64	534.4
317.033	533.6
317.405	539.2
317.798	538.2
318.192	546.8
318.585	531
318.979	541.4
319.372	537.8
319.766	533.8
320.16	556.2
320.553	548.2
320.947	556.6
321.341	540.2
321.735	538.4
322.129	526.8
322.523	563.2
322.917	532.4
323.311	550.4
323.705	543.8
324.099	539.6
324.494	553.6
324.888	548.8
325.282	537.6
325.677	554
326.071	549.6
326.466	546.2
326.861	547.4
327.255	550.2
327.65	544
328.045	547.2
328.44	543.6
328.835	542.2
329.23	532
329.625	564.4
330.02	535
330.415	563.4
330.81	537.4
331.206	538.8
331.601	534.2
331.996	544.2
332.37	550.6
332.766	534.2
333.161	554.2
333.557	526.6
333.953	539
334.348	880.8
334.744	538.2
335.14	537.2
335.536	528.8
335.932	546.6
336.328	545.4
336.724	549.2
337.12	536.6
337.516	532
337.913	537.6
338.309	543
338.705	539.6
339.102	543
339.498	533.8
339.895	540.8
340.291	538.8
340.688	551
341.085	531.4
341.481	535.6
341.878	537.6
342.275	549.4
342.672	526.8
343.069	538
343.466	524.6
343.842	544.2
344.239	530
344.636	535.2
345.033	527.2
345.431	535.8
345.828	545
346.225	530.2
346.623	565.2
347.02	528
347.418	537.8
347.816	545.4
348.213	534.2
348.611	533.6
349.009	536.4
349.407	541.4
349.805	525.6
350.203	530.4
350.601	541
350.999	535.6
351.397	580.6
351.795	530.6
352.193	542.8
352.57	536.4
352.969	543.2
353.367	526.6
353.766	531
354.164	527.4
354.563	546.4
354.961	536
355.36	522.4
355.759	532
356.158	527.2
356.557	524.8
356.956	519.6
357.355	517.8
357.754	532.6
358.153	534.6
358.552	556.2
358.951	539
359.35	547.6
359.75	528
360.149	534.6
360.527	515
360.926	528.2
361.326	542.2
361.726	523.8
362.125	529
362.525	531.4
362.925	525.2
363.325	522.4
363.724	531.4
364.124	528.6
364.524	520.6
364.924	533.6
365.324	539
365.725	520.2
366.125	537.4
366.525	530.2
366.904	528.2
367.304	525.6
367.705	545.2
368.105	542.8
368.506	532.2
368.906	532.6
369.307	531.4
369.708	536
370.108	524
370.509	536.6
370.91	521.2
371.311	532.4
371.712	531
372.113	531.4
372.514	516.2
372.894	531.4
373.295	524.2
373.696	535
374.097	536.4
374.499	562.4
374.9	536
375.301	532
375.703	530.8
376.105	523.4
376.506	530.6
376.908	533.6
377.309	532.4
377.711	536.6
378.113	526.4
378.493	529.2
378.895	528
379.297	528.8
379.699	519
380.102	529
380.504	530.2
380.906	529
381.308	545
381.71	530
382.113	535.8
382.515	531.6
382.918	523.4
383.299	524.4
383.701	536.2
384.104	526
384.507	516.6
384.909	522.2
385.312	512.8
385.715	525.6
386.118	523.6
386.521	506.6
386.924	529.6
387.327	521.6
387.709	515
388.112	507.6
388.515	519
388.918	515
389.322	532.2
389.725	522
390.129	546.4
390.532	531.4
390.936	528.2
391.339	521
391.743	524.2
392.125	520
392.529	533.8
392.933	532
393.337	527
393.74	526
394.144	532
394.548	529.8
394.953	526.4
395.357	534.6
395.761	526.6
396.144	518.6
396.548	532.8
396.952	525
397.357	530
397.761	523.2
398.166	527.2
398.57	527.4
398.975	524.2
399.379	522.8
399.763	566.6
400.168	524.8
400.572	533
400.977	526.4
401.382	539.8
401.787	536.4
402.192	536.4
402.597	537.6
403.002	517.2
403.386	541
403.791	547
404.197	527.2
404.602	533.8
405.007	534.8
405.413	524.4
405.818	526.2
406.224	520.4
406.608	526.2
407.014	525.2
407.42	538.8
407.825	525
408.231	534.2
408.637	531.8
409.043	549.2
409.449	530.4
409.834	517.6
410.24	527.8
410.646	537.2
411.052	531.4
411.458	536.4
411.865	528.6
412.271	537.8
412.677	537
413.062	538.8
413.469	524.4
413.875	550.4
414.282	540.8
414.689	534.6
415.095	536.4
415.502	529.8
415.888	532
416.294	522.8
416.701	563.6
417.108	521.6
417.515	535.6
417.923	535
418.33	543.8
418.715	544.8
419.123	528.8
419.53	530
419.937	532
420.345	535.8
420.752	522.4
421.16	543.4
421.546	535.8
421.953	535.4
422.361	533
422.769	534
423.177	526.8
423.585	550.6
423.992	550.6
424.379	532.8
424.787	539
425.195	547.8
425.603	536.8
426.011	545.4
426.419	548.4
426.806	530.2
427.214	535.8
427.623	541.8
428.031	558
428.44	545.8
428.848	556.2
429.235	564.2
429.644	565.4
430.053	569.2
430.461	589
430.87	607
431.279	605.8
431.666	608.2
432.075	630.6
432.484	638.4
432.893	658.4
433.302	687.2
433.711	735.2
434.099	722.8
434.508	731.4
434.918	748.6
435.327	789
435.737	811.6
436.125	825.2
436.534	838
436.944	862.6
437.353	890.4
437.763	943.8
438.173	920.6
438.561	964.2
438.971	970.4
439.381	1003
439.791	1029
440.201	1036
440.589	1046
440.999	1082
441.409	1088.2
441.819	1102.4
442.23	1131.8
442.619	1148.4
443.029	1152.4
443.439	1175.2
443.85	1198.2
444.26	1201.6
444.649	1199.6
445.06	1197.8
445.471	1218.4
445.881	1245.8
446.292	1258
446.682	1277
447.092	1252.6
447.503	1307.6
447.914	1298
448.325	1293.4
448.715	1290
449.126	1293.2
449.537	1294.8
449.948	1308.8
450.338	1300
450.75	1323
451.161	1322.2
451.572	1342.4
451.984	1318.6
452.374	1325.2
452.786	1327.4
453.197	1335.4
453.609	1350.2
453.999	1325.2
454.411	1337
454.823	1365.2
455.235	1367.6
455.647	1356.2
456.037	1359.6
456.449	1334.4
456.862	1387.2
457.274	1360.2
457.665	1365
458.077	1355.4
458.489	1398.8
458.902	1357.2
459.293	1375.2
459.705	1373.2
460.118	1358.8
460.53	1367.4
460.921	1378.6
461.334	1384.4
461.747	1375.2
462.16	1387.6
462.551	1395.4
462.964	1403.2
463.377	1385.8
463.79	1391.2
464.182	1404.2
464.595	1377.8
465.008	1389.8
465.421	1393.8
465.813	1385.6
466.226	1385.6
466.64	1386.4
467.053	1421.8
467.445	1390.2
467.859	1397.6
468.272	1391
468.686	1397.4
469.078	1397.2
469.492	1362
469.906	1375.6
470.298	1385.4
470.712	1367.8
471.126	1406
471.54	1368.8
471.933	1359
472.347	1382.2
472.761	1381
473.175	1367.6
473.568	1357
473.982	1349.2
474.397	1360.2
474.79	1344.6
475.204	1360.6
475.619	1357
476.033	1341.2
476.426	1353.6
476.841	1334.4
477.256	1343.8
477.649	1320.4
478.064	1308.6
478.479	1300.6
478.872	1304.8
479.287	1292.2
479.702	1304.8
480.118	1296
480.511	1282.4
480.927	1284.2
481.342	1283
481.736	1277.6
482.151	1264
482.566	1284.8
482.96	1260.8
483.376	1275.2
483.792	1272.8
484.186	1260.6
484.602	1248.6
485.017	1260
485.412	1237.2
485.827	1238.6
486.243	1238.2
486.638	1252.4
487.054	1232.2
487.47	1235.6
487.865	1214
488.281	1208.8
488.697	1203.6
489.092	1199.2
489.508	1202.2
489.925	1202.4
490.32	1170
490.736	1181.8
491.153	1191.2
491.548	1180.4
491.964	1179
492.381	1158
492.776	1163.8
493.193	1145.2
493.61	1139.6
494.006	1132.6
494.422	1125.4
494.84	1127.6
495.235	1134
495.652	1116.4
496.069	1106.8
496.465	1109.4
496.883	1096.2
497.3	1132
497.696	1087.2
498.113	1094.2
498.509	1085
498.927	1057.2
499.344	1065
499.741	1065.8
500.158	1079.6
500.576	1068.2
500.973	1057.2
501.39	1045.4
501.787	1027.8
502.205	1048
502.623	1015.2
503.02	1010.2
503.438	1020.6
503.856	1025
504.253	1009.8
504.671	1007.2
505.068	999.4
505.486	992.4
505.905	1007.8
506.302	988.6
506.72	995.4
507.118	974.2
507.536	979.6
507.955	966.2
508.352	972.6
508.771	965.8
509.169	974.2
509.587	949.6
510.006	944
510.404	926.8
510.823	931
511.221	932.4
511.64	929.4
512.038	942.6
512.457	916.6
512.877	916.4
513.275	901.8
513.694	897.4
514.092	899.2
514.512	895.8
514.91	894.8
515.33	893.8
515.749	897.2
516.148	895.2
516.568	884.2
516.966	884.8
517.386	875.6
517.785	861.4
518.205	855.4
518.603	855.2
519.024	847.6
519.444	836.4
519.843	845
520.263	855.6
520.662	850.4
521.082	835
521.481	843.4
521.902	836
522.301	830
522.722	829.2
523.121	826.2
523.542	809.6
523.963	809.6
524.362	811.4
524.783	811.2
525.183	794.8
525.604	796.8
526.003	783
526.425	785.6
526.824	799.4
527.246	798.6
527.646	793.6
528.067	781.2
528.467	778
528.888	778.8
529.289	776.6
529.71	768.4
530.11	769.2
530.532	759.8
530.932	751.2
531.354	745.8
531.755	780.8
532.176	763
532.577	743.2
532.999	746.4
533.4	737.8
533.822	750.6
534.223	745.4
534.645	733.4
535.046	732
535.468	729.2
535.869	735.2
536.292	718.2
536.693	748
537.115	724.4
537.516	719.8
537.939	707.8
538.34	726.2
538.742	727.8
539.165	718.6
539.566	718.4
539.989	703.2
540.391	701.6
540.814	705.6
541.216	717
541.639	710
542.041	705.6
542.464	700.4
542.866	692.4
543.268	694.4
543.691	698
544.093	696.6
544.517	704
544.919	682.8
545.343	703.4
545.745	677.6
546.147	686.6
546.571	681.4
546.974	663
547.398	674
547.8	681
548.224	673.6
548.627	655.2
549.03	666.4
549.454	659
549.857	654.4
550.281	658.4
550.684	652.2
551.087	669.8
551.512	661.6
551.915	658.8
552.34	650.4
552.743	649
553.146	647.6
553.571	644.2
553.975	653.6
554.399	635.8
554.803	680.6
555.207	630.2
555.632	631.2
556.036	640.2
556.461	625.8
556.865	649.8
557.268	631.4
557.694	636.2
558.098	637.4
558.502	641
558.927	619.6
559.332	620.6
559.736	613.6
560.162	630.2
560.566	620.4
560.992	627
561.396	613.6
561.801	611.6
562.227	614.6
562.631	614.2
563.036	604.4
563.462	624.4
563.867	610.8
564.272	599.6
564.698	612.8
565.103	607.8
565.508	620.4
565.935	607.4
566.34	615.6
566.745	611.8
567.172	595.4
567.577	636.4
567.982	611.8
568.409	608
568.815	590.4
569.22	598.6
569.626	600.8
570.053	585.8
570.459	591.8
570.865	601.2
571.292	598
571.698	604
572.104	579.6
572.531	584.6
572.937	597.6
573.343	585.6
573.75	586
574.177	586
574.583	588.6
574.99	579.4
575.396	580
575.824	579
576.231	584.2
576.637	569.2
577.065	595.2
577.472	573.8
577.879	569.6
578.286	585.4
578.714	559.4
579.121	574.6
579.528	579.2
579.935	575.6
580.364	566
580.771	551.8
581.178	564.8
581.585	568.8
582.014	575
582.421	563.6
582.829	564.2
583.236	567.2
583.644	560.4
584.073	558
584.481	567.2
584.889	558.2
585.296	562.4
585.726	574.2
586.134	553.8
586.542	564.8
586.95	583.6
587.358	557.4
587.787	566.6
588.196	548.4
588.604	553.6
589.012	561.2
589.421	556.4
589.851	551.4
590.259	567.6
590.668	557
591.076	596.6
591.485	558.6
591.894	562
592.324	566.8
592.733	571.2
593.142	548.8
593.551	560.4
593.96	569.6
594.369	555.8
594.8	551.8
595.209	552.4
595.618	555.2
596.028	562.8
596.437	553
596.847	559.6
597.256	578.6
597.687	573.6
598.097	573.8
598.507	564.6
598.917	576.6
599.327	588.8
599.736	583.4
600.146	596.8
600.556	590.2
600.988	597.4
601.398	579
601.808	594.4
602.219	577.8
602.629	598.2
603.039	596.4
603.45	627.8
603.86	609.6
604.271	625.4
604.703	616.6
605.114	621.8
605.525	633.2
605.935	633.8
606.346	662.8
606.757	645.8
607.168	647.2
607.579	650.4
607.99	674
608.402	655.4
608.813	662.6
609.224	673.4
609.636	670.2
610.047	678.2
610.48	695
610.892	707.2
611.303	716.2
611.715	714.4
612.127	716.6
612.539	727.6
612.95	740.2
613.362	733
613.774	742.6
614.186	754
614.599	763
615.011	777.4
615.423	778.2
615.835	775.4
616.248	775.6
616.66	800.2
617.073	794.4
617.485	811.4
617.898	824.4
618.311	815.4
618.723	826.6
619.136	842
619.549	845.8
619.962	854.6
620.375	839.8
620.788	845.2
621.201	853.4
621.614	868
622.028	855.6
622.441	877.4
622.854	874.8
623.268	868.2
623.681	886.8
624.095	869
624.509	891.4
624.922	891.2
625.336	876.4
625.728	886
626.142	900
626.556	911
626.97	895
627.384	893.6
627.799	898.4
628.213	903.2
628.627	890
629.041	883.4
629.456	891.2
629.87	880.2
630.285	891.4
630.699	902.8
631.093	882.8
631.507	892.6
631.922	887
632.337	893.6
632.752	865.6
633.167	860.2
633.582	853.4
633.997	855.8
634.412	862.6
634.806	861
635.221	844.2
635.637	853
636.052	831
636.468	840.2
636.883	851.6
637.299	834.6
637.715	827.2
638.109	834.6
638.525	813.2
638.941	822.4
639.357	801.6
639.773	804.8
640.189	794.8
640.584	781.6
641	773.8
641.416	769.6
641.832	766
642.249	772.8
642.665	764.4
643.06	770.8
643.477	762.2
643.894	752.8
644.31	747.4
644.727	742.2
645.123	743.4
645.54	720.4
645.957	736.6
646.374	739.2
646.77	720.4
647.187	733.6
647.604	732.2
648.021	696.8
648.439	702.8
648.835	710.4
649.252	699.8
649.67	698.4
650.088	696.6
650.484	688.4
650.902	685.8
651.32	699.4
651.738	676.8
652.134	667.4
652.552	680.2
652.971	673.4
653.389	662
653.786	675.8
654.204	664.6
654.622	653.6
655.019	656.2
655.438	659.8
655.857	641.2
656.275	650.2
656.673	639
657.091	643.8
657.51	640.2
657.908	638.8
658.327	640
658.746	616.4
659.144	623
659.563	627.6
659.982	622.2
660.38	606.6
660.8	612.6
661.219	619.8
661.617	610.2
662.037	606.2
662.457	614.2
662.855	595.8
663.275	624.2
663.695	598.8
664.094	595.8
664.514	584.2
664.934	585
665.333	589.6
665.753	576.2
666.152	571.2
666.572	585.4
666.993	582.2
667.392	574.4
667.812	573.8
668.212	574.8
668.632	576.2
669.053	570.2
669.453	579.4
669.874	571.8
670.273	571.6
670.694	557
671.116	570.6
671.515	558.4
671.937	558.8
672.337	550
672.758	557.8
673.158	559.4
673.58	544.6
673.98	550.2
674.402	556.2
674.824	549.2
675.224	538.6
675.646	544.6
676.047	536.8
676.469	537.4
676.869	540
677.292	540
677.693	532
678.115	539.8
678.516	535
678.939	542.4
679.34	532.8
679.762	544.6
680.164	531.8
680.586	524.8
680.988	533
681.411	553.4
681.812	531
682.236	525
682.637	523
683.061	530.8
683.462	538.8
683.864	527.4
684.288	538.2
684.69	517.4
685.114	535
685.516	535
685.94	523.6
686.342	540.4
686.766	526.2
687.168	527
687.571	535.8
687.995	522.6
688.398	519.8
688.822	525.4
689.225	536.8
689.628	538.2
690.052	520.4
690.456	525.2
690.88	521.2
691.284	518.6
691.687	526
692.112	519
692.515	517.4
692.919	521.4
693.344	515.6
693.747	517
694.173	511.6
694.577	529.6
694.98	524.6
695.406	522.8
695.81	519.6
696.214	527.8
696.64	524.4
697.044	522.6
697.448	523.8
697.874	516
698.279	517.6
698.684	509.6
699.11	519.4
699.514	516.4
699.919	516.6
700.324	514.8
700.75	518.4
701.156	515.2
701.561	527.8
701.987	524
702.393	527.6
702.798	534.8
703.203	515.4
703.63	515
704.036	510
704.442	515
704.847	506.6
705.274	512.2
705.68	517.4
706.086	521.2
706.492	508.4
706.92	507.2
707.326	512.4
707.732	512.2
708.139	509.2
708.545	506.2
708.973	505.4
709.38	513
709.786	506.4
710.193	519.2
710.6	514.4
711.028	503.6
711.435	509.2
711.842	505.4
712.249	513.4
712.656	509.4
713.064	522
713.492	505
713.9	509.4
714.307	518
714.715	512
715.123	512.6
715.53	514.4
715.938	506.8
716.367	509.6
716.775	507.4
717.184	500.4
717.592	509.2
718	519.6
718.408	535.8
718.816	542
719.225	509
719.633	511.6
720.042	498.2
720.472	508.8
720.881	523.6
721.29	508.2
721.699	499.6
722.108	502
722.517	515.6
722.926	507.6
723.335	516.8
723.744	507.2
724.154	509.8
724.563	509.6
724.973	515.2
725.382	512
725.792	506.4
726.202	498.8
726.612	517
727.022	509.4
727.432	502.6
779.813	504.8
780.223	542
780.634	496.4
781.044	499.6
781.454	496.2
781.865	516.4
782.276	501
782.686	511.2
783.097	499.2
783.508	503
783.919	500.8
784.33	518
784.741	521
785.152	508.4
785.563	495.6
785.974	497
786.386	513.2
786.776	502.8
787.188	509.8
787.599	504
788.011	512.2
788.423	499
788.835	501.6
789.247	505
789.659	499
790.071	494.2
790.483	540.2
790.874	501
791.286	513.8
791.699	503.6
792.111	501.4
792.524	506.4
792.937	503
793.349	491
793.741	487.4
794.154	501.8
794.567	520
794.98	501.8
795.393	496.2
795.785	514.4
796.198	499.6
796.612	504
797.026	500.8
797.439	487.2
797.831	506.8
798.245	494
798.659	493.6
799.073	498.8
799.487	488.8
799.88	499.6
800.294	500.4
800.708	505.2
801.123	506.4
801.516	522.8
801.93	497
802.345	491.2
802.76	502.4
803.153	514.4
803.568	518.2
803.983	521
804.377	502
804.792	496.8
805.207	494.8
805.601	499.4
806.016	530.8
806.432	501.4
806.826	531.4
807.242	511.6
807.658	512
808.052	495.8
808.468	502.6
808.884	498.4
809.279	501.4
809.695	510.2
810.111	518.4
810.506	501.8
810.922	525
811.339	502.6
811.734	510.8
812.151	505.2
812.546	501
812.963	502
813.38	508
813.776	499
814.193	525.4
814.589	502.8
815.006	494.6
815.402	499.6
815.82	493
816.237	506.8
816.633	503.8
817.051	492
817.448	507.4
817.866	496.8
818.262	510
818.68	500.6
819.077	497.6
819.495	501.2
819.892	533.2
820.311	493.6
820.708	498.8
821.127	497.4
821.524	506.4
821.943	501
822.34	506.2
822.759	502.8
823.157	497
823.576	513.8
823.974	495.8
824.393	549.2
824.791	493.6
825.189	491.6
825.609	498.8
826.007	500.2
826.427	494.6
826.826	500.2
827.246	501.8
827.644	486.8
828.043	504
828.463	489.8
828.862	503.2
829.261	507.2
829.682	493
830.081	508.6
830.502	502.6
830.901	506
831.301	493.2
831.722	486.4
832.121	498.6
832.521	495.2
832.943	501
833.342	503.2
833.742	495
834.164	498.8
834.564	499.2
834.965	492.6
835.386	503
835.787	494
836.188	502.2
836.588	499.4
837.01	497.6
837.411	502.4
837.812	502.4
838.213	503.2
838.636	493.4
839.037	560.4
839.438	497.6
839.84	500.6
840.263	504.6
840.664	506.6
841.066	497
841.468	501.8
841.891	498.4
842.293	509.8
842.695	503.8
843.098	505.8
843.5	501
843.902	498.8
844.326	508.6
844.729	504.8
845.131	515
845.534	508.8
845.937	513.4
846.34	516.6
846.764	492.8
847.167	504.8
847.571	497
847.974	501.8
848.377	503.2
848.781	536.6
849.184	514.4
849.588	503
849.992	500.6
850.396	498.6
850.821	517.2
851.225	508.8
851.63	504.2
