#lambda/nm	C1
208.295	464.4
208.67	431.8
209.045	393.8
209.419	399.2
209.794	539.6
210.169	522.6
210.544	625.8
210.919	540
211.295	531.6
211.67	536.4
212.045	530.8
212.421	538.2
212.796	569.6
213.172	538.4
213.547	538.4
213.923	538
214.299	531.6
214.675	540.6
215.051	545
215.427	539.2
215.803	554.4
216.179	541.6
216.555	534
216.932	542.6
217.308	537.4
217.684	539.2
218.061	538.4
218.438	545
218.814	539.2
219.191	545.6
219.568	538.4
219.945	535.2
220.322	536.4
220.699	542
221.076	543
221.453	543.6
221.83	525.6
222.208	538.8
222.585	537
222.962	540.8
223.34	539.6
223.717	536.8
224.095	534.2
224.473	539.4
224.851	532.8
225.229	530
225.607	549.4
225.985	527.8
226.363	544.6
226.741	539
227.119	531.4
227.497	543.8
227.876	533.8
228.254	546.8
228.633	535.4
229.011	538.8
229.39	529.8
229.769	538.4
230.148	544
230.527	549.2
230.905	535
231.284	547.4
231.664	535.2
232.043	552.6
232.422	543
232.801	535.6
233.181	547
233.56	538
233.94	542.8
234.319	531
234.699	541.2
235.079	571.4
235.458	571
235.838	553.2
236.218	535.4
236.598	529.2
236.978	532.8
237.358	540.2
237.738	536
238.119	542.8
238.499	530.6
238.88	540.6
239.26	549.6
239.641	524.2
240.021	532.4
240.402	538
240.783	542.4
241.163	537.8
241.544	537.6
241.925	540.6
242.306	548.4
242.687	530.4
243.069	545.8
243.45	541.8
243.831	531
244.212	541
244.594	572
244.975	550.6
245.357	535.8
245.739	536.8
246.12	543.4
246.502	551.2
246.884	528.8
247.266	539
247.648	543
248.03	557.8
248.412	541.8
248.794	545
249.176	540.8
249.559	547.4
249.941	536.6
250.323	531.2
250.706	534.6
251.089	537.6
251.471	545.4
251.854	529
252.237	528.6
252.62	546.8
253.002	538
253.385	530.2
253.769	556
254.152	541
254.535	536.6
254.918	525.4
255.301	535.8
255.685	530.8
256.068	533.6
256.452	553
256.835	544.2
257.219	538
257.603	548
257.986	535.2
258.37	537.6
258.754	522
259.138	543.8
259.522	553.4
259.906	529.8
260.29	545.6
260.675	535.4
261.059	540.8
261.443	524.2
261.828	535.2
262.212	542.2
262.597	525.4
262.981	529.8
263.366	542.6
263.751	538.2
264.136	535.2
264.521	535.8
264.906	527.4
265.291	534.4
265.676	537.8
266.061	538.2
266.446	549
266.831	538.4
267.217	551.2
267.602	541.4
267.987	533.4
268.373	530
268.759	548.2
269.144	541.2
269.53	540
269.916	534.6
270.302	536.2
270.688	538
271.074	538.6
271.46	551.6
271.846	564.4
272.232	535.4
272.618	529
273.004	535.2
273.391	547.2
273.777	550.8
274.164	538
274.55	547.6
274.937	551.6
275.324	543
275.71	540.2
276.097	550.8
276.484	538.8
276.871	541
277.258	547
277.645	524.6
278.032	542
278.419	538.2
278.807	540.4
279.194	534
279.581	532.6
279.969	543
280.356	541.6
280.744	543.4
281.131	562.6
281.519	555.4
281.907	528.6
282.295	539.6
282.682	548
283.07	544.4
283.458	540.6
283.846	551.6
284.235	548.2
284.623	543.8
285.011	529.4
285.399	539.4
285.788	539.2
286.176	531.8
286.565	540.2
286.953	529.2
287.342	537.6
287.731	536
288.119	527.4
288.508	533.2
288.897	546.4
289.286	526.4
289.675	536.8
290.064	541.2
290.453	535.2
290.821	530.6
291.21	546.4
291.599	534.6
291.989	543
292.378	548.2
292.768	556.4
293.157	548.4
293.547	543
293.936	529.6
294.326	530.6
294.716	546.2
295.106	532.6
295.496	543
295.886	554.6
296.276	539.4
296.666	530.4
297.056	532.2
297.446	533.2
297.836	547.2
298.227	533.2
298.617	544.6
299.008	551.2
299.398	534.6
299.789	535.8
300.179	546.6
300.57	541.8
300.961	541.4
301.352	540.2
301.742	550
302.133	536.6
302.524	527.8
302.915	538.4
303.307	533.2
303.698	545
304.089	536.2
304.48	534
304.872	541
305.263	541
305.655	535.8
306.046	546.2
306.438	538.6
306.829	534.8
307.221	543.8
307.613	536.6
308.005	544
308.397	552
308.789	559.2
309.181	549.6
309.573	554.2
309.965	548.6
310.357	534.8
310.749	546
311.142	533.4
311.534	542
311.926	545
312.319	540.6
312.711	532.6
313.104	552.8
313.497	545.4
313.889	567.2
314.282	560.6
314.675	562
315.068	539.4
315.461	542.2
315.854	563.8
316.247	543.2
316.64	545.6
317.033	534
317.405	537.4
317.798	545.4
318.192	537
318.585	534
318.979	536.6
319.372	530.8
319.766	536.4
320.16	540.2
320.553	551.6
320.947	552
321.341	534.2
321.735	531.8
322.129	538.4
322.523	558
322.917	527
323.311	549.2
323.705	539.2
324.099	544.2
324.494	554.4
324.888	542.8
325.282	538.2
325.677	553.4
326.071	543.6
326.466	545.4
326.861	543.8
327.255	549.4
327.65	548
328.045	552.4
328.44	540.2
328.835	535.4
329.23	530
329.625	554.4
330.02	534.4
330.415	554
330.81	546.4
331.206	540.2
331.601	528
331.996	547.2
332.37	552.4
332.766	530
333.161	555.2
333.557	536.2
333.953	542
334.348	763.8
334.744	534.6
335.14	525
335.536	535.8
335.932	549.4
336.328	541.6
336.724	543
337.12	536.8
337.516	542
337.913	544.6
338.309	544.6
338.705	533.4
339.102	542.4
339.498	534.2
339.895	545.4
340.291	539.8
340.688	538.8
341.085	527.4
341.481	527
341.878	541.2
342.275	553.4
342.672	530.6
343.069	541.8
343.466	524.8
343.842	534.8
344.239	534.8
344.636	539.6
345.033	531.4
345.431	533.4
345.828	535.2
346.225	531.6
346.623	565.4
347.02	536
347.418	544.8
347.816	542.2
348.213	527.8
348.611	542.2
349.009	527.2
349.407	546.6
349.805	523
350.203	521.2
350.601	537
350.999	533
351.397	572
351.795	538.2
352.193	540.4
352.57	535.2
352.969	533
353.367	523.6
353.766	526.8
354.164	534.4
354.563	542.6
354.961	537.4
355.36	531.2
355.759	531.8
356.158	530
356.557	526.4
356.956	530.4
357.355	518.2
357.754	536.8
358.153	535.2
358.552	548
358.951	528.2
359.35	543
359.75	524.2
360.149	527.8
360.527	524.8
360.926	525.8
361.326	532.6
361.726	538.2
362.125	523.6
362.525	538
362.925	530.4
363.325	528.6
363.724	528.6
364.124	534.4
364.524	525.2
364.924	528.2
365.324	537.6
365.725	525.2
366.125	541.6
366.525	527.2
366.904	524.6
367.304	513
367.705	549.4
368.105	542.2
368.506	527
368.906	534.4
369.307	532.4
369.708	535.6
370.108	527.2
370.509	540.6
370.91	529.4
371.311	526.2
371.712	532.8
372.113	531.6
372.514	528.6
372.894	537.2
373.295	530.8
373.696	549.2
374.097	534.6
374.499	555.4
374.9	533.2
375.301	526.6
375.703	530.8
376.105	520.2
376.506	539.8
376.908	537.2
377.309	534.2
377.711	528
378.113	528.4
378.493	533.6
378.895	524.4
379.297	542
379.699	521.2
380.102	526.8
380.504	536
380.906	522.6
381.308	550
381.71	531
382.113	536.2
382.515	529.8
382.918	534.6
383.299	534.8
383.701	536.6
384.104	530
384.507	523
384.909	525.8
385.312	515.8
385.715	523.2
386.118	524.2
386.521	520.4
386.924	531.8
387.327	525.2
387.709	522.2
388.112	514.6
388.515	528.2
388.918	531.8
389.322	535
389.725	529.4
390.129	543.4
390.532	537.6
390.936	526
391.339	522.2
391.743	531
392.125	519.4
392.529	540.8
392.933	542.2
393.337	531.2
393.74	530.4
394.144	526.2
394.548	528.2
394.953	528
395.357	537.4
395.761	522.6
396.144	530
396.548	528
396.952	526.8
397.357	529.8
397.761	525.8
398.166	536
398.57	530.6
398.975	520
399.379	530.6
399.763	567
400.168	533.8
400.572	530.6
400.977	521
401.382	545.2
401.787	534
402.192	540.4
402.597	535.6
403.002	517
403.386	541.8
403.791	546.4
404.197	525.4
404.602	530.4
405.007	533
405.413	524.4
405.818	534.8
406.224	525.6
406.608	522.2
407.014	519.2
407.42	545.8
407.825	529
408.231	535.8
408.637	537
409.043	544.8
409.449	525
409.834	518
410.24	525
410.646	539.6
411.052	534.2
411.458	534.8
411.865	539.8
412.271	538.2
412.677	534.2
413.062	531.6
413.469	530.4
413.875	544.8
414.282	541.8
414.689	534.2
415.095	535.8
415.502	529.8
415.888	533.8
416.294	522.4
416.701	558
417.108	526.8
417.515	538.4
417.923	532.4
418.33	546.4
418.715	532.4
419.123	527.6
419.53	524.6
419.937	520.4
420.345	541.4
420.752	523.4
421.16	541.6
421.546	529
421.953	540
422.361	523.8
422.769	528.8
423.177	524
423.585	542.8
423.992	550
424.379	538.8
424.787	540.8
425.195	551
425.603	530.4
426.011	538
426.419	538.2
426.806	539.6
427.214	539
427.623	551.8
428.031	551
428.44	545.2
428.848	560.4
429.235	558.4
429.644	554.6
430.053	555
430.461	579.6
430.87	583.4
431.279	574.6
431.666	585.8
432.075	604.8
432.484	608.6
432.893	616
433.302	641
433.711	678.6
434.099	671.8
434.508	663.6
434.918	681.6
435.327	717.6
435.737	721.4
436.125	744.2
436.534	762.2
436.944	768
437.353	796
437.763	824.4
438.173	808.4
438.561	838.4
438.971	831.8
439.381	868.8
439.791	878.6
440.201	884.4
440.589	910.2
440.999	924.2
441.409	954.4
441.819	949.6
442.23	971.6
442.619	973
443.029	979
443.439	1001
443.85	1001
444.26	1026.8
444.649	1018.6
445.06	1030.8
445.471	1044
445.881	1046.2
446.292	1068
446.682	1091.6
447.092	1058.2
447.503	1123.4
447.914	1074.2
448.325	1086.6
448.715	1084.6
449.126	1082
449.537	1088.8
449.948	1116.6
450.338	1119.6
450.75	1129.6
451.161	1129
451.572	1124
451.984	1126.4
452.374	1125
452.786	1153.2
453.197	1142.4
453.609	1150.2
453.999	1140.4
454.411	1140.6
454.823	1159.8
455.235	1156.8
455.647	1156
456.037	1150
456.449	1155.4
456.862	1164.8
457.274	1149.8
457.665	1152.6
458.077	1144.4
458.489	1179.6
458.902	1147.6
459.293	1148.6
459.705	1137.6
460.118	1151.6
460.53	1153.2
460.921	1161.8
461.334	1162.2
461.747	1152
462.16	1179.4
462.551	1189
462.964	1177.8
463.377	1161
463.79	1168.2
464.182	1183
464.595	1165.8
465.008	1178.8
465.421	1179.2
465.813	1157.2
466.226	1182.2
466.64	1172.8
467.053	1212.4
467.445	1195.4
467.859	1182.8
468.272	1173.6
468.686	1183.4
469.078	1170
469.492	1161
469.906	1169.6
470.298	1176
470.712	1155.8
471.126	1199.6
471.54	1147.6
471.933	1144.4
472.347	1169.2
472.761	1156.2
473.175	1154.2
473.568	1152.8
473.982	1139.2
474.397	1144.6
474.79	1160
475.204	1141.2
475.619	1140.6
476.033	1161.2
476.426	1124
476.841	1131
477.256	1147.4
477.649	1130.4
478.064	1132.2
478.479	1122.4
478.872	1116.2
479.287	1113.8
479.702	1106.4
480.118	1108.6
480.511	1113.4
480.927	1111.2
481.342	1108
481.736	1092.4
482.151	1094.4
482.566	1098.4
482.96	1093.8
483.376	1098
483.792	1075.4
484.186	1077.6
484.602	1077.2
485.017	1079.4
485.412	1075.4
485.827	1080
486.243	1051.4
486.638	1078.8
487.054	1075.8
487.47	1075.2
487.865	1051.8
488.281	1046.4
488.697	1036.6
489.092	1041.6
489.508	1038.6
489.925	1042.6
490.32	1027.6
490.736	1033
491.153	1034.6
491.548	1024
491.964	1019.6
492.381	1001.6
492.776	1012.8
493.193	1010.8
493.61	1016.8
494.006	1005.8
494.422	994
494.84	985.6
495.235	999.4
495.652	976.8
496.069	985.4
496.465	959
496.883	964.4
497.3	980
497.696	959.2
498.113	958.6
498.509	933.2
498.927	940.6
499.344	946
499.741	934.2
500.158	949.4
500.576	951.6
500.973	931
501.39	922.6
501.787	910.8
502.205	912
502.623	907.2
503.02	901
503.438	906
503.856	904
504.253	910.4
504.671	894.8
505.068	891.8
505.486	887.8
505.905	896.2
506.302	890
506.72	883.2
507.118	876.2
507.536	865.4
507.955	879.2
508.352	866
508.771	868
509.169	856.2
509.587	850.2
510.006	858.8
510.404	833.2
510.823	845.6
511.221	838.2
511.64	840
512.038	842.6
512.457	823
512.877	824.2
513.275	814.8
513.694	821
514.092	815.6
514.512	817.8
514.91	810.6
515.33	815.4
515.749	802.6
516.148	789.8
516.568	804
516.966	804.6
517.386	783
517.785	790.2
518.205	778.4
518.603	779.6
519.024	778.6
519.444	771.4
519.843	783
520.263	781
520.662	776.4
521.082	764
521.481	759.8
521.902	770.4
522.301	759.4
522.722	759.4
523.121	749.6
523.542	739.4
523.963	746.4
524.362	730
524.783	741.4
525.183	740
525.604	740.2
526.003	738
526.425	725.4
526.824	732.6
527.246	731.8
527.646	742.2
528.067	725.8
528.467	726.2
528.888	729.6
529.289	716.2
529.71	719.6
530.11	708.2
530.532	702.6
530.932	702.6
531.354	697.2
531.755	725.2
532.176	702.4
532.577	704.2
532.999	702.2
533.4	691
533.822	695.6
534.223	696.2
534.645	687
535.046	688.8
535.468	682
535.869	688.4
536.292	675.4
536.693	703
537.115	680.4
537.516	672
537.939	679.6
538.34	689.6
538.742	674.6
539.165	675
539.566	659.8
539.989	662.4
540.391	662.8
540.814	670.4
541.216	663.6
541.639	659
542.041	661
542.464	654.8
542.866	648.4
543.268	650
543.691	652.8
544.093	644.4
544.517	665
544.919	636.6
545.343	666
545.745	636.4
546.147	650
546.571	635.4
546.974	636.8
547.398	647
547.8	654
548.224	628.6
548.627	634
549.03	634
549.454	626.2
549.857	617.4
550.281	630.2
550.684	626.8
551.087	635.8
551.512	621.4
551.915	628.4
552.34	622.2
552.743	620.6
553.146	614.2
553.571	611.4
553.975	628.6
554.399	611.2
554.803	647.8
555.207	611.4
555.632	605.2
556.036	619.6
556.461	605.4
556.865	615.6
557.268	600.8
557.694	604
558.098	603.8
558.502	600.6
558.927	601.4
559.332	606.2
559.736	600
560.162	610.2
560.566	592.4
560.992	606.6
561.396	604.2
561.801	598.2
562.227	597.4
562.631	590.2
563.036	592
563.462	596.2
563.867	596.8
564.272	582.4
564.698	591.8
565.103	581.4
565.508	604.4
565.935	590.6
566.34	592
566.745	593.6
567.172	579.8
567.577	604.2
567.982	595.4
568.409	577.6
568.815	570.8
569.22	584.2
569.626	576.6
570.053	567.2
570.459	586.2
570.865	582.2
571.292	584.8
571.698	579.6
572.104	559.2
572.531	568
572.937	582.4
573.343	570.8
573.75	577.8
574.177	571.8
574.583	580.2
574.99	570.6
575.396	574.4
575.824	562.8
576.231	575.2
576.637	567.8
577.065	589.8
577.472	563.2
577.879	565.8
578.286	577
578.714	558.6
579.121	559.6
579.528	565.2
579.935	575
580.364	562.8
580.771	548.4
581.178	551.6
581.585	562.6
582.014	562.2
582.421	561
582.829	552.6
583.236	563
583.644	554.8
584.073	556.6
584.481	556.8
584.889	555.6
585.296	555.8
585.726	556
586.134	546.6
586.542	549.2
586.95	566.6
587.358	545.2
587.787	551.6
588.196	540.2
588.604	547.4
589.012	546
589.421	532
589.851	543.8
590.259	551.4
590.668	548.2
591.076	575.6
591.485	541.2
591.894	545.8
592.324	558.2
592.733	552
593.142	535.6
593.551	539.2
593.96	541.2
594.369	539.2
594.8	532.6
595.209	541.6
595.618	527
596.028	539.8
596.437	535.8
596.847	546
597.256	544.6
597.687	543
598.097	540.8
598.507	524
598.917	538.4
599.327	533.2
599.736	543.2
600.146	549.4
600.556	536
600.988	549.2
601.398	528.4
601.808	542.8
602.219	528.6
602.629	539.8
603.039	535.8
603.45	558.6
603.86	536.2
604.271	542.2
604.703	532.4
605.114	534
605.525	529.6
605.935	537.4
606.346	552
606.757	537.4
607.168	528.2
607.579	530
607.99	534.8
608.402	533.2
608.813	533
609.224	523.4
609.636	521.8
610.047	525.8
610.48	533.2
610.892	530.8
611.303	543
611.715	526.4
612.127	521.2
612.539	520.4
612.95	530.6
613.362	521.4
613.774	515.8
614.186	525.8
614.599	520
615.011	530.8
615.423	531.4
615.835	522.2
616.248	517.6
616.66	536.8
617.073	525
617.485	527.8
617.898	527.6
618.311	527.2
618.723	528.8
619.136	549.8
619.549	534
619.962	552.6
620.375	524.2
620.788	531.6
621.201	524.8
621.614	530.2
622.028	524.6
622.441	531.8
622.854	541
623.268	528.6
623.681	532.6
624.095	523.4
624.509	537.6
624.922	528.8
625.336	516.4
625.728	529.8
626.142	536.4
626.556	538.8
626.97	542
627.384	518.4
627.799	522.2
628.213	531.4
628.627	526.2
629.041	529.6
629.456	525
629.87	522.6
630.285	526.4
630.699	530.8
631.093	519.8
631.507	528.8
631.922	523.8
632.337	534.6
632.752	517.4
633.167	523.6
633.582	516.6
633.997	519
634.412	517.6
634.806	530
635.221	514.6
635.637	532.8
636.052	521.4
636.468	516
636.883	533.8
637.299	523.6
637.715	504.4
638.109	520.4
638.525	513.4
638.941	521.6
639.357	517.2
639.773	523
640.189	507.4
640.584	522.8
641	520.2
641.416	509.6
641.832	513.6
642.249	515
642.665	524.4
643.06	522.6
643.477	528.6
643.894	510.6
644.31	519.6
644.727	514.8
645.123	515.6
645.54	514.8
645.957	526.4
646.374	526.2
646.77	519
647.187	546.4
647.604	513.6
648.021	503.8
648.439	510.8
648.835	518.6
649.252	506.8
649.67	507
650.088	520.2
650.484	516.2
650.902	518.6
651.32	521.2
651.738	516
652.134	517.8
652.552	535.4
652.971	525.6
653.389	509
653.786	522
654.204	518.6
654.622	521
655.019	509.4
655.438	523.2
655.857	511.8
656.275	516.6
656.673	509
657.091	525.6
657.51	515.4
657.908	520.8
658.327	520.8
658.746	518.6
659.144	516
659.563	523.4
659.982	521
660.38	512.2
660.8	515.8
661.219	515.6
661.617	524.4
662.037	509.4
662.457	528
662.855	511.8
663.275	549.2
663.695	522.8
664.094	519.2
664.514	516.2
664.934	511
665.333	524.8
665.753	503.8
666.152	506.8
666.572	511.2
666.993	519.4
667.392	513
667.812	510.2
668.212	514.8
668.632	518.4
669.053	511.8
669.453	516.8
669.874	511.6
670.273	513.4
670.694	504.8
671.116	528
671.515	526.4
671.937	516.2
672.337	502.2
672.758	517.8
673.158	519.2
673.58	510.2
673.98	508.2
674.402	524
674.824	510
675.224	512.8
675.646	512.4
676.047	507.8
676.469	520
676.869	516.8
677.292	515.8
677.693	512.2
678.115	506
678.516	513.4
678.939	517.2
679.34	503
679.762	519.6
680.164	509.4
680.586	505
680.988	515.6
681.411	531.4
681.812	507.8
682.236	503.2
682.637	496.8
683.061	514.8
683.462	514.4
683.864	510.4
684.288	515.6
684.69	507.2
685.114	519.6
685.516	521.4
685.94	508.2
686.342	516.8
686.766	506.4
687.168	505
687.571	526.8
687.995	510.6
688.398	501
688.822	509
689.225	524.8
689.628	522.4
690.052	506.2
690.456	505
690.88	510.8
691.284	493.2
691.687	513.2
692.112	499.6
692.515	498.2
692.919	503.2
693.344	504.4
693.747	508
694.173	503
694.577	515
694.98	505.2
695.406	502
695.81	505.2
696.214	511.6
696.64	514.8
697.044	514.2
697.448	514.2
697.874	501.4
698.279	507.6
698.684	506.2
699.11	501.6
699.514	507.4
699.919	506
700.324	501
700.75	512.4
701.156	506
701.561	517.4
701.987	513
702.393	511
702.798	510.8
703.203	514
703.63	498.6
704.036	509.6
704.442	506.6
704.847	509.6
705.274	505.6
705.68	514.4
706.086	515.8
706.492	498
706.92	509
707.326	504.2
707.732	505.4
708.139	506.4
708.545	498.8
708.973	499.8
709.38	503.6
709.786	497
710.193	517.2
710.6	508.6
711.028	502.4
711.435	502.2
711.842	500
712.249	508.2
712.656	499.4
713.064	512.6
713.492	499.2
713.9	503.6
714.307	510.6
714.715	509.8
715.123	502.4
715.53	516.6
715.938	513.8
716.367	508.4
716.775	500
717.184	501.6
717.592	503.6
718	519.2
718.408	535
718.816	546.2
719.225	510
719.633	508.8
720.042	503.6
720.472	506.2
720.881	528
721.29	519
721.699	501.2
722.108	505.2
722.517	506.6
722.926	508
723.335	512.2
723.744	508.2
724.154	508.8
724.563	510.8
724.973	509.4
725.382	505.8
725.792	503
726.202	498.8
726.612	512.6
727.022	499.6
727.432	500.8
779.813	499.6
780.223	538.4
780.634	503.4
781.044	503
781.454	504.6
781.865	515
782.276	496.2
782.686	506.4
783.097	498.6
783.508	498
783.919	510.4
784.33	519.8
784.741	515.2
785.152	499.4
785.563	493
785.974	493.8
786.386	514
786.776	506.2
787.188	501.8
787.599	489.6
788.011	513.4
788.423	503.8
788.835	497.8
789.247	493
789.659	494.6
790.071	497.8
790.483	532.8
790.874	502.4
791.286	507.2
791.699	506.6
792.111	498.4
792.524	506.2
792.937	495.2
793.349	490
793.741	496.2
794.154	502.4
794.567	518.6
794.98	500.4
795.393	492
795.785	519.2
796.198	512.2
796.612	504.6
797.026	499
797.439	483.6
797.831	497.4
798.245	488.8
798.659	498.2
799.073	494.2
799.487	489.8
799.88	497.8
800.294	508.8
800.708	501.6
801.123	510.2
801.516	521.8
801.93	491.6
802.345	497
802.76	498.8
803.153	517.8
803.568	513.8
803.983	515.8
804.377	509.6
804.792	492.4
805.207	492.6
805.601	500.4
806.016	525
806.432	493.4
806.826	532.2
807.242	519.4
807.658	503.2
808.052	495.8
808.468	501.8
808.884	499.8
809.279	505.2
809.695	507
810.111	526.8
810.506	500
810.922	522.8
811.339	506
811.734	512
812.151	498.8
812.546	499.8
812.963	497
813.38	505.8
813.776	505.4
814.193	515.6
814.589	495.2
815.006	500
815.402	497.2
815.82	499.2
816.237	503.6
816.633	506.6
817.051	493.2
817.448	510
817.866	493.4
818.262	513.2
818.68	504.2
819.077	500.8
819.495	504.6
819.892	543.6
820.311	496.6
820.708	506.6
821.127	501.6
821.524	516.2
821.943	513.6
822.34	523.8
822.759	509
823.157	501.2
823.576	506.6
823.974	510.2
824.393	590
824.791	493.2
825.189	496.4
825.609	508.4
826.007	500.2
826.427	495
826.826	495.8
827.246	506.6
827.644	487
828.043	508.8
828.463	504.4
828.862	512.2
829.261	507.4
829.682	494
830.081	506.6
830.502	495.4
830.901	510.8
831.301	497
831.722	497
832.121	510.2
832.521	495.8
832.943	505.6
833.342	503.2
833.742	497
834.164	506
834.564	498.4
834.965	509
835.386	503.8
835.787	508.2
836.188	502
836.588	499
837.01	506.4
837.411	492.8
837.812	504
838.213	505
838.636	504.8
839.037	559.4
839.438	501.4
839.84	507.6
840.263	498.8
840.664	505.2
841.066	502.2
841.468	506.6
841.891	499.8
842.293	507.8
842.695	508.6
843.098	512.8
843.5	498
843.902	508.4
844.326	499.6
844.729	510.4
845.131	515.8
845.534	501.4
845.937	518
846.34	515.4
846.764	499.6
847.167	502.6
847.571	500.6
847.974	497.8
848.377	503.2
848.781	540.2
849.184	513.4
849.588	496.6
849.992	497.4
850.396	501.4
850.821	523
851.225	510.6
851.63	499.8
852.034	513.6
852.438	496.8
852.843	525.8
853.247	500.2
853.652	498.6
