#lambda/nm	C1
208.295	471.4
208.67	433.4
209.045	395.4
209.419	396.8
209.794	543.2
210.169	528.6
210.544	626.6
210.919	544.6
211.295	533.4
211.67	540.2
212.045	534
212.421	538.2
212.796	560.8
213.172	534.8
213.547	530
213.923	532.8
214.299	538
214.675	548.4
215.051	541
215.427	548.4
215.803	554.8
216.179	547.6
216.555	537.4
216.932	547.4
217.308	537
217.684	536.6
218.061	544.8
218.438	541.2
218.814	539.4
219.191	540.8
219.568	532.6
219.945	539.2
220.322	543.4
220.699	543.2
221.076	547.6
221.453	537.2
221.83	528.6
222.208	538.8
222.585	539.6
222.962	544.6
223.34	538.6
223.717	537
224.095	535.2
224.473	545.6
224.851	529.8
225.229	535.6
225.607	548.4
225.985	529.6
226.363	537.4
226.741	540.2
227.119	539.6
227.497	539.4
227.876	525
228.254	542
228.633	533
229.011	543
229.39	545.4
229.769	538.8
230.148	538.4
230.527	557.4
230.905	543.6
231.284	546.4
231.664	525.4
232.043	550.8
232.422	544.6
232.801	537
233.181	544.8
233.56	540
233.94	535.6
234.319	523.6
234.699	531.8
235.079	564.8
235.458	560.6
235.838	552.4
236.218	526.6
236.598	522.4
236.978	524.4
237.358	525.4
237.738	537
238.119	546.8
238.499	531.6
238.88	536.8
239.26	553.6
239.641	522.4
240.021	539.4
240.402	536.6
240.783	536.4
241.163	533.2
241.544	545.8
241.925	533.4
242.306	553.6
242.687	531
243.069	546.8
243.45	548.4
243.831	534.8
244.212	537.2
244.594	568.2
244.975	542.6
245.357	538.8
245.739	533
246.12	539.2
246.502	551
246.884	538
247.266	533.6
247.648	534.6
248.03	553.8
248.412	538
248.794	533.6
249.176	531
249.559	535.8
249.941	538.4
250.323	520
250.706	533.6
251.089	535.6
251.471	546.6
251.854	539
252.237	533.6
252.62	548.6
253.002	534.6
253.385	539.4
253.769	542.6
254.152	537.2
254.535	537.4
254.918	531.8
255.301	539.6
255.685	537.8
256.068	527.8
256.452	562.8
256.835	549.6
257.219	542.6
257.603	543.2
257.986	531.6
258.37	545.8
258.754	529.2
259.138	537
259.522	545.6
259.906	531
260.29	543.2
260.675	538.6
261.059	538
261.443	533.6
261.828	531
262.212	548.4
262.597	531.4
262.981	532.6
263.366	544.2
263.751	538.4
264.136	528.8
264.521	536
264.906	533.2
265.291	542.8
265.676	533.4
266.061	545.4
266.446	552.4
266.831	534.6
267.217	556.6
267.602	553.2
267.987	536.2
268.373	538.2
268.759	545.6
269.144	542.2
269.53	537.6
269.916	540.6
270.302	528.8
270.688	537.6
271.074	540.4
271.46	546.8
271.846	567
272.232	542.8
272.618	532.4
273.004	541.2
273.391	544.4
273.777	548.2
274.164	537.8
274.55	549.2
274.937	541.2
275.324	534
275.71	542.6
276.097	550.6
276.484	534.6
276.871	547.8
277.258	538.2
277.645	524.2
278.032	536.6
278.419	534
278.807	544.2
279.194	527.4
279.581	532.8
279.969	539.8
280.356	536.4
280.744	535
281.131	553.8
281.519	539.2
281.907	537.8
282.295	531.4
282.682	546.6
283.07	537.4
283.458	545.6
283.846	545
284.235	537.6
284.623	543.8
285.011	531.8
285.399	541.6
285.788	535.8
286.176	530.2
286.565	547
286.953	532.8
287.342	536.4
287.731	528.8
288.119	528.6
288.508	536.4
288.897	529.2
289.286	530
289.675	537
290.064	543.4
290.453	532.8
290.821	535.8
291.21	545.4
291.599	524
291.989	537
292.378	543.4
292.768	551.2
293.157	536.6
293.547	538
293.936	536.2
294.326	536.4
294.716	533.2
295.106	531
295.496	536.8
295.886	539.4
296.276	535.8
296.666	534
297.056	529.2
297.446	527.6
297.836	545.2
298.227	531.2
298.617	536.8
299.008	547
299.398	535.2
299.789	535.8
300.179	541.4
300.57	549
300.961	534.4
301.352	532.4
301.742	541.8
302.133	539.2
302.524	540.4
302.915	539.8
303.307	528.8
303.698	554.6
304.089	553.2
304.48	537
304.872	545.8
305.263	536
305.655	537
306.046	538
306.438	540
306.829	531.6
307.221	551.8
307.613	542
308.005	547
308.397	555.8
308.789	554.2
309.181	552.2
309.573	543.8
309.965	539.6
310.357	536.6
310.749	549.4
311.142	531.8
311.534	535.2
311.926	545
312.319	536.2
312.711	538
313.104	554.6
313.497	535
313.889	573.8
314.282	547.4
314.675	550.8
315.068	540.8
315.461	547.6
315.854	569
316.247	544.8
316.64	540.4
317.033	537.8
317.405	538.8
317.798	530
318.192	540
318.585	531
318.979	542
319.372	530.6
319.766	540.4
320.16	544.2
320.553	551.6
320.947	553.6
321.341	535.4
321.735	540.2
322.129	528.4
322.523	558.8
322.917	537
323.311	546
323.705	543.4
324.099	541.8
324.494	547.4
324.888	547.6
325.282	533
325.677	551.4
326.071	541.8
326.466	548.4
326.861	537.4
327.255	548.2
327.65	553.4
328.045	548.4
328.44	549.4
328.835	542.6
329.23	536.8
329.625	554.2
330.02	540
330.415	556
330.81	536.8
331.206	542.8
331.601	534.6
331.996	544.2
332.37	552
332.766	531.2
333.161	556.2
333.557	535.2
333.953	542.6
334.348	712.8
334.744	535.8
335.14	530.2
335.536	529.2
335.932	540.6
336.328	534.6
336.724	546.6
337.12	533
337.516	545.8
337.913	539.6
338.309	537.6
338.705	537.2
339.102	546.6
339.498	533.6
339.895	548.2
340.291	532
340.688	540.4
341.085	529.2
341.481	531.2
341.878	526.8
342.275	548.4
342.672	530.4
343.069	532.4
343.466	524.6
343.842	532.8
344.239	535.4
344.636	530.6
345.033	525
345.431	536.2
345.828	530
346.225	539.6
346.623	565.8
347.02	534
347.418	538.8
347.816	547.2
348.213	522.8
348.611	542.2
349.009	524.4
349.407	543.8
349.805	523.6
350.203	527.8
350.601	544.4
350.999	538.8
351.397	569
351.795	530.8
352.193	541.6
352.57	547.6
352.969	540.2
353.367	533.2
353.766	524.2
354.164	533
354.563	543.2
354.961	541.2
355.36	528.8
355.759	538.2
356.158	526
356.557	531.8
356.956	531
357.355	526
357.754	544
358.153	535
358.552	550.4
358.951	526.6
359.35	540.4
359.75	530.2
360.149	526
360.527	516.2
360.926	526.8
361.326	530.4
361.726	537.2
362.125	527.6
362.525	540.2
362.925	534.8
363.325	529
363.724	536
364.124	530.4
364.524	525.8
364.924	523.2
365.324	539.8
365.725	525
366.125	535.6
366.525	528.8
366.904	526.2
367.304	517.6
367.705	545.2
368.105	538.8
368.506	534.4
368.906	532.4
369.307	535
369.708	536.8
370.108	526.8
370.509	536.2
370.91	523.6
371.311	525
371.712	533.4
372.113	529
372.514	524
372.894	522.6
373.295	532.8
373.696	531.2
374.097	539.2
374.499	551.4
374.9	530.6
375.301	522.6
375.703	533.4
376.105	525.8
376.506	541.4
376.908	535.8
377.309	525.8
377.711	525.2
378.113	523.2
378.493	521.8
378.895	523.8
379.297	541.2
379.699	516.2
380.102	536
380.504	526
380.906	524.2
381.308	544.4
381.71	532.8
382.113	532.6
382.515	525.4
382.918	532
383.299	528.6
383.701	534.2
384.104	538
384.507	510.6
384.909	527.6
385.312	514.8
385.715	518
386.118	529
386.521	519.2
386.924	544.6
387.327	522.2
387.709	519.8
388.112	507.6
388.515	520.6
388.918	524.6
389.322	534.4
389.725	520.8
390.129	543.2
390.532	530.2
390.936	519.8
391.339	521.8
391.743	521.8
392.125	523.6
392.529	531.8
392.933	536.2
393.337	522.4
393.74	520
394.144	520.2
394.548	524
394.953	527.6
395.357	538.2
395.761	521.8
396.144	530.2
396.548	538.6
396.952	531
397.357	528.2
397.761	526.6
398.166	520.8
398.57	523
398.975	524.6
399.379	531.2
399.763	572.6
400.168	530.6
400.572	528.2
400.977	523.6
401.382	545.8
401.787	534.6
402.192	543.2
402.597	537.8
403.002	515.8
403.386	534
403.791	545.4
404.197	521.2
404.602	529.4
405.007	529.6
405.413	521.2
405.818	534
406.224	520.8
406.608	527
407.014	522.2
407.42	534.2
407.825	525.6
408.231	535.6
408.637	533
409.043	542.2
409.449	524.6
409.834	527.2
410.24	530.8
410.646	542.2
411.052	534
411.458	534.6
411.865	536.2
412.271	527.2
412.677	534.4
413.062	536.2
413.469	523.2
413.875	550.2
414.282	534.4
414.689	536.2
415.095	531
415.502	524.6
415.888	530.8
416.294	515.6
416.701	571
417.108	521.6
417.515	543.2
417.923	536.4
418.33	548
418.715	536.4
419.123	529.4
419.53	529.6
419.937	530.8
420.345	545.2
420.752	523.4
421.16	542.4
421.546	532.8
421.953	536.4
422.361	527.2
422.769	527.4
423.177	518
423.585	554
423.992	545.4
424.379	538.2
424.787	542.2
425.195	551
425.603	530
426.011	545.8
426.419	542.4
426.806	537.6
427.214	544.4
427.623	549.4
428.031	558.4
428.44	556.8
428.848	566
429.235	569.6
429.644	558.4
430.053	570
430.461	587
430.87	607.6
431.279	612.6
431.666	600.6
432.075	622
432.484	644.8
432.893	656.4
433.302	672.8
433.711	725.4
434.099	718.8
434.508	734
434.918	758.6
435.327	783.6
435.737	795.4
436.125	815.6
436.534	850.6
436.944	868.2
437.353	900.6
437.763	925.6
438.173	913
438.561	965
438.971	967.8
439.381	1006.6
439.791	1027
440.201	1022.4
440.589	1062
440.999	1078.8
441.409	1098.2
441.819	1102
442.23	1128.4
442.619	1143.6
443.029	1151.4
443.439	1182.8
443.85	1173.6
444.26	1190
444.649	1194.4
445.06	1217.8
445.471	1211.4
445.881	1230
446.292	1263.4
446.682	1275.4
447.092	1256.6
447.503	1315.6
447.914	1275.4
448.325	1280.8
448.715	1270.6
449.126	1297.2
449.537	1293.2
449.948	1279.4
450.338	1301.2
450.75	1309.4
451.161	1328.2
451.572	1333.6
451.984	1304.4
452.374	1336
452.786	1340.2
453.197	1332.2
453.609	1343.2
453.999	1323
454.411	1326.6
454.823	1365.6
455.235	1358.4
455.647	1346.2
456.037	1344
456.449	1352
456.862	1348.6
457.274	1365.8
457.665	1372
458.077	1368.2
458.489	1382.6
458.902	1370
459.293	1359.4
459.705	1372.4
460.118	1368.8
460.53	1363.4
460.921	1378.6
461.334	1376.4
461.747	1384
462.16	1399.8
462.551	1391.2
462.964	1379.2
463.377	1357
463.79	1382
464.182	1386.4
464.595	1361.8
465.008	1373.8
465.421	1389.4
465.813	1366.4
466.226	1384.8
466.64	1376
467.053	1419
467.445	1389.2
467.859	1401.4
468.272	1378.6
468.686	1384.8
469.078	1364.2
469.492	1362.8
469.906	1386
470.298	1383
470.712	1365.6
471.126	1389
471.54	1374.8
471.933	1371.2
472.347	1378.2
472.761	1367.8
473.175	1362.2
473.568	1362.4
473.982	1352
474.397	1362.4
474.79	1336
475.204	1346.8
475.619	1341.6
476.033	1329.6
476.426	1325.6
476.841	1326.4
477.256	1333
477.649	1316.8
478.064	1312
478.479	1285.6
478.872	1298.4
479.287	1293.6
479.702	1299.2
480.118	1282.6
480.511	1297.4
480.927	1287.6
481.342	1289.6
481.736	1273.2
482.151	1264.8
482.566	1285.6
482.96	1277.4
483.376	1280.8
483.792	1265.2
484.186	1254.8
484.602	1242.6
485.017	1250.2
485.412	1244.6
485.827	1247.8
486.243	1230
486.638	1253.4
487.054	1226.6
487.47	1236.8
487.865	1222
488.281	1217
488.697	1198.4
489.092	1205.6
489.508	1180.8
489.925	1190.6
490.32	1177.6
490.736	1188.6
491.153	1181.4
491.548	1159.6
491.964	1177.4
492.381	1155.8
492.776	1161.2
493.193	1158.8
493.61	1152.6
494.006	1124.6
494.422	1134.6
494.84	1130.8
495.235	1135.8
495.652	1120.2
496.069	1109.2
496.465	1099.6
496.883	1111.2
497.3	1130.4
497.696	1096.6
498.113	1096
498.509	1070.8
498.927	1066.6
499.344	1066.8
499.741	1056.8
500.158	1064.6
500.576	1076.6
500.973	1048
501.39	1053.8
501.787	1042
502.205	1041.8
502.623	1031.2
503.02	1019.4
503.438	1021.4
503.856	1014.6
504.253	1014
504.671	1001.6
505.068	1009.2
505.486	983.2
505.905	1012.4
506.302	989.8
506.72	997.6
507.118	961.8
507.536	971.8
507.955	971.6
508.352	973.8
508.771	949.4
509.169	951.8
509.587	947.4
510.006	931.6
510.404	934
510.823	931
511.221	936.8
511.64	922.8
512.038	940
512.457	919.4
512.877	911.2
513.275	908.2
513.694	914
514.092	905.4
514.512	895
514.91	905
515.33	891.6
515.749	890.4
516.148	885.2
516.568	879.4
516.966	869.8
517.386	865
517.785	871.4
518.205	857.8
518.603	842.8
519.024	843.6
519.444	841.2
519.843	860.4
520.263	846.8
520.662	839.4
521.082	837.4
521.481	840.8
521.902	829.4
522.301	826.2
522.722	831
523.121	818.6
523.542	804.6
523.963	800.2
524.362	817.2
524.783	808.6
525.183	793.4
525.604	797.4
526.003	787.6
526.425	781.6
526.824	780.8
527.246	799.6
527.646	792.2
528.067	776.8
528.467	773.4
528.888	773.6
529.289	770.6
529.71	767.6
530.11	766.4
530.532	751.8
530.932	750.2
531.354	749.8
531.755	781.8
532.176	756.6
532.577	742
532.999	729
533.4	744.2
533.822	745.6
534.223	739.8
534.645	732
535.046	715.2
535.468	720.6
535.869	732.2
536.292	721.2
536.693	754.8
537.115	729.6
537.516	714.6
537.939	713.6
538.34	727.4
538.742	727.6
539.165	712.2
539.566	713
539.989	707
540.391	715.2
540.814	714.4
541.216	706
541.639	702.4
542.041	699.8
542.464	707.6
542.866	693.6
543.268	684.6
543.691	684.8
544.093	686
544.517	705.4
544.919	679.6
545.343	695.2
545.745	674.8
546.147	689
546.571	681.6
546.974	674
547.398	677.2
547.8	688.6
548.224	669.2
548.627	656.6
549.03	673.8
549.454	659.4
549.857	656
550.281	661.2
550.684	663.8
551.087	664.4
551.512	661.6
551.915	662
552.34	659
552.743	656.4
553.146	655.8
553.571	648.8
553.975	657.4
554.399	647.6
554.803	682.8
555.207	641
555.632	635.2
556.036	638.2
556.461	632.8
556.865	635.2
557.268	632.6
557.694	642.2
558.098	637.8
558.502	641.2
558.927	630.4
559.332	630.2
559.736	628.4
560.162	632.8
560.566	620.8
560.992	630
561.396	622.6
561.801	622.4
562.227	620
562.631	622.8
563.036	624
563.462	618.6
563.867	616
564.272	607
564.698	612.8
565.103	608.6
565.508	638.4
565.935	617
566.34	610
566.745	626.8
567.172	618.2
567.577	621
567.982	615
568.409	611
568.815	600.6
569.22	598.4
569.626	603.8
570.053	600.8
570.459	599.4
570.865	613.4
571.292	602.2
571.698	612.2
572.104	588.2
572.531	587
572.937	596.6
573.343	590.2
573.75	591
574.177	590.2
574.583	596.2
574.99	589.2
575.396	592.4
575.824	582.2
576.231	581.4
576.637	581
577.065	605.4
577.472	589.6
577.879	576.6
578.286	587.6
578.714	565.2
579.121	578.4
579.528	571.4
579.935	585.4
580.364	575.6
580.771	570.2
581.178	572.4
581.585	582.2
582.014	570.4
582.421	565.2
582.829	557.2
583.236	584.2
583.644	556.8
584.073	563.8
584.481	560.6
584.889	567
585.296	571
585.726	567
586.134	557.4
586.542	556.8
586.95	585.4
587.358	559.8
587.787	553.2
588.196	549.6
588.604	549
589.012	562.4
589.421	555
589.851	543.6
590.259	560.2
590.668	557
591.076	591.4
591.485	554
591.894	562
592.324	572.2
592.733	564.8
593.142	544.6
593.551	552.8
593.96	556.6
594.369	547.2
594.8	535.4
595.209	561.8
595.618	545
596.028	538.8
596.437	539.8
596.847	545.8
597.256	542.4
597.687	549.6
598.097	544.4
598.507	539.8
598.917	549.6
599.327	553
599.736	552.2
600.146	557.4
600.556	543.8
600.988	558.2
601.398	544.4
601.808	550.8
602.219	541.8
602.629	548.8
603.039	545.2
603.45	573.4
603.86	539.2
604.271	555
604.703	550.6
605.114	543.4
605.525	545.8
605.935	551.6
606.346	561
606.757	544.6
607.168	543.6
607.579	544.2
607.99	558
608.402	542
608.813	552.8
609.224	543
609.636	539.6
610.047	542.6
610.48	554.8
610.892	555.4
611.303	559
611.715	548.2
612.127	543.8
612.539	559.6
612.95	554.6
613.362	548
613.774	544.6
614.186	550.2
614.599	556
615.011	567.2
615.423	563.4
615.835	559.6
616.248	546.8
616.66	566.8
617.073	558
617.485	566.4
617.898	567
618.311	559.6
618.723	565.2
619.136	593.6
619.549	576.4
619.962	590.8
620.375	572
620.788	574.2
621.201	566.4
621.614	576.6
622.028	571.4
622.441	566.8
622.854	581.6
623.268	569.4
623.681	566.2
624.095	569.8
624.509	580.6
624.922	572
625.336	573.2
625.728	570.2
626.142	588
626.556	584
626.97	581.4
627.384	584.4
627.799	578
628.213	586.2
628.627	574.4
629.041	574.2
629.456	583.2
629.87	590.4
630.285	588
630.699	579.4
631.093	577.4
631.507	586.8
631.922	568.4
632.337	580.2
632.752	568
633.167	572.8
633.582	574
633.997	580
634.412	566.2
634.806	572.4
635.221	562.6
635.637	578.8
636.052	563.4
636.468	562.2
636.883	583.4
637.299	576.6
637.715	553.8
638.109	567.2
638.525	566.6
638.941	578.6
639.357	576.2
639.773	575.2
640.189	565.4
640.584	563
641	565.8
641.416	556.4
641.832	560.2
642.249	563.2
642.665	558.4
643.06	561
643.477	572.8
643.894	545.6
644.31	547.8
644.727	556
645.123	557.2
645.54	543.6
645.957	560.4
646.374	563
646.77	550.4
647.187	579.2
647.604	552.8
648.021	538.4
648.439	540.2
648.835	548.8
649.252	535.2
649.67	553.4
650.088	549.2
650.484	549.4
650.902	550.6
651.32	546.4
651.738	536.2
652.134	545.6
652.552	558.8
652.971	543.2
653.389	547.8
653.786	555.6
654.204	551.8
654.622	534
655.019	548.4
655.438	539.6
655.857	546.8
656.275	536.4
656.673	530.8
657.091	546.2
657.51	534.6
657.908	535
658.327	555.8
658.746	530.2
659.144	531.8
659.563	540.2
659.982	528.4
660.38	529
660.8	536.4
661.219	547.4
661.617	529.4
662.037	526.6
662.457	544.8
662.855	518.4
663.275	552
663.695	532.8
664.094	532
664.514	535.6
664.934	520
665.333	535.8
665.753	523.4
666.152	524
666.572	520.6
666.993	538
667.392	518.6
667.812	520.8
668.212	519.8
668.632	530.8
669.053	520
669.453	529.2
669.874	531
670.273	527
670.694	514
671.116	527.8
671.515	525
671.937	520.4
672.337	527.6
672.758	517
673.158	524.2
673.58	519.2
673.98	524.8
674.402	529
674.824	530.2
675.224	517.8
675.646	512.6
676.047	512.2
676.469	515
676.869	517.8
677.292	516.6
677.693	514.4
678.115	515.2
678.516	516.8
678.939	521.8
679.34	508
679.762	518.6
680.164	514.8
680.586	511.8
680.988	506
681.411	540.4
681.812	517
682.236	506.6
682.637	511
683.061	505
683.462	508.8
683.864	516.2
684.288	525
684.69	502.6
685.114	531.2
685.516	523.6
685.94	512.8
686.342	519.2
686.766	505
687.168	510.4
687.571	528.4
687.995	520
688.398	504
688.822	509.2
689.225	520.8
689.628	533
690.052	510
690.456	520.8
690.88	517.2
691.284	504.4
691.687	517.2
692.112	506.4
692.515	510
692.919	517.2
693.344	514.8
693.747	507.4
694.173	508.2
694.577	527.6
694.98	507.4
695.406	506.8
695.81	516
696.214	509
696.64	512
697.044	512
697.448	511.6
697.874	511.6
698.279	508
698.684	510
699.11	506.8
699.514	508.2
699.919	512.8
700.324	507
700.75	506.8
701.156	506.8
701.561	518.2
701.987	513.4
702.393	526.4
702.798	523.4
703.203	506.6
703.63	508
704.036	507.6
704.442	509
704.847	500.8
705.274	510.6
705.68	513.8
706.086	510
706.492	499.2
706.92	509.2
707.326	516
707.732	512.6
708.139	502
708.545	496.4
708.973	508.4
709.38	513
709.786	489.2
710.193	514
710.6	509.6
711.028	501.8
711.435	501.4
711.842	509.6
712.249	508.4
712.656	503.6
713.064	518.8
713.492	502.4
713.9	508
714.307	507.8
714.715	505.8
715.123	505.2
715.53	509.4
715.938	520.6
716.367	515.8
716.775	505.2
717.184	503.6
717.592	509.8
718	514.6
718.408	536.2
718.816	535.8
719.225	512.6
719.633	506.2
720.042	500.2
720.472	503.4
720.881	528
721.29	497
721.699	494.6
722.108	509.6
722.517	503
722.926	505.6
723.335	504
723.744	498.6
724.154	522.6
724.563	505.8
724.973	510.2
725.382	503.2
725.792	511.2
726.202	501.6
726.612	521.6
727.022	505.6
727.432	504.8
779.813	503
780.223	538.2
780.634	501.8
781.044	497
781.454	502.8
781.865	512.6
782.276	500.8
782.686	507.6
783.097	505.2
783.508	505.6
783.919	506.6
784.33	510.6
784.741	509.2
785.152	499.2
785.563	493
785.974	496.8
786.386	513.8
786.776	502.6
787.188	503.4
787.599	500.4
788.011	514
788.423	511.2
788.835	503.2
789.247	500.4
789.659	503
790.071	505.4
790.483	542.4
790.874	504.2
791.286	513
791.699	503.2
792.111	509.6
792.524	505
792.937	507.2
793.349	499.4
793.741	496.6
794.154	498.2
794.567	520.4
794.98	499.6
795.393	496
795.785	518.2
796.198	499
796.612	513.6
797.026	502
797.439	496.4
797.831	497.2
798.245	493.8
798.659	498.4
799.073	495.4
799.487	495.2
799.88	504.2
800.294	492.8
800.708	507
801.123	501.2
801.516	519.8
801.93	490.2
802.345	490.6
802.76	497.8
803.153	510.2
803.568	519.8
803.983	504.8
804.377	501.6
804.792	495
805.207	494.6
805.601	506.8
806.016	530.6
806.432	499.6
806.826	531.6
807.242	515.4
807.658	504
808.052	503.4
808.468	502.6
808.884	500.2
809.279	500.2
809.695	514.2
810.111	526.6
810.506	507.6
810.922	522.2
811.339	508.2
811.734	510
812.151	498.2
812.546	501
812.963	496.4
813.38	504
813.776	505.6
814.193	516.6
814.589	492.8
815.006	493.8
815.402	494.6
815.82	489.6
816.237	494.8
816.633	496.4
817.051	493.8
817.448	493.6
817.866	494.6
818.262	517
818.68	498.4
819.077	498.4
819.495	505.6
819.892	532.4
820.311	494.2
820.708	496.4
821.127	503
821.524	512.2
821.943	501.4
822.34	514.4
822.759	500.6
823.157	496.6
823.576	507.2
823.974	503
824.393	560.4
824.791	495.4
825.189	490.8
825.609	498
826.007	493.2
826.427	493.4
826.826	495
827.246	500.6
827.644	483
828.043	508.8
828.463	495.8
828.862	510.4
829.261	503
829.682	496
830.081	508.2
830.502	498.2
830.901	501.4
831.301	494.6
831.722	491.2
832.121	505.4
832.521	492.2
832.943	505
833.342	504.2
833.742	492.2
834.164	501
834.564	500.6
834.965	501.8
835.386	500.4
835.787	499.4
836.188	500
836.588	508.6
837.01	498.4
837.411	494.6
837.812	507.8
838.213	493.8
838.636	490.2
839.037	552.8
839.438	504.6
839.84	496.8
840.263	500
840.664	501
841.066	507.8
841.468	499.6
841.891	497.8
842.293	507.8
842.695	503
843.098	512.2
843.5	501.2
843.902	500.8
844.326	509
844.729	501.2
845.131	502.8
845.534	495.6
845.937	515.8
846.34	521.8
846.764	497.4
847.167	503.8
847.571	498.2
847.974	503.6
848.377	496
848.781	541.8
849.184	511.8
849.588	499.4
849.992	504.8
850.396	500.8
850.821	511.6
851.225	509
851.63	497.4
