#lambda/nm	C1
208.295	467
208.67	429
209.045	396
209.419	400.8
209.794	541
210.169	531.6
210.544	619.2
210.919	542.2
211.295	527.4
211.67	536.8
212.045	533.8
212.421	532
212.796	563.4
213.172	534.6
213.547	530
213.923	536
214.299	530.4
214.675	549.6
215.051	539
215.427	538
215.803	548.8
216.179	539.4
216.555	527
216.932	543.6
217.308	547.4
217.684	534.8
218.061	545.2
218.438	538.6
218.814	532.2
219.191	536
219.568	528.2
219.945	539.8
220.322	545
220.699	538.6
221.076	533.6
221.453	540
221.83	522.4
222.208	529.8
222.585	535.6
222.962	536.2
223.34	540.8
223.717	530
224.095	538.4
224.473	536.8
224.851	523.2
225.229	522.6
225.607	541.4
225.985	527
226.363	532.8
226.741	542.8
227.119	527.2
227.497	538.8
227.876	530.6
228.254	545.4
228.633	547.4
229.011	532.8
229.39	537.6
229.769	542.8
230.148	543
230.527	551.2
230.905	541.6
231.284	546.8
231.664	531
232.043	546.4
232.422	538.8
232.801	526.6
233.181	541.6
233.56	530.8
233.94	541.4
234.319	524.4
234.699	536.4
235.079	571.8
235.458	566.6
235.838	547.6
236.218	530.6
236.598	527.6
236.978	533.2
237.358	532.8
237.738	535
238.119	536.2
238.499	531.2
238.88	532.6
239.26	546.6
239.641	531.8
240.021	539.8
240.402	537
240.783	541
241.163	534.2
241.544	544.8
241.925	532.8
242.306	551.2
242.687	539.6
243.069	541.6
243.45	537
243.831	532.8
244.212	543.6
244.594	571
244.975	539.2
245.357	534.6
245.739	528
246.12	539.2
246.502	544
246.884	532.6
247.266	535.8
247.648	538.4
248.03	558.4
248.412	540.8
248.794	546
249.176	529.2
249.559	552.2
249.941	528.4
250.323	537.6
250.706	522.4
251.089	540.4
251.471	531.4
251.854	531
252.237	527.8
252.62	542
253.002	534.2
253.385	539
253.769	548
254.152	541.8
254.535	544
254.918	526.6
255.301	533.6
255.685	537
256.068	528.8
256.452	556.6
256.835	546.2
257.219	535
257.603	540.4
257.986	532
258.37	540
258.754	522.4
259.138	540.8
259.522	542.6
259.906	534.6
260.29	547.2
260.675	535
261.059	533.4
261.443	527.2
261.828	544.4
262.212	542
262.597	528
262.981	538.2
263.366	539.2
263.751	534
264.136	535.2
264.521	536
264.906	531.2
265.291	544.6
265.676	534.8
266.061	548.4
266.446	554.4
266.831	535
267.217	551.2
267.602	539.2
267.987	537.2
268.373	539.8
268.759	545.6
269.144	542
269.53	542.4
269.916	529.8
270.302	530.2
270.688	540.4
271.074	543.4
271.46	547.8
271.846	561.2
272.232	536.4
272.618	537.6
273.004	529.6
273.391	548.6
273.777	543.8
274.164	540.6
274.55	549.4
274.937	538.4
275.324	547
275.71	540.2
276.097	542.2
276.484	531.2
276.871	537.4
277.258	545.8
277.645	529
278.032	533.6
278.419	525.6
278.807	541.4
279.194	531.2
279.581	530.4
279.969	541.8
280.356	536.4
280.744	535.2
281.131	549.4
281.519	538
281.907	533.4
282.295	528.8
282.682	544.4
283.07	544.6
283.458	549
283.846	544.6
284.235	546
284.623	549.4
285.011	527.2
285.399	536.4
285.788	533
286.176	520
286.565	544.8
286.953	531
287.342	533.2
287.731	532.8
288.119	528.6
288.508	536.4
288.897	536.8
289.286	523.2
289.675	541.2
290.064	546.2
290.453	532
290.821	536
291.21	546.6
291.599	531.2
291.989	538.2
292.378	542.4
292.768	546.6
293.157	535.8
293.547	544.8
293.936	528.4
294.326	527
294.716	551.2
295.106	541.6
295.496	550.2
295.886	550.8
296.276	543
296.666	533.2
297.056	528.4
297.446	522.4
297.836	545.2
298.227	537.4
298.617	532.6
299.008	547
299.398	532.2
299.789	531.6
300.179	541.4
300.57	549
300.961	535
301.352	534.6
301.742	545.2
302.133	530.2
302.524	534.8
302.915	538.2
303.307	530.4
303.698	541.6
304.089	538
304.48	539.2
304.872	541.6
305.263	535.6
305.655	521.6
306.046	539.6
306.438	531
306.829	534.6
307.221	552.8
307.613	537
308.005	545.2
308.397	556
308.789	546.2
309.181	550
309.573	543.2
309.965	547.2
310.357	533
310.749	547
311.142	529.6
311.534	535.2
311.926	541.2
312.319	542.2
312.711	530.8
313.104	544.2
313.497	537.4
313.889	568.2
314.282	549
314.675	555.2
315.068	542.2
315.461	541.8
315.854	559.6
316.247	549.6
316.64	532.6
317.033	535.8
317.405	541.8
317.798	538.8
318.192	536.8
318.585	535.8
318.979	543.2
319.372	532
319.766	533.2
320.16	540.8
320.553	545
320.947	555.8
321.341	534.4
321.735	539.2
322.129	529.6
322.523	549.4
322.917	529
323.311	547.2
323.705	536.2
324.099	536.4
324.494	539.8
324.888	545.6
325.282	529
325.677	547.6
326.071	542.4
326.466	546.8
326.861	531.8
327.255	554.4
327.65	549
328.045	553.6
328.44	538.8
328.835	539.6
329.23	538.4
329.625	558.6
330.02	541.6
330.415	554.8
330.81	537
331.206	538.2
331.601	538.6
331.996	539.2
332.37	548.4
332.766	522.4
333.161	564.8
333.557	532.6
333.953	539.4
334.348	813.8
334.744	536.2
335.14	534
335.536	536.2
335.932	542
336.328	540.4
336.724	547.4
337.12	535.6
337.516	543.2
337.913	532.2
338.309	546.8
338.705	530.6
339.102	546.4
339.498	531
339.895	542
340.291	524.6
340.688	537.8
341.085	526
341.481	531.6
341.878	532.2
342.275	551.2
342.672	534
343.069	527.4
343.466	528.4
343.842	538.2
344.239	528.8
344.636	537
345.033	532.2
345.431	532.2
345.828	534.2
346.225	534.8
346.623	559.4
347.02	530.4
347.418	532.2
347.816	545.4
348.213	525.4
348.611	540.2
349.009	524.2
349.407	548.8
349.805	523.2
350.203	523
350.601	543
350.999	527.8
351.397	587.2
351.795	535.2
352.193	538.4
352.57	534.6
352.969	541.8
353.367	526
353.766	523.6
354.164	532.6
354.563	534.6
354.961	530.6
355.36	533.6
355.759	531.8
356.158	522.6
356.557	525.4
356.956	526.8
357.355	520.2
357.754	535
358.153	532
358.552	555.8
358.951	526.8
359.35	539.6
359.75	534.8
360.149	534
360.527	517.6
360.926	527.8
361.326	531
361.726	536.2
362.125	520.4
362.525	538.6
362.925	528.8
363.325	533
363.724	537.4
364.124	527.8
364.524	527.4
364.924	531.4
365.324	532.4
365.725	526.4
366.125	543.8
366.525	534
366.904	527.8
367.304	514.8
367.705	545.2
368.105	539
368.506	530.6
368.906	529.6
369.307	529.8
369.708	539.8
370.108	521.4
370.509	545.8
370.91	530.2
371.311	526.6
371.712	537.6
372.113	526.2
372.514	520
372.894	521.4
373.295	525.6
373.696	543.8
374.097	535.2
374.499	552.8
374.9	532.4
375.301	518.4
375.703	533.6
376.105	530.2
376.506	534
376.908	531.6
377.309	522.2
377.711	522.2
378.113	522.6
378.493	534.6
378.895	519.4
379.297	526.6
379.699	522
380.102	533
380.504	530
380.906	520.2
381.308	550.2
381.71	522.4
382.113	535.2
382.515	524
382.918	525.2
383.299	521.2
383.701	533.8
384.104	525.4
384.507	507.4
384.909	526.4
385.312	519.6
385.715	526.8
386.118	525
386.521	525.6
386.924	533.6
387.327	518.2
387.709	518.4
388.112	510.8
388.515	528.2
388.918	536.2
389.322	526.2
389.725	527
390.129	549
390.532	529.6
390.936	523.2
391.339	519
391.743	521.6
392.125	526.2
392.529	538.6
392.933	535.2
393.337	523.6
393.74	532.6
394.144	530.4
394.548	523.6
394.953	525.8
395.357	527.4
395.761	527
396.144	532
396.548	522
396.952	523.2
397.357	525.2
397.761	525
398.166	516.8
398.57	516.6
398.975	514.4
399.379	528.8
399.763	564.6
400.168	528.8
400.572	523.4
400.977	527.6
401.382	545.2
401.787	530.2
402.192	537
402.597	540
403.002	520.2
403.386	532.4
403.791	547.6
404.197	528.4
404.602	528.6
405.007	537.8
405.413	520.8
405.818	526.8
406.224	529.6
406.608	526.4
407.014	518.6
407.42	540.8
407.825	523.2
408.231	538
408.637	530.2
409.043	538.6
409.449	531.6
409.834	512
410.24	531.6
410.646	536.6
411.052	538.2
411.458	534
411.865	535
412.271	541.8
412.677	532.6
413.062	534.8
413.469	519.4
413.875	550.2
414.282	540.2
414.689	532
415.095	537.6
415.502	522.2
415.888	536
416.294	516.2
416.701	559.8
417.108	524.2
417.515	534.2
417.923	531.6
418.33	549.2
418.715	542.4
419.123	530.2
419.53	526
419.937	531
420.345	537.2
420.752	527.8
421.16	537.8
421.546	532
421.953	529.6
422.361	518
422.769	526.4
423.177	521.2
423.585	553.8
423.992	545.4
424.379	533.8
424.787	533.2
425.195	548.6
425.603	532
426.011	541.2
426.419	550
426.806	532
427.214	540.6
427.623	551.4
428.031	547.8
428.44	545.8
428.848	559.4
429.235	562.2
429.644	568.8
430.053	571.8
430.461	595.8
430.87	603.8
431.279	609.4
431.666	610.4
432.075	632.4
432.484	648.8
432.893	650.4
433.302	686.6
433.711	716.8
434.099	718.2
434.508	740
434.918	748.8
435.327	788.6
435.737	811
436.125	830.8
436.534	854.6
436.944	875.6
437.353	904.2
437.763	931.8
438.173	931.8
438.561	966
438.971	983.2
439.381	995.8
439.791	1032.8
440.201	1038.8
440.589	1064.2
440.999	1087.6
441.409	1102
441.819	1120
442.23	1144
442.619	1164.6
443.029	1184.6
443.439	1189.6
443.85	1216.2
444.26	1211.4
444.649	1203.2
445.06	1227
445.471	1217.8
445.881	1259.6
446.292	1296.2
446.682	1304.4
447.092	1271
447.503	1335.2
447.914	1313.2
448.325	1325.6
448.715	1324.2
449.126	1331
449.537	1320.6
449.948	1332.6
450.338	1326.6
450.75	1322.2
451.161	1334
451.572	1368
451.984	1366.4
452.374	1350.8
452.786	1361.4
453.197	1378
453.609	1371.2
453.999	1367.8
454.411	1368.8
454.823	1385.6
455.235	1386.4
455.647	1378.4
456.037	1383.2
456.449	1374.2
456.862	1394
457.274	1369
457.665	1374.2
458.077	1398.4
458.489	1410.4
458.902	1384.4
459.293	1396
459.705	1398.4
460.118	1368
460.53	1389.6
460.921	1401.8
461.334	1400.2
461.747	1401.2
462.16	1414.8
462.551	1420.4
462.964	1402.4
463.377	1391
463.79	1410.8
464.182	1385
464.595	1381.8
465.008	1393.8
465.421	1410.4
465.813	1394.6
466.226	1392.4
466.64	1388
467.053	1417.4
467.445	1396.8
467.859	1419.6
468.272	1404.2
468.686	1426.8
469.078	1406.2
469.492	1405.6
469.906	1393.2
470.298	1403.4
470.712	1408.4
471.126	1418
471.54	1390.2
471.933	1375.2
472.347	1379.4
472.761	1395.6
473.175	1375.6
473.568	1371.8
473.982	1374.4
474.397	1361
474.79	1352.6
475.204	1343.4
475.619	1362.2
476.033	1343.4
476.426	1345.2
476.841	1343.2
477.256	1357.2
477.649	1323
478.064	1321.6
478.479	1325.2
478.872	1323.4
479.287	1317.4
479.702	1313.8
480.118	1323.8
480.511	1320.2
480.927	1319.4
481.342	1294.6
481.736	1312.8
482.151	1293.6
482.566	1310.8
482.96	1285
483.376	1290.8
483.792	1275.8
484.186	1277.6
484.602	1282.6
485.017	1269
485.412	1254.6
485.827	1266.8
486.243	1240
486.638	1260.8
487.054	1240
487.47	1244
487.865	1202.2
488.281	1229.8
488.697	1225.2
489.092	1199.8
489.508	1197.8
489.925	1197.8
490.32	1194.6
490.736	1197
491.153	1174.2
491.548	1182
491.964	1180
492.381	1158.6
492.776	1157.6
493.193	1148.8
493.61	1172.2
494.006	1142.4
494.422	1141.2
494.84	1132
495.235	1139.2
495.652	1131.8
496.069	1108.6
496.465	1120
496.883	1117.4
497.3	1130.8
497.696	1093.4
498.113	1098.4
498.509	1086.2
498.927	1084.2
499.344	1070.6
499.741	1069.4
500.158	1065.2
500.576	1081.2
500.973	1073
501.39	1054.6
501.787	1047.8
502.205	1037
502.623	1026
503.02	1018.8
503.438	1019.4
503.856	1005
504.253	1027.8
504.671	1024
505.068	1003
505.486	1012.6
505.905	1025.4
506.302	997
506.72	988.6
507.118	973.6
507.536	977
507.955	976
508.352	973.8
508.771	969
509.169	974.2
509.587	953.2
510.006	955.8
510.404	939.6
510.823	934.2
511.221	933
511.64	943
512.038	949.2
512.457	929.4
512.877	918.8
513.275	913.8
513.694	910.6
514.092	905.8
514.512	906.2
514.91	908.4
515.33	894
515.749	885.4
516.148	884.2
516.568	860.8
516.966	877.4
517.386	868.8
517.785	870.4
518.205	862.6
518.603	859.4
519.024	846.2
519.444	841
519.843	855.4
520.263	855.6
520.662	839.4
521.082	844
521.481	847
521.902	839.6
522.301	834.2
522.722	844
523.121	827.2
523.542	810.8
523.963	807.8
524.362	810.4
524.783	799.2
525.183	797.4
525.604	811.4
526.003	782.6
526.425	787
526.824	789
527.246	792
527.646	788.2
528.067	778.8
528.467	775
528.888	774.4
529.289	771.6
529.71	782.6
530.11	759
530.532	761
530.932	755.4
531.354	744.2
531.755	784.2
532.176	761.4
532.577	745.2
532.999	746.4
533.4	726.4
533.822	748.4
534.223	739.8
534.645	731.6
535.046	720.4
535.468	731
535.869	747.8
536.292	723.6
536.693	754.6
537.115	728.8
537.516	716.4
537.939	708.4
538.34	732
538.742	724.2
539.165	715.2
539.566	709.4
539.989	701.4
540.391	710.6
540.814	701
541.216	712.6
541.639	703
542.041	711.8
542.464	694
542.866	687.8
543.268	689.2
543.691	699.2
544.093	696
544.517	709.8
544.919	681
545.343	703
545.745	669.2
546.147	687.4
546.571	685.6
546.974	663
547.398	666.8
547.8	682.6
548.224	668.4
548.627	661.4
549.03	673.4
549.454	662.4
549.857	650.4
550.281	655.8
550.684	650.6
551.087	669.2
551.512	667.8
551.915	654
552.34	652.6
552.743	644.4
553.146	642.2
553.571	649.2
553.975	662.6
554.399	638
554.803	681.8
555.207	635.2
555.632	627.8
556.036	641.8
556.461	622
556.865	634.2
557.268	629.8
557.694	635.2
558.098	643.8
558.502	630.6
558.927	614
559.332	621
559.736	630.8
560.162	628.4
560.566	621
560.992	614.4
561.396	620
561.801	622.4
562.227	618.2
562.631	608
563.036	606.2
563.462	618
563.867	607.4
564.272	599.6
564.698	616.6
565.103	596.8
565.508	619
565.935	607.2
566.34	605.4
566.745	612.4
567.172	602.2
567.577	612.2
567.982	613.6
568.409	600
568.815	585.6
569.22	599.4
569.626	597.8
570.053	580
570.459	592.2
570.865	602
571.292	595.2
571.698	599
572.104	579
572.531	583.6
572.937	599.6
573.343	586
573.75	579.6
574.177	583.4
574.583	581
574.99	582.2
575.396	585.4
575.824	575.6
576.231	577.4
576.637	570.2
577.065	600.2
577.472	574.6
577.879	568.6
578.286	587
578.714	565.6
579.121	582.6
579.528	571.8
579.935	579.6
580.364	568
580.771	559.6
581.178	564.4
581.585	568.2
582.014	577.6
582.421	564.4
582.829	556.2
583.236	580.4
583.644	568
584.073	572.2
584.481	560
584.889	562.6
585.296	570.4
585.726	563.6
586.134	552.2
586.542	561.8
586.95	573.2
587.358	546
587.787	556
588.196	551.4
588.604	557
589.012	553.4
589.421	546.8
589.851	548.8
590.259	554
590.668	550
591.076	581.4
591.485	551
591.894	556.6
592.324	560.2
592.733	561.6
593.142	539
593.551	549.2
593.96	582
594.369	535.8
594.8	536.2
595.209	544
595.618	540.6
596.028	544
596.437	532.6
596.847	542
597.256	554.4
597.687	552.4
598.097	543.6
598.507	538.4
598.917	543.8
599.327	545.4
599.736	549.4
600.146	550.2
600.556	544.2
600.988	553.6
601.398	539.2
601.808	549.4
602.219	536.6
602.629	539.2
603.039	535.4
603.45	555.6
603.86	532.6
604.271	551.6
604.703	547.8
605.114	534
605.525	537.8
605.935	544
606.346	556.8
606.757	543.8
607.168	534.4
607.579	531
607.99	545.4
608.402	537.2
608.813	538
609.224	530
609.636	519.8
610.047	532.6
610.48	539.6
610.892	544.6
611.303	542.2
611.715	530.8
612.127	531.2
612.539	536
612.95	539.6
613.362	522.6
613.774	517
614.186	526.2
614.599	529
615.011	535.8
615.423	528.4
615.835	522.2
616.248	527
616.66	540.2
617.073	529
617.485	537
617.898	532.6
618.311	535.8
618.723	534
619.136	561.8
619.549	546.6
619.962	550
620.375	528
620.788	534.4
621.201	529.6
621.614	541.2
622.028	534.2
622.441	535.4
622.854	542.8
623.268	525.8
623.681	539.2
624.095	526
624.509	541.2
624.922	536
625.336	527.6
625.728	540.4
626.142	545.2
626.556	543.2
626.97	538.8
627.384	527
627.799	529.2
628.213	540.4
628.627	528.2
629.041	532
629.456	526.8
629.87	530.4
630.285	534.2
630.699	537.6
631.093	525.6
631.507	528.2
631.922	525
632.337	540.6
632.752	524.6
633.167	533.4
633.582	523.2
633.997	530.8
634.412	521.2
634.806	531.4
635.221	525.2
635.637	537.4
636.052	518
636.468	524.4
636.883	539.2
637.299	524
637.715	517.4
638.109	517
638.525	519
638.941	533.8
639.357	531.4
639.773	538.8
640.189	521.4
640.584	527.6
641	533.8
641.416	507.4
641.832	522.6
642.249	516.6
642.665	518.4
643.06	532.4
643.477	528.6
643.894	508.8
644.31	515
644.727	524.4
645.123	523.4
645.54	517.2
645.957	522.4
646.374	529.2
646.77	519.6
647.187	544.6
647.604	518.6
648.021	505.8
648.439	510.2
648.835	521.8
649.252	518.6
649.67	517.6
650.088	513
650.484	521
650.902	534.6
651.32	519.4
651.738	508.6
652.134	518.2
652.552	535.6
652.971	520.6
653.389	517.6
653.786	532
654.204	522.6
654.622	515.4
655.019	519.6
655.438	521.4
655.857	519.2
656.275	518.8
656.673	516.6
657.091	521.6
657.51	515.2
657.908	521.2
658.327	530.4
658.746	514
659.144	520.2
659.563	530.4
659.982	516.2
660.38	511.6
660.8	519.4
661.219	521.4
661.617	516.2
662.037	512
662.457	527.8
662.855	509.6
663.275	543
663.695	516.8
664.094	510.8
664.514	514.6
664.934	509.6
665.333	522
665.753	511
666.152	506.2
666.572	509
666.993	525
667.392	509.4
667.812	510.8
668.212	508.8
668.632	518.4
669.053	507.2
669.453	513
669.874	514.4
670.273	510.2
670.694	507
671.116	517.6
671.515	519
671.937	500.2
672.337	503
672.758	507.2
673.158	518.8
673.58	507.8
673.98	514.8
674.402	521.8
674.824	507.2
675.224	511.4
675.646	504.8
676.047	503.8
676.469	511.4
676.869	513
677.292	513.4
677.693	513
678.115	502.8
678.516	511.6
678.939	515.2
679.34	513.2
679.762	521.2
680.164	516
680.586	491.4
680.988	508.6
681.411	534.6
681.812	508.4
682.236	504.4
682.637	507
683.061	500.8
683.462	510.4
683.864	501
684.288	503.6
684.69	498
685.114	508
685.516	511.2
685.94	505
686.342	500.8
686.766	503.2
687.168	501
687.571	519.8
687.995	507.8
688.398	501.6
688.822	507.6
689.225	511.8
689.628	522.8
690.052	504.8
690.456	511.8
690.88	514.4
691.284	498.6
691.687	517.8
692.112	494
692.515	508.2
692.919	509.8
693.344	513
693.747	507
694.173	509.2
694.577	515
694.98	515.4
695.406	509.6
695.81	509.8
696.214	515.4
696.64	512.2
697.044	519
697.448	520
697.874	504.4
698.279	495.8
698.684	499.4
699.11	496.4
699.514	498.2
699.919	507
700.324	500
700.75	510.6
701.156	501.8
701.561	515.8
701.987	515
702.393	516.4
702.798	518.2
703.203	511.2
703.63	501.8
704.036	502.4
704.442	503.6
704.847	497.8
705.274	510.8
705.68	515.4
706.086	513.2
706.492	504.2
706.92	504.4
707.326	505.8
707.732	498.8
708.139	497.2
708.545	492.8
708.973	498.2
709.38	498.4
709.786	490.8
710.193	512.8
710.6	502.6
711.028	499.4
711.435	499
711.842	500.4
712.249	505.4
712.656	502.8
713.064	507.6
713.492	499.2
713.9	508.2
714.307	507.4
714.715	501.6
715.123	508
715.53	509.6
715.938	517.2
716.367	511
716.775	498.6
717.184	508
717.592	502.4
718	515
718.408	541.4
718.816	536.6
719.225	507.4
719.633	504
720.042	491.4
720.472	510
720.881	517.6
721.29	506.2
721.699	498.4
722.108	505.8
722.517	500.6
722.926	505.2
723.335	515.2
723.744	502.8
724.154	511
724.563	502
724.973	508.6
725.382	504.4
725.792	501.6
726.202	493.8
726.612	512.6
727.022	496.8
727.432	497
779.813	491.4
780.223	539.2
780.634	501.2
781.044	503.8
781.454	504.8
781.865	518.2
782.276	495.8
782.686	505.8
783.097	496.6
783.508	500.8
783.919	499.6
784.33	514.8
784.741	516.2
785.152	498.2
785.563	493.8
785.974	495.6
786.386	508.4
786.776	501.4
787.188	508.2
787.599	492.2
788.011	513.6
788.423	503
788.835	498
789.247	499.2
789.659	492.2
790.071	496.4
790.483	540.4
790.874	499.8
791.286	506.6
791.699	497.2
792.111	497.8
792.524	495
792.937	496.4
793.349	488.2
793.741	497.8
794.154	495.4
794.567	511.8
794.98	497.8
795.393	495
795.785	507.4
796.198	499.6
796.612	501.6
797.026	496.4
797.439	489
797.831	495.6
798.245	497.2
798.659	498.8
799.073	492.2
799.487	494
799.88	501.6
800.294	506.8
800.708	501.6
801.123	506.6
801.516	505.8
801.93	488.6
802.345	490.4
802.76	507.8
803.153	515
803.568	514.8
803.983	512.2
804.377	499.8
804.792	493.8
805.207	496
805.601	503
806.016	520.6
806.432	494.8
806.826	523.8
807.242	513.4
807.658	500.6
808.052	497.6
808.468	501
808.884	493.8
809.279	506.4
809.695	509
810.111	511.6
810.506	500.4
810.922	514.4
811.339	491.4
811.734	504
812.151	500.4
812.546	498.4
812.963	504.6
813.38	505
813.776	506.4
814.193	513.8
814.589	498.8
815.006	500.2
815.402	500
815.82	501
816.237	500
816.633	506.4
817.051	492.4
817.448	497
817.866	495.2
818.262	509.6
818.68	499.2
819.077	493.6
819.495	494.4
819.892	522.4
820.311	489.6
820.708	491
821.127	491.8
821.524	507
821.943	504.6
822.34	519.4
822.759	495
823.157	505
823.576	507.6
823.974	502.8
824.393	555.4
824.791	493.8
825.189	492.2
825.609	495.8
826.007	497.6
826.427	488
826.826	496.2
827.246	508.8
827.644	486.8
828.043	511
828.463	499.4
828.862	507.4
829.261	501.2
829.682	487.8
830.081	511.6
830.502	500.8
830.901	500.8
831.301	502.2
831.722	489.2
832.121	498.4
832.521	494.4
832.943	496
833.342	501
833.742	496.6
834.164	507.4
834.564	495.4
834.965	491.2
835.386	491.8
835.787	502.4
836.188	493.4
836.588	498
837.01	498.2
837.411	491.2
837.812	504
838.213	507.4
838.636	499.8
839.037	547.2
839.438	501.2
839.84	510.2
840.263	504.2
840.664	509
841.066	493.8
841.468	491.4
841.891	503.4
842.293	500.8
842.695	512.6
843.098	509.4
843.5	498.6
843.902	503.4
844.326	504.8
844.729	501.2
845.131	507.6
845.534	498.6
845.937	506.6
846.34	513.8
846.764	498.2
847.167	505.8
847.571	493.6
847.974	502
848.377	498.6
848.781	531.4
849.184	512
849.588	494
849.992	497.8
850.396	495.8
850.821	515.8
851.225	503.6
851.63	500.4
852.034	510
852.438	502.6
852.843	517.8
