#lambda/nm	C1
208.295	471.2
208.67	439.2
209.045	397.8
209.419	397.8
209.794	541.4
210.169	523
210.544	637.6
210.919	546.8
211.295	535.2
211.67	537.2
212.045	534.8
212.421	535.6
212.796	574
213.172	524.8
213.547	534
213.923	540
214.299	532.4
214.675	544.2
215.051	537.4
215.427	541.2
215.803	549.2
216.179	547
216.555	526
216.932	541
217.308	540.2
217.684	527.8
218.061	541.2
218.438	532.8
218.814	531.4
219.191	549.8
219.568	530.2
219.945	533.4
220.322	546.2
220.699	542.4
221.076	545.4
221.453	545
221.83	531
222.208	539.8
222.585	524.6
222.962	543.2
223.34	541.8
223.717	537.6
224.095	539.4
224.473	545.6
224.851	537.6
225.229	529
225.607	549.2
225.985	522.6
226.363	544.4
226.741	537.6
227.119	543.2
227.497	547.8
227.876	530.8
228.254	542.2
228.633	545.8
229.011	540.2
229.39	542
229.769	538.6
230.148	545.2
230.527	554.6
230.905	535.2
231.284	545.2
231.664	535.8
232.043	546.4
232.422	541.2
232.801	538
233.181	541
233.56	544.8
233.94	536.2
234.319	533.2
234.699	538.2
235.079	574.6
235.458	575.6
235.838	551.2
236.218	530
236.598	522.6
236.978	532.8
237.358	525.2
237.738	538.6
238.119	546.4
238.499	527.6
238.88	539
239.26	556
239.641	528.8
240.021	531.2
240.402	538.2
240.783	542.6
241.163	540.2
241.544	535.4
241.925	548.4
242.306	552.8
242.687	528.8
243.069	533.2
243.45	548.8
243.831	535
244.212	537.4
244.594	560.4
244.975	543.6
245.357	542.4
245.739	538.2
246.12	541.2
246.502	548
246.884	536
247.266	535
247.648	535.4
248.03	553.8
248.412	540.2
248.794	548.8
249.176	533.6
249.559	545.4
249.941	529
250.323	528
250.706	522.6
251.089	538
251.471	535.8
251.854	535.6
252.237	540.6
252.62	539
253.002	539.4
253.385	540.6
253.769	552.2
254.152	539.4
254.535	538.2
254.918	536
255.301	540.6
255.685	535
256.068	533
256.452	563.6
256.835	543.4
257.219	539.6
257.603	546.2
257.986	527.4
258.37	547.4
258.754	537.2
259.138	544.8
259.522	545.8
259.906	537.4
260.29	545.4
260.675	539.2
261.059	543
261.443	530.2
261.828	543.2
262.212	537.2
262.597	537.6
262.981	535.8
263.366	543
263.751	541.8
264.136	529.8
264.521	527.8
264.906	528.2
265.291	550.8
265.676	536
266.061	546.6
266.446	546
266.831	537.8
267.217	552.6
267.602	550.2
267.987	540
268.373	537.2
268.759	535.2
269.144	546.2
269.53	544
269.916	526.6
270.302	539.8
270.688	540.4
271.074	539.4
271.46	545.2
271.846	565.6
272.232	531.4
272.618	537.4
273.004	534.4
273.391	545.4
273.777	553.6
274.164	544
274.55	549
274.937	537
275.324	527.6
275.71	534.8
276.097	537.2
276.484	529.6
276.871	540.8
277.258	532
277.645	520.2
278.032	537.2
278.419	537.8
278.807	533.6
279.194	532
279.581	530
279.969	542.6
280.356	539.4
280.744	539.2
281.131	555.8
281.519	542.2
281.907	539.6
282.295	543.2
282.682	543
283.07	542.8
283.458	545.2
283.846	553.4
284.235	547.6
284.623	552
285.011	536.2
285.399	549.8
285.788	543
286.176	528.6
286.565	549.2
286.953	531.4
287.342	542
287.731	536.2
288.119	533.8
288.508	541.4
288.897	540
289.286	525.8
289.675	544
290.064	545
290.453	532.6
290.821	538.4
291.21	548.8
291.599	534.6
291.989	537.8
292.378	540.2
292.768	554.8
293.157	532.6
293.547	548.8
293.936	538.2
294.326	532.2
294.716	537
295.106	540.8
295.496	543.4
295.886	551
296.276	536
296.666	535.4
297.056	533.2
297.446	528.6
297.836	552.6
298.227	533
298.617	534.4
299.008	550.4
299.398	533.8
299.789	532.4
300.179	538
300.57	555.8
300.961	534.4
301.352	532.4
301.742	553.2
302.133	538.2
302.524	537.6
302.915	537.2
303.307	534.2
303.698	552.8
304.089	541.6
304.48	537.4
304.872	541.8
305.263	544
305.655	536.2
306.046	545
306.438	544.4
306.829	535.4
307.221	545.4
307.613	540
308.005	546.6
308.397	548.2
308.789	555.8
309.181	557.4
309.573	551.6
309.965	554.6
310.357	534
310.749	549.4
311.142	538.2
311.534	538.4
311.926	550
312.319	537.2
312.711	533.4
313.104	550.6
313.497	533.4
313.889	567.6
314.282	543
314.675	557.8
315.068	537.2
315.461	542.8
315.854	562.8
316.247	551.4
316.64	537.4
317.033	539.4
317.405	546.2
317.798	538.8
318.192	543.6
318.585	530.8
318.979	534
319.372	531.2
319.766	540.8
320.16	550.2
320.553	550.4
320.947	554.4
321.341	529.6
321.735	537.8
322.129	528
322.523	555
322.917	527
323.311	555
323.705	552.2
324.099	542.8
324.494	551
324.888	555.8
325.282	532.6
325.677	544.8
326.071	547.8
326.466	549.6
326.861	549.8
327.255	551.2
327.65	552.6
328.045	553.2
328.44	542.2
328.835	542.2
329.23	536.4
329.625	557.6
330.02	534.4
330.415	556.2
330.81	544
331.206	549
331.601	540
331.996	554.8
332.37	557.6
332.766	538.6
333.161	561
333.557	537.2
333.953	536.6
334.348	818
334.744	541.2
335.14	539.6
335.536	526
335.932	547.4
336.328	543
336.724	546.2
337.12	546
337.516	544
337.913	550
338.309	547.6
338.705	534.6
339.102	543.4
339.498	530.8
339.895	543.8
340.291	539.2
340.688	541
341.085	539.6
341.481	540.8
341.878	539
342.275	550.4
342.672	536.6
343.069	540.6
343.466	524
343.842	548.6
344.239	530
344.636	537
345.033	526.4
345.431	535.8
345.828	541.8
346.225	532.6
346.623	566.8
347.02	537.6
347.418	545
347.816	544
348.213	532.4
348.611	536.4
349.009	532.6
349.407	538.8
349.805	522.2
350.203	521.2
350.601	548.6
350.999	528.8
351.397	576.2
351.795	543
352.193	551.4
352.57	539.8
352.969	547.4
353.367	530.6
353.766	527.4
354.164	538.6
354.563	548.6
354.961	535
355.36	536.6
355.759	536.6
356.158	526.2
356.557	523
356.956	531.8
357.355	526.2
357.754	539.8
358.153	543.2
358.552	560.4
358.951	537
359.35	552
359.75	531
360.149	527.8
360.527	514.8
360.926	528.6
361.326	532.6
361.726	524.2
362.125	526.6
362.525	537.8
362.925	531.2
363.325	540.2
363.724	533.2
364.124	528.6
364.524	525.8
364.924	533.2
365.324	535.8
365.725	514.8
366.125	542.2
366.525	531
366.904	532.8
367.304	517
367.705	547.8
368.105	535.2
368.506	528
368.906	532.4
369.307	525.8
369.708	536.8
370.108	522.2
370.509	537.6
370.91	516.4
371.311	531.8
371.712	533
372.113	530.2
372.514	514.8
372.894	529.2
373.295	528.4
373.696	537.8
374.097	532.8
374.499	543.4
374.9	534.6
375.301	524.8
375.703	532.6
376.105	524.6
376.506	534.4
376.908	535.8
377.309	535
377.711	535.6
378.113	529.2
378.493	531.2
378.895	526.4
379.297	540
379.699	526
380.102	535.6
380.504	531.6
380.906	529.2
381.308	554.8
381.71	525.4
382.113	537
382.515	532.6
382.918	532.6
383.299	533
383.701	543.8
384.104	537
384.507	518.8
384.909	529.6
385.312	523.8
385.715	533.6
386.118	528
386.521	523.2
386.924	531.6
387.327	531.2
387.709	522
388.112	522
388.515	531
388.918	525
389.322	528.4
389.725	526.4
390.129	547
390.532	531.4
390.936	528.6
391.339	523.2
391.743	525.6
392.125	525.6
392.529	540.4
392.933	539.4
393.337	531
393.74	530.2
394.144	527
394.548	525.2
394.953	527.2
395.357	541.8
395.761	528.4
396.144	527.2
396.548	529.8
396.952	530.8
397.357	533.2
397.761	525.8
398.166	520.6
398.57	530.4
398.975	522.8
399.379	532.8
399.763	575.4
400.168	534
400.572	524.2
400.977	531.8
401.382	553.8
401.787	536.8
402.192	548.6
402.597	535
403.002	517.4
403.386	538.2
403.791	538
404.197	527.8
404.602	532.2
405.007	524.8
405.413	529.8
405.818	526.4
406.224	522.6
406.608	526.6
407.014	525.4
407.42	545.4
407.825	531.2
408.231	539.4
408.637	540.6
409.043	537.4
409.449	524.2
409.834	514.4
410.24	538.8
410.646	540
411.052	537
411.458	534.2
411.865	539.8
412.271	533.6
412.677	524.6
413.062	533.4
413.469	524.6
413.875	550.4
414.282	540.2
414.689	528.6
415.095	543.8
415.502	521.4
415.888	533.8
416.294	520.6
416.701	569
417.108	520
417.515	533.6
417.923	533
418.33	552.6
418.715	536.6
419.123	528.2
419.53	533.8
419.937	528.8
420.345	536.6
420.752	527
421.16	542.4
421.546	530.8
421.953	537.6
422.361	523.8
422.769	523.6
423.177	524.6
423.585	555.4
423.992	542.2
424.379	534.6
424.787	542.8
425.195	548.4
425.603	539.2
426.011	538.6
426.419	545.8
426.806	535.6
427.214	541.6
427.623	550
428.031	553.4
428.44	551.4
428.848	559.4
429.235	558.4
429.644	560
430.053	561
430.461	586.6
430.87	602.2
431.279	600
431.666	595.8
432.075	612.2
432.484	627.6
432.893	637.8
433.302	667.4
433.711	709.4
434.099	699.6
434.508	715.4
434.918	734.8
435.327	753.8
435.737	779.8
436.125	798.4
436.534	819.8
436.944	840.2
437.353	865.8
437.763	889
438.173	891.4
438.561	920.8
438.971	932.4
439.381	954.6
439.791	977.4
440.201	983.6
440.589	1020.2
440.999	1027.8
441.409	1059.8
441.819	1050.2
442.23	1085.6
442.619	1089.2
443.029	1094.8
443.439	1104.4
443.85	1129.2
444.26	1155.6
444.649	1157.2
445.06	1174.2
445.471	1168.2
445.881	1169.2
446.292	1190.6
446.682	1207.4
447.092	1199.6
447.503	1260.4
447.914	1218.4
448.325	1216.8
448.715	1236.2
449.126	1223.2
449.537	1224
449.948	1244
450.338	1252.8
450.75	1274.4
451.161	1258.2
451.572	1290
451.984	1266.6
452.374	1285
452.786	1296.4
453.197	1280.2
453.609	1302.2
453.999	1278.2
454.411	1293.8
454.823	1302.4
455.235	1300.4
455.647	1286.8
456.037	1309
456.449	1284.6
456.862	1304.8
457.274	1315.2
457.665	1291.2
458.077	1311.6
458.489	1333
458.902	1295.2
459.293	1302.8
459.705	1289.2
460.118	1300.4
460.53	1297.6
460.921	1313.6
461.334	1324
461.747	1323.8
462.16	1324.4
462.551	1310.4
462.964	1317.2
463.377	1301.8
463.79	1313
464.182	1309.2
464.595	1312.6
465.008	1317
465.421	1316.8
465.813	1297
466.226	1304
466.64	1311.2
467.053	1352.8
467.445	1321.6
467.859	1330.6
468.272	1323.6
468.686	1323
469.078	1301.6
469.492	1300.2
469.906	1328.2
470.298	1298.6
470.712	1301.2
471.126	1323.4
471.54	1289.4
471.933	1288.2
472.347	1303.6
472.761	1291
473.175	1285.2
473.568	1287.4
473.982	1291.6
474.397	1282
474.79	1287
475.204	1286.4
475.619	1268.6
476.033	1272.4
476.426	1266.4
476.841	1262.4
477.256	1284
477.649	1247
478.064	1248.2
478.479	1257.4
478.872	1241.6
479.287	1234.6
479.702	1237.8
480.118	1215.4
480.511	1236.2
480.927	1225.4
481.342	1214.6
481.736	1204.4
482.151	1200.6
482.566	1211.2
482.96	1212.2
483.376	1207.4
483.792	1197.6
484.186	1205.2
484.602	1187.4
485.017	1187.4
485.412	1187.8
485.827	1186.2
486.243	1181.4
486.638	1187.8
487.054	1172.4
487.47	1188
487.865	1162.8
488.281	1146.4
488.697	1147.8
489.092	1140.6
489.508	1135.2
489.925	1133.8
490.32	1122.6
490.736	1123.8
491.153	1117.8
491.548	1117.2
491.964	1121.8
492.381	1104.2
492.776	1113.8
493.193	1097.4
493.61	1095.6
494.006	1095.4
494.422	1094.4
494.84	1063.6
495.235	1077.2
495.652	1083.4
496.069	1083.8
496.465	1068
496.883	1056.8
497.3	1080.6
497.696	1057
498.113	1051
498.509	1028.2
498.927	1022
499.344	1025.6
499.741	1017.8
500.158	1030.2
500.576	1020.6
500.973	1007.4
501.39	1005.4
501.787	988.6
502.205	979.8
502.623	982
503.02	986.4
503.438	977.2
503.856	978.2
504.253	975
504.671	959.4
505.068	974.4
505.486	955.6
505.905	963.4
506.302	951.8
506.72	953.2
507.118	935
507.536	942.6
507.955	924.2
508.352	928.8
508.771	911
509.169	928.6
509.587	896.4
510.006	911
510.404	893.4
510.823	895.4
511.221	899
511.64	900.8
512.038	900.6
512.457	884.8
512.877	877.6
513.275	875
513.694	869.2
514.092	864
514.512	875.6
514.91	871.6
515.33	865.2
515.749	859.8
516.148	854.6
516.568	862
516.966	861.4
517.386	844
517.785	837.2
518.205	830.6
518.603	832
519.024	824.2
519.444	831.2
519.843	848.2
520.263	841.8
520.662	825.4
521.082	814.4
521.481	805.6
521.902	806.4
522.301	804
522.722	803
523.121	803.8
523.542	783.2
523.963	792
524.362	791.2
524.783	787.4
525.183	792.8
525.604	782
526.003	771.4
526.425	771.2
526.824	781.8
527.246	767.2
527.646	776.2
528.067	764.8
528.467	755.4
528.888	752.8
529.289	759.2
529.71	749.8
530.11	747.2
530.532	748.4
530.932	729.8
531.354	740.4
531.755	764.8
532.176	740.4
532.577	732.6
532.999	726.2
533.4	717.2
533.822	731.4
534.223	723.4
534.645	717.2
535.046	718.8
535.468	714.2
535.869	719.6
536.292	712.6
536.693	731.4
537.115	711.2
537.516	716.2
537.939	704.2
538.34	726.6
538.742	703.8
539.165	702.2
539.566	704.4
539.989	684.4
540.391	682.8
540.814	687.2
541.216	687.6
541.639	678.4
542.041	687.6
542.464	682.2
542.866	680.2
543.268	675.6
543.691	679.4
544.093	685
544.517	685.6
544.919	668.6
545.343	686.8
545.745	663.6
546.147	672.6
546.571	664
546.974	663.8
547.398	665.4
547.8	674.6
548.224	656.2
548.627	653.8
549.03	654.4
549.454	651.4
549.857	638.2
550.281	645.4
550.684	654
551.087	657.6
551.512	651.2
551.915	653.2
552.34	646.2
552.743	635.4
553.146	641.2
553.571	639
553.975	655.2
554.399	620.2
554.803	672.6
555.207	628.8
555.632	620.4
556.036	631
556.461	632.8
556.865	630.4
557.268	620.6
557.694	624.4
558.098	629.2
558.502	628.6
558.927	619.2
559.332	618.8
559.736	616.8
560.162	620.8
560.566	608.8
560.992	626
561.396	611.2
561.801	612.8
562.227	611.6
562.631	596.4
563.036	607.4
563.462	614.2
563.867	609.2
564.272	600.6
564.698	603.2
565.103	595.6
565.508	623.8
565.935	604
566.34	594.2
566.745	602.4
567.172	592.8
567.577	610.6
567.982	602.8
568.409	593.4
568.815	586.2
569.22	590.6
569.626	597.2
570.053	580.8
570.459	592.6
570.865	593.6
571.292	589
571.698	587.4
572.104	582.2
572.531	578.8
572.937	586.2
573.343	583
573.75	581.6
574.177	576.4
574.583	589.2
574.99	566.4
575.396	588
575.824	587.8
576.231	578.2
576.637	579.8
577.065	595.2
577.472	571.8
577.879	572.8
578.286	590.2
578.714	569.8
579.121	575.2
579.528	581.2
579.935	581.8
580.364	572.8
580.771	557.6
581.178	568.8
581.585	570.2
582.014	569
582.421	557.8
582.829	564
583.236	570
583.644	554.2
584.073	564
584.481	566.8
584.889	555.6
585.296	565.2
585.726	550.4
586.134	556.4
586.542	558
586.95	576.8
587.358	553.4
587.787	554
588.196	549.6
588.604	559.4
589.012	557.6
589.421	548.6
589.851	547.2
590.259	561
590.668	550.8
591.076	583
591.485	548.8
591.894	554.6
592.324	560
592.733	562.6
593.142	534.6
593.551	547
593.96	583.2
594.369	536.6
594.8	542
595.209	557
595.618	543.2
596.028	540.4
596.437	534.8
596.847	541
597.256	548.6
597.687	554
598.097	549.6
598.507	537
598.917	545.4
599.327	542.4
599.736	548.2
600.146	554.4
600.556	551.8
600.988	551.2
601.398	544.4
601.808	539.6
602.219	528.8
602.629	542.2
603.039	532.6
603.45	557.8
603.86	538.2
604.271	550
604.703	540.6
605.114	532.8
605.525	536.6
605.935	539
606.346	553
606.757	530
607.168	529.6
607.579	523.4
607.99	543.2
608.402	532
608.813	539.2
609.224	534.6
609.636	530.2
610.047	528.6
610.48	537.6
610.892	535.8
611.303	535.6
611.715	526.8
612.127	530.2
612.539	532.4
612.95	534.2
613.362	523.8
613.774	525.6
614.186	532.6
614.599	536.8
615.011	541.8
615.423	530.2
615.835	528.2
616.248	518.8
616.66	535.2
617.073	525.4
617.485	529
617.898	537
618.311	537
618.723	530.2
619.136	555.4
619.549	543.6
619.962	547.6
620.375	526.6
620.788	540
621.201	528.6
621.614	531.2
622.028	532.4
622.441	535.6
622.854	546.4
623.268	519.4
623.681	533.4
624.095	533.4
624.509	533.6
624.922	530.4
625.336	526.4
625.728	526.6
626.142	543.8
626.556	545.6
626.97	534.6
627.384	525.2
627.799	522.4
628.213	540.8
628.627	526.2
629.041	519
629.456	525.2
629.87	533
630.285	540.8
630.699	535
631.093	523.6
631.507	529.2
631.922	527.2
632.337	533
632.752	522.6
633.167	531.6
633.582	525
633.997	529
634.412	520.4
634.806	527.8
635.221	517.2
635.637	534.8
636.052	520.4
636.468	533.8
636.883	533.4
637.299	522.8
637.715	513.4
638.109	521.4
638.525	520.6
638.941	530.6
639.357	524.6
639.773	525
640.189	517
640.584	521.8
641	524.6
641.416	512.6
641.832	517
642.249	517
642.665	523.8
643.06	521.2
643.477	526.6
643.894	514.2
644.31	525
644.727	516.4
645.123	523.4
645.54	514
645.957	517.4
646.374	525.6
646.77	524.4
647.187	543.6
647.604	517.4
648.021	513.6
648.439	504.2
648.835	525.6
649.252	519.4
649.67	515.8
650.088	520.4
650.484	518.8
650.902	527.8
651.32	519.8
651.738	513.8
652.134	522.2
652.552	529.8
652.971	530.6
653.389	520.8
653.786	528.6
654.204	518.4
654.622	516.2
655.019	506.2
655.438	522.2
655.857	517.2
656.275	528.4
656.673	507
657.091	520.6
657.51	516.4
657.908	517
658.327	523.8
658.746	502.4
659.144	516
659.563	522.6
659.982	519.8
660.38	500.6
660.8	513.8
661.219	520
661.617	521.6
662.037	518
662.457	525.2
662.855	500.2
663.275	542.2
663.695	516.6
664.094	505
664.514	510
664.934	514.4
665.333	518.4
665.753	503.8
666.152	508.2
666.572	505.4
666.993	523
667.392	507.8
667.812	509.6
668.212	515.8
668.632	520.8
669.053	507.2
669.453	518.6
669.874	520.4
670.273	511
670.694	505.8
671.116	511.2
671.515	525.2
671.937	508.4
672.337	514.8
672.758	510.8
673.158	526.4
673.58	508.8
673.98	517
674.402	521.8
674.824	516.8
675.224	509
675.646	503.8
676.047	505.4
676.469	512
676.869	513.6
677.292	506.4
677.693	512.6
678.115	511.8
678.516	514.4
678.939	511.8
679.34	499
679.762	513.2
680.164	516.4
680.586	504.2
680.988	512.8
681.411	521.2
681.812	509.2
682.236	500.6
682.637	506
683.061	499.6
683.462	509.4
683.864	506.4
684.288	511.2
684.69	501.4
685.114	517.6
685.516	516
685.94	506
686.342	521
686.766	510.2
687.168	506
687.571	528.2
687.995	509.4
688.398	503
688.822	512.4
689.225	516.2
689.628	526
690.052	506.8
690.456	519.6
690.88	514.8
691.284	503.4
691.687	515.4
692.112	501.8
692.515	508.4
692.919	512
693.344	512.4
693.747	509.8
694.173	507.6
694.577	521
694.98	515
695.406	505.2
695.81	512.8
696.214	508.2
696.64	514.2
697.044	516.2
697.448	518.6
697.874	506.6
698.279	512
698.684	501
699.11	500.8
699.514	508.6
699.919	500.2
700.324	494.6
700.75	504.2
701.156	504.8
701.561	507.4
701.987	508.2
702.393	507.4
702.798	515.2
703.203	510.2
703.63	499.6
704.036	501
704.442	515.2
704.847	499.8
705.274	499.2
705.68	511.4
706.086	512.6
706.492	497.6
706.92	506.6
707.326	512.8
707.732	501.6
708.139	499.8
708.545	500.4
708.973	507.4
709.38	503.4
709.786	492
710.193	514
710.6	502.8
711.028	500
711.435	507.2
711.842	513.6
712.249	511.6
712.656	509
713.064	513.4
713.492	501
713.9	511.4
714.307	508.2
714.715	501
715.123	509.8
715.53	507
715.938	514.4
716.367	508.4
716.775	503
717.184	502.6
717.592	510
718	519.8
718.408	536.2
718.816	545.8
719.225	513.8
719.633	504.4
720.042	511
720.472	506.2
720.881	525.2
721.29	513.8
721.699	499.6
722.108	514.4
722.517	510.8
722.926	506.2
723.335	511.8
723.744	506
724.154	506.2
724.563	514.6
724.973	515.6
725.382	512.8
725.792	502.6
726.202	494
726.612	518
727.022	505
727.432	494.2
779.813	501.8
780.223	544.8
780.634	506.6
781.044	495
781.454	507.2
781.865	513
782.276	497.8
782.686	514
783.097	505.6
783.508	507.8
783.919	507.8
784.33	518.2
784.741	522.2
785.152	500.6
785.563	503.8
785.974	503.2
786.386	515.6
786.776	506.8
787.188	506.6
787.599	495.4
788.011	509
788.423	514.2
788.835	500.2
789.247	490.2
789.659	500.2
790.071	503
790.483	539
790.874	507.6
791.286	516.8
791.699	498.6
792.111	509.6
792.524	510.6
792.937	509
793.349	496.8
793.741	501.2
794.154	498.6
794.567	520.6
794.98	504
795.393	496.4
795.785	522.2
796.198	504.4
796.612	507.4
797.026	502.8
797.439	494.4
797.831	504
798.245	501
798.659	501.2
799.073	497.8
799.487	495.4
799.88	511.6
800.294	503.6
800.708	510.8
801.123	503.6
801.516	520
801.93	494
802.345	491.4
802.76	500.6
803.153	519
803.568	521
803.983	515.2
804.377	506.6
804.792	493.2
805.207	489.6
805.601	506
806.016	518.2
806.432	492.4
806.826	522.4
807.242	516.8
807.658	497.4
808.052	505
808.468	503.2
808.884	500.4
809.279	511.8
809.695	508.4
810.111	520.8
810.506	503.4
810.922	513.8
811.339	499.6
811.734	508.8
812.151	503
812.546	495.8
812.963	504.4
813.38	501.8
813.776	505.4
814.193	520.4
814.589	498.6
815.006	509
815.402	502.6
815.82	491.6
816.237	501.2
816.633	506.2
817.051	493.2
817.448	503
817.866	492.8
818.262	522.2
818.68	502.8
819.077	504.4
819.495	506
819.892	539.6
820.311	500
820.708	496.6
821.127	495.6
821.524	506.6
821.943	502.6
822.34	521
822.759	503.6
823.157	502
823.576	513.2
823.974	511.8
824.393	559
824.791	503.4
825.189	496.2
825.609	502.8
826.007	497
826.427	493.2
826.826	494.2
827.246	510.6
827.644	492.6
828.043	504
828.463	497.8
828.862	506.8
829.261	502.6
829.682	498
830.081	510
830.502	495.2
830.901	498
831.301	498.6
831.722	493
832.121	506.2
832.521	501
832.943	498
833.342	501.2
833.742	493.8
834.164	494
834.564	491.2
834.965	498.4
835.386	497.4
835.787	496.4
836.188	502.6
836.588	505.2
837.01	498.6
837.411	499.4
837.812	505.4
838.213	501.2
838.636	494.4
839.037	559.8
839.438	505.4
839.84	509
840.263	509
840.664	509.4
841.066	504.2
841.468	508.2
841.891	495.4
842.293	516.8
842.695	509.8
843.098	514
843.5	500.6
843.902	507.6
844.326	504
844.729	500.8
845.131	508.2
845.534	504.4
845.937	509.2
846.34	509.6
846.764	494
847.167	499.4
847.571	497.6
847.974	498.2
848.377	496.4
848.781	537
849.184	512.8
849.588	502.2
849.992	495.2
850.396	494.8
850.821	511.8
851.225	502
851.63	498.4
