#lambda/nm	C1
208.295	468.8
208.67	434.4
209.045	397.6
209.419	399
209.794	532.6
210.169	527.6
210.544	632.6
210.919	539.8
211.295	524.6
211.67	537.4
212.045	522.6
212.421	534.2
212.796	561.4
213.172	532.8
213.547	528
213.923	528.2
214.299	536.2
214.675	543
215.051	542.2
215.427	539.2
215.803	551.4
216.179	545.6
216.555	532.6
216.932	545.2
217.308	535.6
217.684	545
218.061	549.2
218.438	546
218.814	533.2
219.191	544.8
219.568	526.2
219.945	533.8
220.322	548.6
220.699	542.4
221.076	538.6
221.453	535.2
221.83	523.8
222.208	538
222.585	532
222.962	533
223.34	544.2
223.717	532.8
224.095	531
224.473	538
224.851	527.4
225.229	524.4
225.607	549
225.985	527.6
226.363	544
226.741	533.8
227.119	539.8
227.497	548.4
227.876	527.6
228.254	545
228.633	541.2
229.011	537.4
229.39	541.8
229.769	533
230.148	539.6
230.527	556.8
230.905	538
231.284	542.2
231.664	528.8
232.043	547.8
232.422	547
232.801	532.4
233.181	537.2
233.56	537
233.94	533.2
234.319	532.4
234.699	529
235.079	570
235.458	576.8
235.838	554.8
236.218	528
236.598	530.6
236.978	534
237.358	535
237.738	531.8
238.119	544.4
238.499	524
238.88	537.6
239.26	553.8
239.641	524.6
240.021	535
240.402	539
240.783	531.4
241.163	538.2
241.544	533.8
241.925	538
242.306	555
242.687	531
243.069	542.8
243.45	547.4
243.831	538.2
244.212	541.2
244.594	573.2
244.975	547.2
245.357	535
245.739	537.6
246.12	544.2
246.502	544.2
246.884	538.8
247.266	539
247.648	541.6
248.03	548.2
248.412	540.6
248.794	541.4
249.176	529.8
249.559	541.6
249.941	539.4
250.323	533.8
250.706	535.4
251.089	541.8
251.471	546.6
251.854	542
252.237	537.8
252.62	548.2
253.002	540.6
253.385	534.8
253.769	543.6
254.152	539.8
254.535	544.6
254.918	540.4
255.301	530
255.685	536.2
256.068	535.8
256.452	555.4
256.835	544.4
257.219	547
257.603	546.4
257.986	530.6
258.37	541.2
258.754	533.8
259.138	551.8
259.522	550
259.906	537.2
260.29	535.8
260.675	533.4
261.059	536.8
261.443	531.4
261.828	543.4
262.212	533
262.597	524
262.981	536.6
263.366	532.4
263.751	529.6
264.136	529.6
264.521	535.4
264.906	524.8
265.291	542.6
265.676	539.2
266.061	545.8
266.446	549.8
266.831	539.6
267.217	557.8
267.602	541
267.987	540.4
268.373	537.8
268.759	551
269.144	547.8
269.53	537.6
269.916	536.8
270.302	526
270.688	535.6
271.074	536.2
271.46	552.6
271.846	564.8
272.232	539.8
272.618	539.6
273.004	535.6
273.391	543.4
273.777	543.2
274.164	537.4
274.55	553.2
274.937	540
275.324	537.2
275.71	547.8
276.097	546.4
276.484	532.2
276.871	538
277.258	541.8
277.645	531.8
278.032	531.2
278.419	536.6
278.807	539.4
279.194	535.6
279.581	531.6
279.969	543
280.356	545
280.744	534.2
281.131	556.8
281.519	548.4
281.907	530.8
282.295	540.8
282.682	548.8
283.07	539.4
283.458	546.4
283.846	551.8
284.235	549.6
284.623	543.8
285.011	535.4
285.399	536.4
285.788	537
286.176	527.2
286.565	549
286.953	542.6
287.342	533.8
287.731	525.2
288.119	532.8
288.508	538.8
288.897	544.2
289.286	526.6
289.675	538
290.064	547.2
290.453	531
290.821	536.8
291.21	551.8
291.599	525.2
291.989	540.6
292.378	541.4
292.768	548.4
293.157	540.2
293.547	547
293.936	529
294.326	530.6
294.716	543.4
295.106	533.8
295.496	542.2
295.886	546.2
296.276	533.6
296.666	535.6
297.056	529
297.446	522.6
297.836	544
298.227	534.2
298.617	543
299.008	545.6
299.398	533.6
299.789	534
300.179	537.6
300.57	551.6
300.961	542.4
301.352	539.2
301.742	541.6
302.133	539.2
302.524	536.2
302.915	542.2
303.307	526.6
303.698	545.4
304.089	549
304.48	539.2
304.872	545.8
305.263	543.8
305.655	533.6
306.046	534.4
306.438	547.2
306.829	529.8
307.221	557
307.613	541.6
308.005	539.2
308.397	544.2
308.789	552.6
309.181	556.4
309.573	551.4
309.965	547.6
310.357	537.6
310.749	547.8
311.142	534.2
311.534	529.6
311.926	547.8
312.319	544.8
312.711	538.6
313.104	547
313.497	537.2
313.889	572.8
314.282	555
314.675	551.2
315.068	541.6
315.461	541
315.854	561.2
316.247	547
316.64	542.4
317.033	541.4
317.405	541.8
317.798	532.2
318.192	544.6
318.585	532.2
318.979	548.4
319.372	529.6
319.766	533.2
320.16	544.6
320.553	557
320.947	558.4
321.341	536.4
321.735	537.8
322.129	527.8
322.523	555.6
322.917	534.8
323.311	546.8
323.705	545.4
324.099	542.6
324.494	546
324.888	543.2
325.282	529
325.677	546
326.071	547.6
326.466	550.8
326.861	541.2
327.255	546
327.65	548.4
328.045	550
328.44	535.8
328.835	537
329.23	532.2
329.625	553.4
330.02	527.4
330.415	546.4
330.81	537.4
331.206	539.4
331.601	537.4
331.996	547.2
332.37	555.4
332.766	527.2
333.161	547.6
333.557	538.4
333.953	534.8
334.348	801.4
334.744	545.6
335.14	532
335.536	533.2
335.932	553.8
336.328	538
336.724	542.2
337.12	531.8
337.516	537.4
337.913	539.4
338.309	547
338.705	538.6
339.102	543.4
339.498	528.4
339.895	550.8
340.291	534.4
340.688	548.4
341.085	534.4
341.481	538
341.878	525.6
342.275	554.8
342.672	527.8
343.069	530
343.466	520
343.842	544
344.239	532.4
344.636	543.6
345.033	531.4
345.431	523.6
345.828	532
346.225	530.4
346.623	563.6
347.02	535.8
347.418	533.6
347.816	552
348.213	525.6
348.611	540.6
349.009	527.2
349.407	541
349.805	526
350.203	525.4
350.601	548
350.999	535.2
351.397	567.8
351.795	532.6
352.193	541
352.57	539.4
352.969	544.2
353.367	528
353.766	535.8
354.164	540
354.563	534.8
354.961	528.8
355.36	533.8
355.759	533.8
356.158	527.6
356.557	525.4
356.956	531.4
357.355	523.2
357.754	543.2
358.153	537.8
358.552	554.4
358.951	529.6
359.35	545.8
359.75	525.4
360.149	523
360.527	536
360.926	522.4
361.326	537
361.726	528.6
362.125	524.2
362.525	537
362.925	530.2
363.325	539
363.724	531.6
364.124	534.2
364.524	528
364.924	526.4
365.324	541.8
365.725	522.6
366.125	531.2
366.525	528
366.904	528
367.304	519.6
367.705	540
368.105	542.8
368.506	530.8
368.906	533.4
369.307	531.8
369.708	537.6
370.108	521.6
370.509	537.2
370.91	529.4
371.311	536.4
371.712	539.8
372.113	527.2
372.514	522
372.894	527.2
373.295	524.6
373.696	540.2
374.097	532.8
374.499	555.4
374.9	530.2
375.301	526.4
375.703	533.8
376.105	526
376.506	536.8
376.908	524
377.309	532.6
377.711	524.6
378.113	529.2
378.493	533.6
378.895	523
379.297	543.4
379.699	514.4
380.102	529.8
380.504	525
380.906	522.8
381.308	550.4
381.71	526
382.113	537.6
382.515	529.6
382.918	536.6
383.299	532
383.701	533
384.104	535.2
384.507	508.8
384.909	529.2
385.312	516.6
385.715	526.8
386.118	534.6
386.521	518.6
386.924	534
387.327	521
387.709	519.8
388.112	514.4
388.515	527.4
388.918	520.4
389.322	532.8
389.725	520.8
390.129	548.4
390.532	530.2
390.936	529.6
391.339	518
391.743	537.4
392.125	523
392.529	537.2
392.933	545.6
393.337	531.6
393.74	534
394.144	528.8
394.548	523.2
394.953	530.6
395.357	536.4
395.761	533.6
396.144	530.4
396.548	522.6
396.952	532.6
397.357	530.4
397.761	525.8
398.166	525
398.57	518.6
398.975	523.8
399.379	531.6
399.763	575.8
400.168	524.8
400.572	527.8
400.977	524.2
401.382	540.2
401.787	539.8
402.192	541.8
402.597	544.8
403.002	516
403.386	535.4
403.791	542.4
404.197	516.6
404.602	528.2
405.007	519
405.413	524.2
405.818	529.6
406.224	524.4
406.608	521.8
407.014	522.8
407.42	551
407.825	521.6
408.231	531.8
408.637	528.2
409.043	540.2
409.449	523.6
409.834	518.4
410.24	531.8
410.646	540.8
411.052	537.6
411.458	528
411.865	542.8
412.271	534.6
412.677	529.2
413.062	530.4
413.469	527.8
413.875	556.2
414.282	540.2
414.689	536
415.095	541.6
415.502	524
415.888	535
416.294	522.6
416.701	567
417.108	527
417.515	539
417.923	522.4
418.33	543
418.715	536
419.123	529
419.53	528.6
419.937	536.2
420.345	533.2
420.752	524.4
421.16	539.6
421.546	531.4
421.953	533.2
422.361	516.6
422.769	530.8
423.177	525.8
423.585	551
423.992	550
424.379	538.2
424.787	539.4
425.195	534.8
425.603	527
426.011	538.4
426.419	540.6
426.806	533.4
427.214	540.6
427.623	542.2
428.031	544
428.44	549.2
428.848	551.8
429.235	561.8
429.644	554.6
430.053	562.2
430.461	584.6
430.87	595.8
431.279	592.8
431.666	593.6
432.075	601.4
432.484	615.6
432.893	626.2
433.302	651.8
433.711	698
434.099	679.6
434.508	690.6
434.918	693.6
435.327	726.8
435.737	735.2
436.125	763.2
436.534	786.2
436.944	808.6
437.353	835
437.763	856.4
438.173	843.2
438.561	876
438.971	880.4
439.381	911.2
439.791	923.4
440.201	940
440.589	961.4
440.999	981.2
441.409	993.2
441.819	995.6
442.23	1021
442.619	1035
443.029	1042
443.439	1050.8
443.85	1075.2
444.26	1085.2
444.649	1077.8
445.06	1099.6
445.471	1099.4
445.881	1109.8
446.292	1137.8
446.682	1124.2
447.092	1117.2
447.503	1170.4
447.914	1151.6
448.325	1148
448.715	1141.2
449.126	1142
449.537	1153.4
449.948	1154
450.338	1172.6
450.75	1187.8
451.161	1181.2
451.572	1194.6
451.984	1175.4
452.374	1183.8
452.786	1188.2
453.197	1196.2
453.609	1206.6
453.999	1187.4
454.411	1200.4
454.823	1210.8
455.235	1220.2
455.647	1203
456.037	1221.4
456.449	1203.8
456.862	1218.4
457.274	1214.2
457.665	1213.4
458.077	1226.6
458.489	1239.4
458.902	1225
459.293	1213
459.705	1216.2
460.118	1214.2
460.53	1232
460.921	1229.8
461.334	1235.8
461.747	1233.8
462.16	1246.2
462.551	1249
462.964	1237.2
463.377	1208.4
463.79	1219
464.182	1255.6
464.595	1226.2
465.008	1233.8
465.421	1237
465.813	1207.2
466.226	1219.8
466.64	1222
467.053	1264.2
467.445	1242
467.859	1234.8
468.272	1239.8
468.686	1241.8
469.078	1233.6
469.492	1220.2
469.906	1226.4
470.298	1238.8
470.712	1223.6
471.126	1249
471.54	1208.4
471.933	1214.2
472.347	1218.8
472.761	1221.6
473.175	1215.4
473.568	1214.6
473.982	1187.8
474.397	1220.6
474.79	1212.6
475.204	1213.8
475.619	1196.6
476.033	1179
476.426	1181.2
476.841	1181
477.256	1206.8
477.649	1167.4
478.064	1176.8
478.479	1164.4
478.872	1172.2
479.287	1162.2
479.702	1160.2
480.118	1162.4
480.511	1179.8
480.927	1150.4
481.342	1154.2
481.736	1148.8
482.151	1134
482.566	1157
482.96	1135.6
483.376	1134.8
483.792	1121
484.186	1133.2
484.602	1114.8
485.017	1121.4
485.412	1105.4
485.827	1122.4
486.243	1104
486.638	1123.2
487.054	1110.6
487.47	1102.6
487.865	1096.6
488.281	1091.6
488.697	1078.2
489.092	1088.4
489.508	1068.2
489.925	1089.6
490.32	1067.2
490.736	1055
491.153	1064.8
491.548	1060
491.964	1048.2
492.381	1036
492.776	1044
493.193	1035.4
493.61	1042
494.006	1034.4
494.422	1021.6
494.84	1015.4
495.235	1031.8
495.652	1006.4
496.069	1017.6
496.465	1004.2
496.883	1007.8
497.3	1020
497.696	1001.2
498.113	1003.2
498.509	989.4
498.927	972.6
499.344	971.2
499.741	974.2
500.158	975
500.576	973
500.973	956.4
501.39	947.6
501.787	948.4
502.205	946.4
502.623	936.8
503.02	927.6
503.438	931.8
503.856	926
504.253	923.4
504.671	914.6
505.068	906.6
505.486	919.6
505.905	915.8
506.302	915.6
506.72	908.8
507.118	885.2
507.536	896.6
507.955	880.4
508.352	899.4
508.771	893
509.169	890.4
509.587	864.8
510.006	880.8
510.404	862.2
510.823	863.2
511.221	873.6
511.64	862.2
512.038	866.6
512.457	857.8
512.877	858.8
513.275	838
513.694	836
514.092	833.4
514.512	840.8
514.91	824
515.33	821.8
515.749	815
516.148	824
516.568	816.8
516.966	817.2
517.386	805.8
517.785	810.2
518.205	794.2
518.603	794.6
519.024	795.4
519.444	792.6
519.843	800.2
520.263	797.2
520.662	793
521.082	772.6
521.481	777.2
521.902	781
522.301	780.4
522.722	771.8
523.121	768.6
523.542	762
523.963	742.6
524.362	766.6
524.783	761.4
525.183	758
525.604	749
526.003	747
526.425	739.4
526.824	748.8
527.246	750
527.646	745.4
528.067	732.8
528.467	730.8
528.888	735
529.289	729.6
529.71	725.2
530.11	707.4
530.532	710.6
530.932	710.8
531.354	706
531.755	746.4
532.176	716.6
532.577	707.2
532.999	718
533.4	700.2
533.822	708.8
534.223	699.4
534.645	700.8
535.046	704
535.468	699
535.869	708.6
536.292	700
536.693	725.8
537.115	689
537.516	691
537.939	682.6
538.34	701
538.742	689.4
539.165	683
539.566	679.4
539.989	680.2
540.391	670.4
540.814	680.4
541.216	681.2
541.639	663.6
542.041	670.8
542.464	674
542.866	663.8
543.268	670
543.691	665.8
544.093	671.8
544.517	669.2
544.919	649.8
545.343	673.2
545.745	639.8
546.147	658.6
546.571	648.8
546.974	646
547.398	647.8
547.8	664.6
548.224	636
548.627	633.6
549.03	642.4
549.454	631.4
549.857	623.4
550.281	632.6
550.684	632.4
551.087	636.4
551.512	633.2
551.915	630.2
552.34	635
552.743	617.4
553.146	621
553.571	621
553.975	640
554.399	619.6
554.803	661
555.207	619.2
555.632	614.8
556.036	621
556.461	606
556.865	615.2
557.268	610.2
557.694	611.2
558.098	623.2
558.502	616.2
558.927	605.8
559.332	606.4
559.736	605
560.162	607.2
560.566	602.4
560.992	612.2
561.396	599.8
561.801	592.6
562.227	614.2
562.631	596.4
563.036	605.4
563.462	606.6
563.867	601.6
564.272	579.2
564.698	596.4
565.103	581.6
565.508	605.6
565.935	588.4
566.34	591.6
566.745	605.4
567.172	591.2
567.577	606
567.982	596.6
568.409	593
568.815	579.2
569.22	586.2
569.626	590.2
570.053	571.8
570.459	580.6
570.865	581.8
571.292	579
571.698	585.8
572.104	569.4
572.531	573
572.937	579.4
573.343	582.6
573.75	569.4
574.177	568.4
574.583	579.6
574.99	575.6
575.396	573
575.824	569
576.231	579.8
576.637	558.8
577.065	593.2
577.472	567.6
577.879	567
578.286	580
578.714	564
579.121	563.8
579.528	562.8
579.935	573.4
580.364	564
580.771	550.8
581.178	554.8
581.585	558.6
582.014	563.6
582.421	559.4
582.829	552.6
583.236	569
583.644	546
584.073	554.4
584.481	560.6
584.889	554
585.296	567.2
585.726	556.4
586.134	543.2
586.542	554.6
586.95	563.6
587.358	541.4
587.787	560
588.196	534.6
588.604	547.8
589.012	552.8
589.421	546.4
589.851	549.4
590.259	553.6
590.668	543.4
591.076	580.2
591.485	543.4
591.894	543.6
592.324	560
592.733	553.4
593.142	532
593.551	541.8
593.96	578.8
594.369	536.6
594.8	535.6
595.209	553
595.618	534.2
596.028	540
596.437	532.8
596.847	536.4
597.256	541.2
597.687	546.8
598.097	531.8
598.507	529.2
598.917	538.6
599.327	542.2
599.736	533.6
600.146	538
600.556	539.4
600.988	553.6
601.398	527
601.808	544.8
602.219	525.4
602.629	539.6
603.039	538
603.45	562.6
603.86	532.8
604.271	540
604.703	540
605.114	537.4
605.525	530.8
605.935	547.2
606.346	559.2
606.757	545.4
607.168	527.4
607.579	523
607.99	546.6
608.402	528.6
608.813	529.8
609.224	533.2
609.636	527.6
610.047	523.4
610.48	531.6
610.892	537
611.303	531.6
611.715	534
612.127	516.2
612.539	539.8
612.95	534.2
613.362	530
613.774	526.2
614.186	523.6
614.599	523
615.011	540.4
615.423	533.2
615.835	531.8
616.248	519.2
616.66	530
617.073	524.4
617.485	524.6
617.898	530.8
618.311	526.4
618.723	525.4
619.136	553.2
619.549	533.8
619.962	548.2
620.375	525.4
620.788	531
621.201	525
621.614	536.2
622.028	536
622.441	541.4
622.854	537.6
623.268	529.4
623.681	539.4
624.095	528.8
624.509	537.2
624.922	536.4
625.336	525.6
625.728	532.2
626.142	544.4
626.556	554.4
626.97	532.8
627.384	533.6
627.799	536
628.213	540.4
628.627	530
629.041	532.2
629.456	535.8
629.87	536.4
630.285	543.8
630.699	541.8
631.093	527.2
631.507	532.8
631.922	537.6
632.337	545.2
632.752	519.6
633.167	541.2
633.582	534.4
633.997	532.4
634.412	534.8
634.806	528.8
635.221	535.2
635.637	538
636.052	521
636.468	530.6
636.883	549.6
637.299	531.8
637.715	516.8
638.109	534.6
638.525	522.2
638.941	542.2
639.357	534.2
639.773	549
640.189	523
640.584	519.6
641	527.4
641.416	520.2
641.832	532.2
642.249	528.4
642.665	532
643.06	525.6
643.477	534.6
643.894	515.8
644.31	524.4
644.727	528.6
645.123	522.6
645.54	515.6
645.957	519.8
646.374	541.8
646.77	520.8
647.187	537.2
647.604	516.8
648.021	507
648.439	518
648.835	524.4
649.252	521.4
649.67	522.6
650.088	507.2
650.484	519
650.902	524.8
651.32	529.2
651.738	522
652.134	524
652.552	541.4
652.971	524
653.389	525
653.786	531
654.204	527.8
654.622	514
655.019	522
655.438	525.8
655.857	525.8
656.275	521.4
656.673	514.4
657.091	517.4
657.51	515.8
657.908	521.4
658.327	534.8
658.746	514.6
659.144	514.2
659.563	529.4
659.982	516.6
660.38	506.4
660.8	519.4
661.219	523.6
661.617	515.2
662.037	518.8
662.457	527.2
662.855	508.6
663.275	547
663.695	521.6
664.094	516.2
664.514	520.4
664.934	510.2
665.333	523.4
665.753	504.4
666.152	505.2
666.572	510.4
666.993	519.6
667.392	512.6
667.812	510.4
668.212	503.2
668.632	520
669.053	516.6
669.453	514.8
669.874	523.6
670.273	518.8
670.694	505.6
671.116	525.6
671.515	527
671.937	506.4
672.337	508.8
672.758	514.6
673.158	520
673.58	517.8
673.98	516.2
674.402	527.8
674.824	511
675.224	502.6
675.646	505.8
676.047	509.8
676.469	508.8
676.869	508.2
677.292	516.2
677.693	497.4
678.115	517.2
678.516	515.8
678.939	510
679.34	514.4
679.762	519.6
680.164	513
680.586	494
680.988	510.2
681.411	531.2
681.812	508.8
682.236	504.6
682.637	499
683.061	503.6
683.462	509
683.864	511.8
684.288	516.8
684.69	499.6
685.114	517
685.516	516.2
685.94	497.2
686.342	516.4
686.766	503.2
687.168	508.8
687.571	521.2
687.995	521.6
688.398	499.4
688.822	505
689.225	524.2
689.628	520.6
690.052	514.8
690.456	507.6
690.88	513.4
691.284	504.8
691.687	522.2
692.112	500.4
692.515	503.6
692.919	507
693.344	510.2
693.747	506.4
694.173	505
694.577	509.8
694.98	502.4
695.406	503.6
695.81	509
696.214	512.2
696.64	507
697.044	508.8
697.448	511.2
697.874	504
698.279	502.2
698.684	500
699.11	499.6
699.514	509.8
699.919	506.6
700.324	502.4
700.75	500.8
701.156	511.6
701.561	522.6
701.987	508.8
702.393	519.8
702.798	512.8
703.203	507.8
703.63	508
704.036	500.4
704.442	508.8
704.847	492.4
705.274	509.6
705.68	511.4
706.086	517.6
706.492	501.4
706.92	502.6
707.326	512.2
707.732	505.8
708.139	495
708.545	501.8
708.973	503
709.38	511.8
709.786	497.2
710.193	518.4
710.6	507.2
711.028	504.2
711.435	504.2
711.842	505
712.249	498.6
712.656	505
713.064	504
713.492	495
713.9	495.2
714.307	502.4
714.715	504.6
715.123	504.8
715.53	497
715.938	502.6
716.367	507.2
716.775	497.4
717.184	502.6
717.592	500.8
718	517
718.408	538.6
718.816	539.6
719.225	507.4
719.633	505.4
720.042	504.2
720.472	506.6
720.881	516.6
721.29	506.8
721.699	503.4
722.108	521
722.517	503.6
722.926	505
723.335	509.4
723.744	508.4
724.154	503.4
724.563	508.4
724.973	503.8
725.382	503.6
725.792	504.6
726.202	503
726.612	512.4
727.022	505.6
727.432	500.4
779.813	507.2
780.223	549.2
780.634	502
781.044	504.4
781.454	508
781.865	519.6
782.276	499
782.686	515.4
783.097	505.6
783.508	503
783.919	508.6
784.33	522.2
784.741	518.2
785.152	509.8
785.563	497.2
785.974	499
786.386	519.6
786.776	502.6
787.188	502.4
787.599	497.8
788.011	519.2
788.423	515.6
788.835	507.4
789.247	496.4
789.659	498
790.071	504.2
790.483	537
790.874	499.4
791.286	518
791.699	500.2
792.111	506
792.524	500.8
792.937	504.2
793.349	498
793.741	496
794.154	506
794.567	514.6
794.98	500.2
795.393	489.4
795.785	515.6
796.198	498.6
796.612	504.4
797.026	497.6
797.439	487.2
797.831	496.8
798.245	498
798.659	498.6
799.073	494.8
799.487	493
799.88	506
800.294	504.4
800.708	513.2
801.123	505
801.516	519.6
801.93	488.6
802.345	498.6
802.76	507.4
803.153	515.2
803.568	515.8
803.983	510.4
804.377	509.4
804.792	487
805.207	488.6
805.601	501.2
806.016	528.4
806.432	498.4
806.826	531.6
807.242	513
807.658	504
808.052	501.4
808.468	497.2
808.884	505.2
809.279	509.2
809.695	517.8
810.111	521.4
810.506	507
810.922	512.6
811.339	507.8
811.734	505
812.151	508.2
812.546	493.6
812.963	504.6
813.38	504.4
813.776	505.6
814.193	522.4
814.589	495.6
815.006	501.8
815.402	494.8
815.82	493.6
816.237	507.6
816.633	505.6
817.051	490.8
817.448	496.2
817.866	487.6
818.262	516
818.68	496.4
819.077	503.8
819.495	500.2
819.892	534.8
820.311	492.4
820.708	502.8
821.127	499
821.524	512.8
821.943	510.4
822.34	521.6
822.759	495.6
823.157	500
823.576	517
823.974	514.6
824.393	589.2
824.791	499.4
825.189	503.2
825.609	504.8
826.007	504.2
826.427	490.4
826.826	497.8
827.246	502.4
827.644	493.2
828.043	506.4
828.463	492
828.862	504.4
829.261	503.2
829.682	489.6
830.081	501
830.502	492.4
830.901	506
831.301	496
831.722	494.6
832.121	493.8
832.521	498
832.943	499.6
833.342	501.2
833.742	498.2
834.164	498
834.564	505.4
834.965	496.2
835.386	496.2
835.787	504.8
836.188	502
836.588	502.2
837.01	498.6
837.411	492.2
837.812	504.6
838.213	499.8
838.636	497.8
839.037	557
839.438	493
839.84	502
840.263	503.2
840.664	498.6
841.066	499.6
841.468	502.6
841.891	499.8
842.293	506.2
842.695	499.8
843.098	515.2
843.5	498
843.902	499.2
844.326	508.4
844.729	503.6
845.131	505.8
845.534	504
845.937	514.2
846.34	513
846.764	497.4
847.167	500.2
847.571	493.8
847.974	500.4
848.377	499.6
848.781	535
849.184	505.8
849.588	496
849.992	502
850.396	505.8
850.821	522.2
851.225	503.6
851.63	498.2
852.034	509.4
852.438	497.6
852.843	565.4
853.247	493.6
853.652	499.6
