#lambda/nm	C1
208.295	471.4
208.67	436.6
209.045	402.4
209.419	401
209.794	540.2
210.169	528.6
210.544	628
210.919	543.4
211.295	531.4
211.67	543.6
212.045	535.4
212.421	535.2
212.796	568
213.172	527.6
213.547	530.4
213.923	533.4
214.299	534.6
214.675	542.6
215.051	541.6
215.427	543.6
215.803	559.6
216.179	545.6
216.555	532
216.932	540.6
217.308	544
217.684	536.2
218.061	538.8
218.438	541.6
218.814	538.2
219.191	548.2
219.568	527.6
219.945	538.8
220.322	537.8
220.699	537.4
221.076	543
221.453	546
221.83	535.2
222.208	532
222.585	529.4
222.962	535.2
223.34	538.4
223.717	533.6
224.095	537.8
224.473	544
224.851	534.8
225.229	528.8
225.607	552.8
225.985	529.4
226.363	542.8
226.741	535.2
227.119	538.8
227.497	549
227.876	528.4
228.254	547.4
228.633	538.4
229.011	540.4
229.39	547.8
229.769	541.8
230.148	547.6
230.527	556
230.905	535
231.284	537
231.664	530
232.043	556.4
232.422	545.6
232.801	530.2
233.181	540.6
233.56	539.2
233.94	541.6
234.319	525.2
234.699	533
235.079	566.8
235.458	565.2
235.838	549.2
236.218	533.4
236.598	530
236.978	530.6
237.358	532.4
237.738	532.8
238.119	542.4
238.499	531.6
238.88	533.4
239.26	556.6
239.641	525.8
240.021	535.4
240.402	532.4
240.783	535.6
241.163	534.4
241.544	538
241.925	540.8
242.306	548.2
242.687	536.4
243.069	542
243.45	548.2
243.831	525.2
244.212	532.6
244.594	569.8
244.975	546.6
245.357	546.6
245.739	536.6
246.12	538.8
246.502	549
246.884	531
247.266	535
247.648	543
248.03	558.8
248.412	544
248.794	545.4
249.176	528.6
249.559	552.6
249.941	531.6
250.323	526
250.706	537
251.089	539.6
251.471	534.6
251.854	532.6
252.237	540.8
252.62	540
253.002	542.8
253.385	542.2
253.769	548.2
254.152	537.8
254.535	545.2
254.918	528.2
255.301	533
255.685	533
256.068	529.8
256.452	559.2
256.835	545
257.219	549.2
257.603	549
257.986	529.6
258.37	534
258.754	521.6
259.138	538.8
259.522	540
259.906	535.2
260.29	532.2
260.675	530.4
261.059	528.2
261.443	523.4
261.828	535
262.212	543.4
262.597	520.4
262.981	531.6
263.366	539.4
263.751	543.4
264.136	533.2
264.521	525.8
264.906	528.4
265.291	541.6
265.676	533.6
266.061	536.2
266.446	539.6
266.831	535
267.217	549.6
267.602	537.8
267.987	537.2
268.373	535.4
268.759	545
269.144	547
269.53	535.6
269.916	539.4
270.302	540
270.688	533.2
271.074	539
271.46	546.4
271.846	570
272.232	535
272.618	531.4
273.004	536.8
273.391	543.8
273.777	542
274.164	540.8
274.55	545.8
274.937	541
275.324	524.4
275.71	547
276.097	543.4
276.484	534.8
276.871	545.8
277.258	546.2
277.645	533.6
278.032	537.6
278.419	547.6
278.807	544.4
279.194	525
279.581	528.8
279.969	540.2
280.356	536
280.744	540.4
281.131	560.4
281.519	546
281.907	534.6
282.295	529.2
282.682	546.6
283.07	543
283.458	538.6
283.846	542.2
284.235	546.4
284.623	542
285.011	531.4
285.399	534.4
285.788	530
286.176	522.2
286.565	537.4
286.953	537.6
287.342	524.6
287.731	529
288.119	530.2
288.508	533.6
288.897	531
289.286	522.2
289.675	543.4
290.064	544.2
290.453	533.6
290.821	536.6
291.21	550.6
291.599	529.6
291.989	538.8
292.378	546
292.768	555
293.157	542.6
293.547	546.4
293.936	540.6
294.326	531.6
294.716	547.8
295.106	544.2
295.496	550.6
295.886	546.8
296.276	541.8
296.666	533.8
297.056	531.8
297.446	528.6
297.836	544
298.227	526.6
298.617	538.4
299.008	558.2
299.398	533.6
299.789	543.6
300.179	543.4
300.57	547.4
300.961	537
301.352	533.6
301.742	544.4
302.133	542.8
302.524	537.6
302.915	536.4
303.307	532.4
303.698	543.6
304.089	548.8
304.48	529.8
304.872	553.8
305.263	542.6
305.655	533.6
306.046	544.2
306.438	542.6
306.829	534.2
307.221	545.6
307.613	548.6
308.005	548.6
308.397	550.2
308.789	562.2
309.181	556
309.573	551.4
309.965	544.2
310.357	541.6
310.749	554
311.142	526.4
311.534	538.4
311.926	550.4
312.319	540.4
312.711	535.8
313.104	548
313.497	537.8
313.889	568.6
314.282	546.2
314.675	554.4
315.068	539.2
315.461	544.8
315.854	569.6
316.247	538.2
316.64	534.4
317.033	536.6
317.405	548.2
317.798	538.2
318.192	543.8
318.585	533.6
318.979	534.6
319.372	533.4
319.766	536.2
320.16	542.2
320.553	550.4
320.947	555
321.341	535
321.735	547.2
322.129	529.8
322.523	561.4
322.917	542.2
323.311	551.8
323.705	540.8
324.099	542.6
324.494	552.8
324.888	548.8
325.282	540.6
325.677	551.4
326.071	539.2
326.466	539.6
326.861	542.4
327.255	552
327.65	541.8
328.045	554.6
328.44	550.2
328.835	538.6
329.23	535.8
329.625	556
330.02	535.4
330.415	555.2
330.81	539.8
331.206	541
331.601	538.4
331.996	545.8
332.37	554.6
332.766	529.8
333.161	556.8
333.557	531.6
333.953	540.6
334.348	794.6
334.744	544.8
335.14	541.4
335.536	535.2
335.932	558
336.328	541.8
336.724	549.6
337.12	533.2
337.516	538.6
337.913	538.4
338.309	545.8
338.705	539.2
339.102	546.2
339.498	536.6
339.895	556.4
340.291	537.8
340.688	541.8
341.085	528.8
341.481	535.2
341.878	537.2
342.275	546.6
342.672	526.8
343.069	526.2
343.466	527.8
343.842	546.4
344.239	532.4
344.636	538.2
345.033	533.6
345.431	530.6
345.828	536.4
346.225	527.4
346.623	561.4
347.02	544.8
347.418	545.8
347.816	550.2
348.213	528.2
348.611	539.2
349.009	530
349.407	545.4
349.805	534.4
350.203	528.8
350.601	550
350.999	540
351.397	568.2
351.795	535.8
352.193	540.2
352.57	538
352.969	547.2
353.367	526.4
353.766	524.2
354.164	527.8
354.563	544.8
354.961	536.4
355.36	536.6
355.759	531.8
356.158	523.6
356.557	535
356.956	517.6
357.355	524.2
357.754	539
358.153	527
358.552	543.8
358.951	519.8
359.35	536.8
359.75	523.4
360.149	530.2
360.527	514.6
360.926	518.6
361.326	530.6
361.726	532.6
362.125	522.6
362.525	541
362.925	531.2
363.325	533.6
363.724	535.6
364.124	529.6
364.524	527.4
364.924	530
365.324	539.4
365.725	522.2
366.125	536.6
366.525	538.8
366.904	521
367.304	517.4
367.705	545.6
368.105	546.6
368.506	528.2
368.906	537
369.307	533.8
369.708	534
370.108	529.8
370.509	536.8
370.91	525.4
371.311	531.2
371.712	532
372.113	532.2
372.514	525.4
372.894	532.4
373.295	525.2
373.696	540.8
374.097	541.6
374.499	554.2
374.9	526.6
375.301	532.2
375.703	525.8
376.105	529.8
376.506	538.2
376.908	535.6
377.309	530
377.711	539.8
378.113	528
378.493	531
378.895	538.8
379.297	541
379.699	517
380.102	539.2
380.504	533.2
380.906	526.2
381.308	544.6
381.71	526.2
382.113	533.6
382.515	528.2
382.918	518.2
383.299	512.6
383.701	530.4
384.104	524.2
384.507	509.6
384.909	526
385.312	512.8
385.715	523.8
386.118	524.2
386.521	518
386.924	535.8
387.327	518.6
387.709	520
388.112	512.8
388.515	532.8
388.918	523.8
389.322	535.6
389.725	529.4
390.129	542.8
390.532	534
390.936	527.2
391.339	519
391.743	534.6
392.125	527.4
392.529	538.2
392.933	543.6
393.337	526.4
393.74	526
394.144	532.4
394.548	527.6
394.953	531.4
395.357	539.4
395.761	528.4
396.144	529.2
396.548	525.2
396.952	527.4
397.357	534.8
397.761	526.2
398.166	532.8
398.57	528.4
398.975	525
399.379	531.8
399.763	568.8
400.168	531.4
400.572	529.6
400.977	528.6
401.382	548
401.787	534.6
402.192	545.8
402.597	544
403.002	526.2
403.386	537.6
403.791	542
404.197	529.6
404.602	528.4
405.007	526
405.413	524.4
405.818	536.2
406.224	523.6
406.608	527.2
407.014	527.8
407.42	543.2
407.825	527.2
408.231	542.6
408.637	524.6
409.043	540.2
409.449	524.2
409.834	518.6
410.24	531
410.646	543.2
411.052	533.2
411.458	537.2
411.865	538
412.271	541.6
412.677	528
413.062	533.4
413.469	518.8
413.875	547.6
414.282	537.6
414.689	532
415.095	538.4
415.502	524.6
415.888	538.8
416.294	514.6
416.701	566.6
417.108	526.8
417.515	541.8
417.923	530.8
418.33	550.2
418.715	533
419.123	527.6
419.53	521.4
419.937	529.2
420.345	544.6
420.752	528.2
421.16	539.6
421.546	535.2
421.953	545.2
422.361	530
422.769	533.2
423.177	527
423.585	554
423.992	547
424.379	538.4
424.787	541
425.195	545
425.603	539
426.011	544.6
426.419	551.4
426.806	537.8
427.214	541.6
427.623	549
428.031	554.6
428.44	545.4
428.848	564.8
429.235	571.4
429.644	565.8
430.053	575.4
430.461	602
430.87	614.8
431.279	615.4
431.666	611.8
432.075	636.8
432.484	655.6
432.893	671.4
433.302	703.8
433.711	740.8
434.099	730
434.508	748.8
434.918	763.8
435.327	804.2
435.737	823.2
436.125	843.4
436.534	859
436.944	889.2
437.353	919
437.763	946.6
438.173	948.6
438.561	984.8
438.971	997.4
439.381	1023.4
439.791	1060
440.201	1049.4
440.589	1107.4
440.999	1118.6
441.409	1136.2
441.819	1154.8
442.23	1179.2
442.619	1184.2
443.029	1209
443.439	1208.2
443.85	1231.2
444.26	1246.8
444.649	1258.2
445.06	1264.4
445.471	1268
445.881	1286.6
446.292	1305
446.682	1311.8
447.092	1292.2
447.503	1359
447.914	1332.6
448.325	1322.8
448.715	1336.4
449.126	1337
449.537	1333.6
449.948	1336
450.338	1338.6
450.75	1353.2
451.161	1363
451.572	1359.4
451.984	1369
452.374	1360
452.786	1394.8
453.197	1385
453.609	1410.6
453.999	1395.4
454.411	1359.8
454.823	1405
455.235	1399.6
455.647	1387
456.037	1401
456.449	1396.8
456.862	1410.2
457.274	1411
457.665	1406.4
458.077	1409.4
458.489	1431.8
458.902	1419.6
459.293	1411.2
459.705	1404.8
460.118	1408.6
460.53	1405.8
460.921	1436.2
461.334	1435
461.747	1422
462.16	1451.8
462.551	1433.8
462.964	1422
463.377	1408.6
463.79	1430.4
464.182	1432.8
464.595	1427.6
465.008	1422.8
465.421	1425
465.813	1410
466.226	1415.8
466.64	1415
467.053	1461.8
467.445	1433.2
467.859	1432.4
468.272	1423.4
468.686	1437
469.078	1432
469.492	1415.2
469.906	1418.6
470.298	1417.6
470.712	1417.8
471.126	1434.8
471.54	1408
471.933	1403.2
472.347	1420.2
472.761	1418.2
473.175	1412.4
473.568	1414.4
473.982	1402.6
474.397	1397.2
474.79	1400
475.204	1405.8
475.619	1385.2
476.033	1375
476.426	1381.4
476.841	1375
477.256	1385.6
477.649	1336
478.064	1343.2
478.479	1333.4
478.872	1343
479.287	1324
479.702	1332
480.118	1333.6
480.511	1328.8
480.927	1326
481.342	1323.2
481.736	1319.6
482.151	1292.6
482.566	1308.6
482.96	1305.4
483.376	1305.4
483.792	1294.8
484.186	1312.8
484.602	1292
485.017	1276.6
485.412	1277.2
485.827	1271.4
486.243	1281.4
486.638	1292.8
487.054	1260.8
487.47	1265.4
487.865	1261
488.281	1250.6
488.697	1218.6
489.092	1233
489.508	1210.4
489.925	1239.8
490.32	1205
490.736	1217.4
491.153	1202.8
491.548	1210.8
491.964	1213.2
492.381	1172
492.776	1188
493.193	1187.6
493.61	1181
494.006	1180.4
494.422	1174.6
494.84	1149.2
495.235	1172.2
495.652	1157.6
496.069	1158
496.465	1142
496.883	1123.6
497.3	1152.8
497.696	1115.8
498.113	1117.4
498.509	1104.6
498.927	1084
499.344	1100.4
499.741	1098.2
500.158	1095
500.576	1091.8
500.973	1087.8
501.39	1067.4
501.787	1060.8
502.205	1059.2
502.623	1055.8
503.02	1041
503.438	1043.6
503.856	1050
504.253	1051.2
504.671	1036.2
505.068	1025.4
505.486	1020.4
505.905	1042.6
506.302	1009.4
506.72	1016
507.118	993.6
507.536	994.4
507.955	984
508.352	984.8
508.771	997.2
509.169	974.8
509.587	969.2
510.006	957.2
510.404	956.4
510.823	959.4
511.221	948.8
511.64	949.6
512.038	947.4
512.457	948.8
512.877	934.2
513.275	922.8
513.694	930.4
514.092	922.8
514.512	918.4
514.91	931.6
515.33	913.4
515.749	900.6
516.148	901.4
516.568	889.8
516.966	883.6
517.386	887.4
517.785	873.4
518.205	876.2
518.603	873.6
519.024	862
519.444	873.6
519.843	870.6
520.263	873.8
520.662	864.8
521.082	858.2
521.481	845.8
521.902	846
522.301	858.2
522.722	849.4
523.121	829.8
523.542	834.2
523.963	829.6
524.362	818.8
524.783	823.8
525.183	817.6
525.604	812.2
526.003	813.2
526.425	803.4
526.824	810.2
527.246	804.6
527.646	796.6
528.067	804.4
528.467	782
528.888	788
529.289	782.6
529.71	783.2
530.11	759.6
530.532	771.8
530.932	763
531.354	761.2
531.755	794.4
532.176	768.2
532.577	757.4
532.999	760.6
533.4	754.6
533.822	753
534.223	751.8
534.645	740.4
535.046	747.4
535.468	737.6
535.869	758
536.292	735.2
536.693	761.2
537.115	739.4
537.516	731.2
537.939	730
538.34	744.6
538.742	736.4
539.165	726.6
539.566	710.8
539.989	711
540.391	717.8
540.814	723
541.216	723
541.639	714.2
542.041	720.8
542.464	717.4
542.866	700.2
543.268	698.8
543.691	699.8
544.093	708.2
544.517	712.4
544.919	687.6
545.343	725
545.745	688.2
546.147	694.2
546.571	683.6
546.974	674.8
547.398	689.4
547.8	687
548.224	670.6
548.627	673.4
549.03	683
549.454	670.8
549.857	665
550.281	669
550.684	668.6
551.087	669.8
551.512	654.2
551.915	661.4
552.34	654.2
552.743	644.4
553.146	648.4
553.571	648
553.975	657.8
554.399	643.6
554.803	685.6
555.207	647
555.632	629
556.036	640.8
556.461	634.4
556.865	644.2
557.268	644.8
557.694	643.2
558.098	652.6
558.502	638.4
558.927	627.8
559.332	624.4
559.736	630
560.162	631.8
560.566	632
560.992	628.4
561.396	627.8
561.801	620
562.227	616.6
562.631	620
563.036	610
563.462	622.2
563.867	621
564.272	612
564.698	623.8
565.103	609
565.508	629.8
565.935	614.6
566.34	612
566.745	622.6
567.172	606.2
567.577	623.4
567.982	610.6
568.409	607.2
568.815	599.6
569.22	610.8
569.626	616.4
570.053	584.6
570.459	595.4
570.865	609.2
571.292	598.8
571.698	597.2
572.104	581.4
572.531	582.2
572.937	597.6
573.343	591.6
573.75	585
574.177	590.2
574.583	592
574.99	579.8
575.396	584.4
575.824	575.4
576.231	580.6
576.637	578.4
577.065	593.8
577.472	585.8
577.879	578.2
578.286	596.8
578.714	570.6
579.121	576.2
579.528	584.6
579.935	585.4
580.364	569.6
580.771	568.6
581.178	565
581.585	567.4
582.014	572.6
582.421	568
582.829	566.6
583.236	581
583.644	561.6
584.073	567.4
584.481	564.8
584.889	562.8
585.296	570
585.726	566
586.134	562.2
586.542	555.8
586.95	581.8
587.358	561.6
587.787	570.6
588.196	554
588.604	568.6
589.012	563.2
589.421	554.4
589.851	554.8
590.259	568.4
590.668	558
591.076	585.8
591.485	551.4
591.894	554.6
592.324	561.6
592.733	567.2
593.142	550.8
593.551	551.4
593.96	559
594.369	545.2
594.8	550.2
595.209	547
595.618	535.6
596.028	544.8
596.437	543.4
596.847	542.6
597.256	549.4
597.687	547.8
598.097	552.8
598.507	542
598.917	545.8
599.327	539.6
599.736	550.8
600.146	553.4
600.556	542.4
600.988	559.8
601.398	547.6
601.808	551.6
602.219	534.4
602.629	536.8
603.039	540.6
603.45	557
603.86	542.2
604.271	547.4
604.703	537.6
605.114	538.6
605.525	535.4
605.935	537.8
606.346	561
606.757	545
607.168	538
607.579	527.8
607.99	541.6
608.402	530.4
608.813	545.4
609.224	534.4
609.636	530
610.047	533.6
610.48	539.8
610.892	541
611.303	542.8
611.715	534.4
612.127	537.8
612.539	533
612.95	546.8
613.362	535.2
613.774	535.6
614.186	540.8
614.599	542.2
615.011	550.4
615.423	539.4
615.835	527
616.248	538.4
616.66	546
617.073	536.2
617.485	542.6
617.898	546.8
618.311	549
618.723	540.6
619.136	567.8
619.549	553
619.962	562.4
620.375	541.2
620.788	539.8
621.201	537.8
621.614	550
622.028	546.6
622.441	545.4
622.854	557.8
623.268	539.4
623.681	540.4
624.095	537.2
624.509	540.2
624.922	548.6
625.336	535.2
625.728	544.4
626.142	542.6
626.556	553.4
626.97	542.6
627.384	539.6
627.799	537.8
628.213	549.6
628.627	536.4
629.041	540.4
629.456	528.2
629.87	542
630.285	551
630.699	535.8
631.093	541
631.507	541.4
631.922	540
632.337	549.4
632.752	531.4
633.167	536.2
633.582	532.6
633.997	535.8
634.412	530.4
634.806	527
635.221	524
635.637	539.2
636.052	519.8
636.468	530
636.883	543
637.299	534
637.715	518
638.109	534
638.525	531.2
638.941	541.2
639.357	528.8
639.773	542
640.189	528.6
640.584	525.2
641	533
641.416	511
641.832	529.6
642.249	525.6
642.665	527.4
643.06	531.2
643.477	527.8
643.894	515
644.31	519.6
644.727	520
645.123	525.2
645.54	524.4
645.957	529.8
646.374	536.4
646.77	520.8
647.187	546.6
647.604	520.4
648.021	512.4
648.439	513.4
648.835	523.4
649.252	523.6
649.67	517
650.088	518.6
650.484	516
650.902	525.8
651.32	529.4
651.738	520.6
652.134	519.8
652.552	545.6
652.971	522
653.389	513.8
653.786	533.8
654.204	523
654.622	519.4
655.019	517.4
655.438	512.8
655.857	523.8
656.275	520.4
656.673	513.2
657.091	528.8
657.51	514.6
657.908	522.6
658.327	526.2
658.746	516.6
659.144	519
659.563	529.8
659.982	520.8
660.38	514.2
660.8	522.2
661.219	520.6
661.617	520.4
662.037	515
662.457	530
662.855	506.6
663.275	536.6
663.695	518
664.094	523
664.514	515.8
664.934	516
665.333	520
665.753	512
666.152	516.2
666.572	511.6
666.993	526.6
667.392	512
667.812	515.6
668.212	510.6
668.632	524.6
669.053	512.2
669.453	519.8
669.874	523.2
670.273	514.6
670.694	509.2
671.116	514.2
671.515	514
671.937	508.4
672.337	506.6
672.758	511.6
673.158	517.2
673.58	500
673.98	506.4
674.402	521
674.824	508.4
675.224	507.2
675.646	508.6
676.047	509.4
676.469	523.4
676.869	515.4
677.292	514.4
677.693	503.8
678.115	509.4
678.516	517.8
678.939	513.6
679.34	510.2
679.762	517.4
680.164	508.2
680.586	512.4
680.988	512.6
681.411	532.8
681.812	507.6
682.236	501.2
682.637	503.2
683.061	503.4
683.462	513.6
683.864	505.4
684.288	513
684.69	503.6
685.114	520.6
685.516	524
685.94	505.8
686.342	509.4
686.766	512.8
687.168	508.8
687.571	525.2
687.995	507.8
688.398	499
688.822	510.8
689.225	517.4
689.628	523.4
690.052	514.8
690.456	513.8
690.88	501.4
691.284	511.6
691.687	521
692.112	496
692.515	509.2
692.919	513.8
693.344	518.2
693.747	504.6
694.173	504.4
694.577	513.6
694.98	511.8
695.406	520
695.81	498.8
696.214	512.2
696.64	512.8
697.044	518.4
697.448	517.4
697.874	509.2
698.279	513.2
698.684	504.2
699.11	497.4
699.514	505.4
699.919	506.6
700.324	502.2
700.75	503.4
701.156	498
701.561	517.6
701.987	512.6
702.393	515.4
702.798	520.4
703.203	507.8
703.63	505.4
704.036	505.6
704.442	505.8
704.847	497.8
705.274	502.8
705.68	511.2
706.086	511
706.492	507.2
706.92	512.4
707.326	513
707.732	510.8
708.139	499.2
708.545	503.6
708.973	504.8
709.38	507.2
709.786	494.8
710.193	511.2
710.6	511.4
711.028	494.6
711.435	504.2
711.842	508.6
712.249	505.6
712.656	500.4
713.064	514.6
713.492	506.6
713.9	501.6
714.307	504.6
714.715	502.6
715.123	509.2
715.53	503.4
715.938	515.2
716.367	507.8
716.775	503.4
717.184	499
717.592	504
718	514
718.408	540.8
718.816	539.8
719.225	512.6
719.633	511.2
720.042	497.2
720.472	502.2
720.881	520.4
721.29	509.8
721.699	501
722.108	508.8
722.517	506.6
722.926	506.6
723.335	521.6
723.744	510.2
724.154	508.8
724.563	507
724.973	509.8
725.382	504.4
725.792	509.2
726.202	503.6
726.612	519
727.022	499.8
727.432	503.6
779.813	502.8
780.223	540.4
780.634	503.6
781.044	501.6
781.454	504.8
781.865	514.8
782.276	500.8
782.686	510.8
783.097	503.2
783.508	498.4
783.919	499.4
784.33	522.6
784.741	511.6
785.152	506.4
785.563	494.6
785.974	499.4
786.386	509.8
786.776	498.4
787.188	509.8
787.599	495.2
788.011	510.6
788.423	507.2
788.835	500.2
789.247	493.6
789.659	501.2
790.071	501
790.483	537.2
790.874	500.6
791.286	513.8
791.699	504.2
792.111	497.8
792.524	504.8
792.937	499.2
793.349	503.2
793.741	497.4
794.154	496.8
794.567	515.8
794.98	503.8
795.393	499
795.785	514.6
796.198	497.8
796.612	508
797.026	498
797.439	491
797.831	495.8
798.245	496.8
798.659	501
799.073	496.6
799.487	499.4
799.88	490.6
800.294	499.8
800.708	504.2
801.123	502.8
801.516	517
801.93	490.4
802.345	494
802.76	501.6
803.153	516.4
803.568	507.8
803.983	504.4
804.377	502.8
804.792	497
805.207	498.8
805.601	504
806.016	538.4
806.432	495.8
806.826	520
807.242	506.6
807.658	502
808.052	498.2
808.468	502.8
808.884	508.6
809.279	509
809.695	512
810.111	521.6
810.506	510
810.922	516.4
811.339	498
811.734	499.6
812.151	494.4
812.546	499.2
812.963	504
813.38	509
813.776	509.2
814.193	522
814.589	497.6
815.006	497.6
815.402	497.2
815.82	498.2
816.237	505.4
816.633	506.8
817.051	495.4
817.448	503
817.866	492
818.262	517.4
818.68	499.4
819.077	504.4
819.495	493.2
819.892	528.8
820.311	499
820.708	496.4
821.127	500.6
821.524	512.6
821.943	507
822.34	509.2
822.759	499
823.157	494
823.576	514.8
823.974	502.6
824.393	562.8
824.791	501
825.189	487.2
825.609	497
826.007	495.4
826.427	499
826.826	501.8
827.246	508.4
827.644	492.6
828.043	517.2
828.463	499.2
828.862	510.8
829.261	510.8
829.682	490.6
830.081	504.2
830.502	497.6
830.901	502
831.301	497.2
831.722	491.4
832.121	506
832.521	500.6
832.943	500.2
833.342	500.4
833.742	495
834.164	502
834.564	500.6
834.965	495.4
835.386	499.6
835.787	506.8
836.188	504.8
836.588	499.2
837.01	498.2
837.411	495
837.812	512.4
838.213	502.4
838.636	498.6
839.037	558.6
839.438	502.8
839.84	504
840.263	507
840.664	507
841.066	497.8
841.468	507.2
841.891	502.4
842.293	511.4
842.695	506.8
843.098	506.6
843.5	500.2
843.902	508.4
844.326	502.8
844.729	503.6
845.131	506.8
845.534	508.2
845.937	515
846.34	510.2
846.764	495.4
847.167	504.2
847.571	499.8
847.974	495.8
848.377	496.6
848.781	545.4
849.184	507.6
849.588	493.4
849.992	492.4
850.396	500.8
850.821	513.2
851.225	503.8
851.63	497
