#lambda/nm	C1
208.295	467
208.67	440.8
209.045	400
209.419	403
209.794	545.4
210.169	532
210.544	627.2
210.919	533
211.295	524.2
211.67	541.4
212.045	540.2
212.421	538.8
212.796	558.4
213.172	536.4
213.547	537
213.923	536
214.299	533.8
214.675	540.2
215.051	542.8
215.427	548.4
215.803	562.2
216.179	542.2
216.555	525
216.932	551.6
217.308	539.4
217.684	536.2
218.061	550
218.438	544.2
218.814	527.8
219.191	542.4
219.568	526.6
219.945	536.8
220.322	533
220.699	544.8
221.076	541.6
221.453	537.4
221.83	522.2
222.208	531.6
222.585	530.8
222.962	534.2
223.34	544
223.717	543
224.095	532.6
224.473	540.2
224.851	525
225.229	531
225.607	549
225.985	529.2
226.363	540
226.741	537.4
227.119	531.6
227.497	555.2
227.876	532.2
228.254	544.8
228.633	545
229.011	545
229.39	543.4
229.769	537
230.148	538.4
230.527	553.8
230.905	542
231.284	539.2
231.664	538.4
232.043	555.4
232.422	538.8
232.801	530.2
233.181	541.4
233.56	532.4
233.94	537.6
234.319	527.6
234.699	533.4
235.079	568.2
235.458	569.8
235.838	555.4
236.218	530.6
236.598	529.8
236.978	538
237.358	529
237.738	528.2
238.119	542.2
238.499	527
238.88	535
239.26	552.4
239.641	532.6
240.021	530.4
240.402	537
240.783	536.4
241.163	535.4
241.544	542
241.925	537.6
242.306	552
242.687	534.4
243.069	537.6
243.45	545.2
243.831	538.2
244.212	540.2
244.594	564.8
244.975	552.2
245.357	538.8
245.739	532.4
246.12	539.8
246.502	544.2
246.884	541.8
247.266	539.8
247.648	538.4
248.03	554.6
248.412	538.4
248.794	532
249.176	540.8
249.559	544
249.941	537.8
250.323	541.6
250.706	531.6
251.089	537.6
251.471	543
251.854	534.6
252.237	534.6
252.62	543.2
253.002	533.8
253.385	530.8
253.769	546.4
254.152	535
254.535	543.6
254.918	536.2
255.301	528.8
255.685	537.8
256.068	527.2
256.452	549.6
256.835	548.6
257.219	533.2
257.603	547.4
257.986	529.4
258.37	544.8
258.754	527.2
259.138	548.4
259.522	540.8
259.906	539.4
260.29	542.6
260.675	535.6
261.059	541.8
261.443	526.8
261.828	540.6
262.212	545.4
262.597	524.4
262.981	533
263.366	544
263.751	542
264.136	532.6
264.521	530
264.906	527.2
265.291	541
265.676	534
266.061	550.6
266.446	557.6
266.831	537
267.217	557.2
267.602	538.6
267.987	539.2
268.373	533.2
268.759	545.8
269.144	541
269.53	536.4
269.916	534.8
270.302	541.4
270.688	535.8
271.074	543.2
271.46	549.4
271.846	561.2
272.232	543.6
272.618	529.8
273.004	541
273.391	558.2
273.777	549.2
274.164	546
274.55	553.8
274.937	544.8
275.324	536.4
275.71	542.6
276.097	546.8
276.484	534.2
276.871	536.8
277.258	537.4
277.645	522.4
278.032	529
278.419	538.8
278.807	536.6
279.194	526
279.581	527.6
279.969	544.6
280.356	532.6
280.744	535.6
281.131	556.8
281.519	547.2
281.907	531.2
282.295	536.8
282.682	543
283.07	537.4
283.458	546.4
283.846	542.6
284.235	543.2
284.623	545.6
285.011	530.6
285.399	541.6
285.788	533.8
286.176	527
286.565	550.2
286.953	529.8
287.342	535.4
287.731	534.8
288.119	533.2
288.508	534.4
288.897	530.8
289.286	523.8
289.675	536.6
290.064	547.6
290.453	532.4
290.821	543
291.21	547.4
291.599	537.2
291.989	540.4
292.378	544.8
292.768	552.6
293.157	539.8
293.547	544
293.936	538.8
294.326	530
294.716	542
295.106	529.6
295.496	543.2
295.886	541.2
296.276	540.2
296.666	527
297.056	537
297.446	523.8
297.836	550.4
298.227	538
298.617	530.8
299.008	550
299.398	530.8
299.789	532
300.179	539.6
300.57	542.4
300.961	531.2
301.352	528.8
301.742	548.4
302.133	540
302.524	540.4
302.915	540.2
303.307	532.6
303.698	547.4
304.089	549.2
304.48	532.8
304.872	537.8
305.263	538
305.655	528.6
306.046	535.2
306.438	545
306.829	531.6
307.221	544
307.613	538
308.005	547
308.397	546.4
308.789	560.2
309.181	559.4
309.573	559
309.965	544
310.357	529.2
310.749	552.2
311.142	532.2
311.534	534
311.926	543.6
312.319	542.8
312.711	534.2
313.104	554.8
313.497	540.4
313.889	560
314.282	560.6
314.675	560
315.068	533.8
315.461	540.2
315.854	560.2
316.247	546
316.64	540.6
317.033	533.6
317.405	543.6
317.798	533.4
318.192	543.2
318.585	530.6
318.979	546.4
319.372	535.6
319.766	531.8
320.16	547.4
320.553	544.6
320.947	550.6
321.341	528.4
321.735	532.2
322.129	527.4
322.523	555.4
322.917	533.6
323.311	545
323.705	543.4
324.099	536.8
324.494	544.6
324.888	543.2
325.282	533.8
325.677	558.2
326.071	546
326.466	555.2
326.861	540
327.255	547
327.65	548.2
328.045	542.2
328.44	538.4
328.835	544.6
329.23	535.2
329.625	565.2
330.02	537.6
330.415	552.4
330.81	539.2
331.206	539
331.601	541.2
331.996	544.4
332.37	553.2
332.766	523.2
333.161	555.4
333.557	527
333.953	535.6
334.348	763.2
334.744	539.2
335.14	532.4
335.536	541.2
335.932	551
336.328	536.2
336.724	546.4
337.12	531.4
337.516	544.2
337.913	538.2
338.309	549
338.705	543
339.102	544.6
339.498	533.6
339.895	553.6
340.291	532.6
340.688	547.6
341.085	527.4
341.481	541.2
341.878	537.8
342.275	551.8
342.672	530
343.069	542.6
343.466	519.8
343.842	543.2
344.239	534.2
344.636	535.8
345.033	527.6
345.431	530.8
345.828	535.4
346.225	526.4
346.623	561
347.02	526.2
347.418	535.6
347.816	549.4
348.213	532.8
348.611	539.4
349.009	539.8
349.407	539.2
349.805	529.4
350.203	522.8
350.601	536
350.999	525
351.397	586
351.795	537.8
352.193	542.8
352.57	532.2
352.969	537.2
353.367	526.4
353.766	524.8
354.164	532
354.563	542.4
354.961	537
355.36	536.8
355.759	548.4
356.158	527
356.557	528.2
356.956	516.2
357.355	527
357.754	536.6
358.153	534.2
358.552	554.8
358.951	530.4
359.35	545
359.75	528.8
360.149	528.4
360.527	526.4
360.926	532.2
361.326	537.2
361.726	530.2
362.125	530.6
362.525	540.8
362.925	531.4
363.325	528.4
363.724	540.4
364.124	525.6
364.524	524.2
364.924	528.2
365.324	542.8
365.725	517.8
366.125	531.2
366.525	534.6
366.904	531.6
367.304	522
367.705	548.4
368.105	541.8
368.506	536.6
368.906	525.8
369.307	534
369.708	544.8
370.108	526
370.509	540.6
370.91	521.8
371.311	527.4
371.712	534.8
372.113	528.4
372.514	518.6
372.894	525.4
373.295	527.4
373.696	527.2
374.097	538
374.499	556
374.9	529
375.301	518
375.703	528
376.105	521.6
376.506	533.6
376.908	530.2
377.309	533
377.711	531.6
378.113	522.6
378.493	529
378.895	529.2
379.297	538.4
379.699	521.4
380.102	534.2
380.504	534.8
380.906	524.8
381.308	546
381.71	528.2
382.113	534.4
382.515	528
382.918	530.8
383.299	534.2
383.701	538.8
384.104	529
384.507	520.4
384.909	528.8
385.312	517.2
385.715	520.6
386.118	524.8
386.521	520
386.924	537.8
387.327	523.8
387.709	528
388.112	521.8
388.515	530
388.918	530.4
389.322	533.6
389.725	528.6
390.129	543.6
390.532	536.2
390.936	521.6
391.339	524.4
391.743	526.6
392.125	527
392.529	533.6
392.933	540.6
393.337	527.4
393.74	530.6
394.144	524
394.548	517.2
394.953	528.2
395.357	536
395.761	529.4
396.144	532.4
396.548	529.2
396.952	526
397.357	543
397.761	526
398.166	520.8
398.57	526.8
398.975	521.8
399.379	532.8
399.763	568.6
400.168	526.2
400.572	535.8
400.977	527.6
401.382	540.4
401.787	535.2
402.192	537.8
402.597	545.2
403.002	519.2
403.386	541
403.791	543.8
404.197	526.8
404.602	527.4
405.007	528.4
405.413	525.2
405.818	534.8
406.224	524
406.608	523.8
407.014	529.6
407.42	540.8
407.825	528
408.231	541
408.637	529.4
409.043	550.4
409.449	531
409.834	519.4
410.24	531.2
410.646	539.8
411.052	530.6
411.458	531.8
411.865	535
412.271	532
412.677	522
413.062	532.2
413.469	525.6
413.875	549.8
414.282	542.4
414.689	534
415.095	538.4
415.502	526.2
415.888	531.6
416.294	515.2
416.701	551
417.108	518.2
417.515	533.6
417.923	522.6
418.33	542.4
418.715	536.2
419.123	538
419.53	527.4
419.937	535.8
420.345	548.8
420.752	519.2
421.16	538.2
421.546	529.4
421.953	530.8
422.361	527
422.769	531
423.177	522.6
423.585	554.2
423.992	550.4
424.379	544.2
424.787	543.6
425.195	543.4
425.603	528.2
426.011	550.2
426.419	543.6
426.806	542.2
427.214	543.6
427.623	544
428.031	550.4
428.44	551.2
428.848	550.8
429.235	563.8
429.644	558.8
430.053	567.6
430.461	578.4
430.87	602.6
431.279	592
431.666	598
432.075	603.8
432.484	626.2
432.893	636.6
433.302	659.2
433.711	696.4
434.099	692.8
434.508	704.4
434.918	708
435.327	742.2
435.737	765.8
436.125	782.2
436.534	805
436.944	834.4
437.353	846.6
437.763	888.8
438.173	885.4
438.561	918.8
438.971	915.6
439.381	953.8
439.791	967.4
440.201	971.8
440.589	990.6
440.999	1016.2
441.409	1030.2
441.819	1035
442.23	1070.6
442.619	1084.4
443.029	1092
443.439	1092.2
443.85	1102.6
444.26	1127.6
444.649	1120.2
445.06	1136.2
445.471	1136.2
445.881	1169.2
446.292	1183.2
446.682	1193
447.092	1174.6
447.503	1228
447.914	1202
448.325	1193
448.715	1197.2
449.126	1201.8
449.537	1220.8
449.948	1215.4
450.338	1242.2
450.75	1234
451.161	1246
451.572	1253.2
451.984	1250.6
452.374	1233.4
452.786	1249.4
453.197	1261.4
453.609	1264.2
453.999	1268.6
454.411	1260.8
454.823	1289.2
455.235	1281.4
455.647	1286.6
456.037	1286.8
456.449	1275
456.862	1271.8
457.274	1281.4
457.665	1281
458.077	1300.6
458.489	1325.8
458.902	1281
459.293	1296
459.705	1291.6
460.118	1262.6
460.53	1276.4
460.921	1287.4
461.334	1290.4
461.747	1292.8
462.16	1296.4
462.551	1302
462.964	1286.6
463.377	1280.4
463.79	1290.8
464.182	1300
464.595	1283.4
465.008	1308.4
465.421	1297.8
465.813	1294
466.226	1282.8
466.64	1292.4
467.053	1335.8
467.445	1315
467.859	1317.6
468.272	1310.4
468.686	1316.8
469.078	1316.4
469.492	1295.6
469.906	1309.8
470.298	1307.2
470.712	1284.6
471.126	1324.2
471.54	1285.4
471.933	1267.8
472.347	1276.6
472.761	1274.4
473.175	1269.6
473.568	1275.2
473.982	1253.6
474.397	1275.6
474.79	1260.6
475.204	1269.6
475.619	1268.2
476.033	1262.4
476.426	1253.2
476.841	1247.8
477.256	1261
477.649	1235.4
478.064	1226
478.479	1231
478.872	1224.8
479.287	1219.8
479.702	1210.8
480.118	1216.8
480.511	1218.8
480.927	1214
481.342	1201
481.736	1222.6
482.151	1202.2
482.566	1218.4
482.96	1208.4
483.376	1197
483.792	1190.8
484.186	1185.4
484.602	1181
485.017	1191.2
485.412	1159.8
485.827	1180
486.243	1169.6
486.638	1190.4
487.054	1156.8
487.47	1177.4
487.865	1153
488.281	1142.6
488.697	1125.8
489.092	1130
489.508	1107.8
489.925	1123.4
490.32	1095.6
490.736	1123.8
491.153	1117.8
491.548	1110.2
491.964	1108.6
492.381	1099.4
492.776	1111.4
493.193	1089
493.61	1079.6
494.006	1087.8
494.422	1082.8
494.84	1069
495.235	1070.2
495.652	1054.8
496.069	1060.4
496.465	1057
496.883	1046.6
497.3	1071.2
497.696	1029.4
498.113	1043
498.509	1032.6
498.927	1014.4
499.344	1022.8
499.741	1017
500.158	1014.4
500.576	1024
500.973	997.2
501.39	992.4
501.787	973
502.205	986.6
502.623	971.6
503.02	965.2
503.438	973.8
503.856	958.4
504.253	968.6
504.671	962.4
505.068	941.8
505.486	945.4
505.905	958.4
506.302	940
506.72	949.2
507.118	933.8
507.536	921.6
507.955	917.6
508.352	925.2
508.771	926.8
509.169	919.2
509.587	910.6
510.006	907.6
510.404	885.4
510.823	884.8
511.221	884.6
511.64	904.6
512.038	887
512.457	879.8
512.877	879.2
513.275	875.8
513.694	874.6
514.092	866.2
514.512	866.6
514.91	861
515.33	852
515.749	852.2
516.148	855.6
516.568	846.8
516.966	843.6
517.386	843
517.785	832.4
518.205	823.8
518.603	822.6
519.024	822.4
519.444	824.6
519.843	821
520.263	830.6
520.662	818.8
521.082	802.8
521.481	807.4
521.902	805.6
522.301	801
522.722	799.6
523.121	782.6
523.542	796.2
523.963	774.8
524.362	786.2
524.783	782.4
525.183	773
525.604	775.2
526.003	765.4
526.425	763
526.824	767.6
527.246	766
527.646	772.8
528.067	755.4
528.467	752.6
528.888	754.4
529.289	749.4
529.71	744
530.11	736.8
530.532	739.6
530.932	732.2
531.354	731.2
531.755	763.2
532.176	732.6
532.577	730.4
532.999	740
533.4	723
533.822	733
534.223	719.6
534.645	722.4
535.046	718
535.468	715.6
535.869	723
536.292	705.2
536.693	726.4
537.115	710.6
537.516	698.4
537.939	706.8
538.34	713
538.742	712.8
539.165	705.6
539.566	689.4
539.989	677.6
540.391	686.2
540.814	685.8
541.216	688.2
541.639	682.8
542.041	684.8
542.464	685.4
542.866	670.8
543.268	661.6
543.691	675
544.093	677
544.517	683.2
544.919	656.8
545.343	687.6
545.745	654.8
546.147	657
546.571	662
546.974	653.8
547.398	663.6
547.8	671
548.224	653.2
548.627	645.4
549.03	659.8
549.454	648.4
549.857	647.6
550.281	645
550.684	648.4
551.087	655.4
551.512	643
551.915	656.4
552.34	638.8
552.743	637.2
553.146	642
553.571	638.6
553.975	650.4
554.399	629.6
554.803	673.8
555.207	619.6
555.632	618
556.036	632.6
556.461	621.6
556.865	630.4
557.268	619.8
557.694	614.2
558.098	621.4
558.502	621.2
558.927	612
559.332	613.8
559.736	614.4
560.162	616.4
560.566	616.6
560.992	610.4
561.396	609.2
561.801	597.8
562.227	604.4
562.631	615.6
563.036	590.6
563.462	608.2
563.867	599.8
564.272	591.2
564.698	612.4
565.103	583
565.508	608.4
565.935	592.2
566.34	593.8
566.745	602
567.172	585
567.577	610.4
567.982	603.4
568.409	592.2
568.815	580.4
569.22	581
569.626	581.8
570.053	564.6
570.459	587.4
570.865	584.4
571.292	584
571.698	586
572.104	567
572.531	579.4
572.937	581.8
573.343	579.2
573.75	573.8
574.177	590
574.583	582.8
574.99	573.2
575.396	578.4
575.824	580.4
576.231	577.8
576.637	573
577.065	587.8
577.472	572.4
577.879	570.8
578.286	584.6
578.714	567
579.121	560.8
579.528	571
579.935	578.4
580.364	565
580.771	554.6
581.178	559.8
581.585	570.8
582.014	572.6
582.421	567
582.829	562.6
583.236	573
583.644	552.2
584.073	558.4
584.481	556
584.889	559.4
585.296	575.2
585.726	558.2
586.134	552.2
586.542	545.8
586.95	578.8
587.358	549.4
587.787	561
588.196	551.6
588.604	545.8
589.012	558.6
589.421	543
589.851	545.8
590.259	551.6
590.668	545
591.076	577
591.485	550.6
591.894	544.6
592.324	554.6
592.733	555
593.142	534.6
593.551	543.6
593.96	543.8
594.369	540
594.8	545.2
595.209	540.6
595.618	533
596.028	539
596.437	536
596.847	541.8
597.256	543.2
597.687	546.4
598.097	540
598.507	531
598.917	544.4
599.327	549.4
599.736	542.6
600.146	547.8
600.556	540
600.988	548.2
601.398	536.2
601.808	540.8
602.219	526.4
602.629	540.4
603.039	527.2
603.45	556.6
603.86	537.4
604.271	551.6
604.703	542.8
605.114	537.4
605.525	540.8
605.935	549.2
606.346	543.4
606.757	535.2
607.168	530
607.579	527.6
607.99	538.6
608.402	532.6
608.813	533.6
609.224	521.6
609.636	524.8
610.047	522
610.48	533.6
610.892	538
611.303	540.2
611.715	538.8
612.127	530
612.539	526.2
612.95	535.6
613.362	522.2
613.774	523.8
614.186	524.4
614.599	527.4
615.011	542.4
615.423	527.4
615.835	527
616.248	521.2
616.66	538
617.073	524.8
617.485	532.6
617.898	531.8
618.311	532.2
618.723	531.8
619.136	548
619.549	538.8
619.962	539.2
620.375	527.4
620.788	529.4
621.201	526.2
621.614	532.6
622.028	527
622.441	528.2
622.854	547
623.268	524
623.681	534.2
624.095	528.6
624.509	541
624.922	537
625.336	527.4
625.728	542.4
626.142	531
626.556	539.6
626.97	535.2
627.384	530.8
627.799	532.2
628.213	540.6
628.627	523.2
629.041	523.6
629.456	527
629.87	535.2
630.285	538.2
630.699	531.6
631.093	521.8
631.507	533
631.922	531.6
632.337	548
632.752	526.2
633.167	531
633.582	530.2
633.997	528
634.412	521.4
634.806	525.6
635.221	522.2
635.637	526.4
636.052	520.6
636.468	531.6
636.883	543.6
637.299	514.6
637.715	510.4
638.109	525
638.525	515.2
638.941	537.2
639.357	527.4
639.773	527.6
640.189	516.8
640.584	520
641	521.8
641.416	506
641.832	511.8
642.249	513.2
642.665	514.8
643.06	526.6
643.477	528.4
643.894	502.8
644.31	515.6
644.727	523.2
645.123	511.8
645.54	512.8
645.957	526.2
646.374	521.2
646.77	522
647.187	541.4
647.604	519.2
648.021	510
648.439	516.4
648.835	516.2
649.252	526.6
649.67	518.6
650.088	522.2
650.484	523
650.902	527
651.32	521.8
651.738	514.2
652.134	515.4
652.552	527.2
652.971	525
653.389	514.4
653.786	528.4
654.204	522.4
654.622	513.2
655.019	517.6
655.438	518
655.857	514.8
656.275	517.8
656.673	511
657.091	526.8
657.51	510.6
657.908	522.4
658.327	525.8
658.746	508.8
659.144	524
659.563	529
659.982	520.2
660.38	510.2
660.8	516.6
661.219	522.6
661.617	523.2
662.037	510.4
662.457	530.2
662.855	508.4
663.275	538.2
663.695	515.4
664.094	514.4
664.514	509.8
664.934	498
665.333	519.8
665.753	507.2
666.152	499.4
666.572	499.2
666.993	515.2
667.392	507.4
667.812	506.8
668.212	501.6
668.632	519
669.053	517.4
669.453	512
669.874	519.6
670.273	513.8
670.694	502.4
671.116	516.6
671.515	521.4
671.937	507.2
672.337	509.2
672.758	519.6
673.158	517.6
673.58	515.6
673.98	512
674.402	519.8
674.824	516.6
675.224	514.2
675.646	506.8
676.047	513.8
676.469	513.2
676.869	523.4
677.292	508
677.693	503
678.115	506.6
678.516	516.4
678.939	511.6
679.34	510.8
679.762	519.2
680.164	507
680.586	498.6
680.988	511.6
681.411	534.4
681.812	510.6
682.236	507.4
682.637	504.4
683.061	502.8
683.462	509.8
683.864	508.6
684.288	516.4
684.69	501.4
685.114	517
685.516	511.2
685.94	499.8
686.342	519.6
686.766	506
687.168	508.2
687.571	521.6
687.995	520
688.398	505.6
688.822	508.6
689.225	525.6
689.628	524.2
690.052	510.2
690.456	515.4
690.88	507
691.284	495.4
691.687	510.6
692.112	497.8
692.515	507.4
692.919	510.4
693.344	509.2
693.747	501.8
694.173	501.6
694.577	518
694.98	509.2
695.406	504.2
695.81	512.2
696.214	512.8
696.64	511.6
697.044	513.6
697.448	518.8
697.874	509.6
698.279	510.2
698.684	492.6
699.11	505.8
699.514	509.4
699.919	506.2
700.324	498
700.75	508
701.156	510
701.561	517
701.987	507.6
702.393	511.6
702.798	522.6
703.203	512.2
703.63	502.6
704.036	503.8
704.442	509.2
704.847	499.8
705.274	501.4
705.68	507.8
706.086	510.2
706.492	497.6
706.92	497.2
707.326	518.4
707.732	507.6
708.139	500
708.545	497.2
708.973	512
709.38	505.8
709.786	490
710.193	518.4
710.6	511.6
711.028	497.4
711.435	499.4
711.842	504
712.249	504.2
712.656	499.8
713.064	521
713.492	505.8
713.9	499.8
714.307	509
714.715	508.2
715.123	508.2
715.53	508.2
715.938	519.2
716.367	509
716.775	508.6
717.184	498.2
717.592	504.6
718	508.2
718.408	531.4
718.816	542.2
719.225	510
719.633	509.8
720.042	506.6
720.472	505.8
720.881	524.2
721.29	515.4
721.699	499.4
722.108	509.2
722.517	511.6
722.926	490.4
723.335	509
723.744	505.4
724.154	510
724.563	508.4
724.973	511.4
725.382	507.4
725.792	503.2
726.202	504.2
726.612	511.2
727.022	515.2
727.432	505
779.813	503.6
780.223	542.6
780.634	504.2
781.044	499
781.454	503
781.865	516.6
782.276	501.6
782.686	515.6
783.097	504.8
783.508	504.2
783.919	505
784.33	514.2
784.741	509.6
785.152	508
785.563	493.6
785.974	496
786.386	511.6
786.776	503.2
787.188	504.2
787.599	495.8
788.011	502.8
788.423	508.6
788.835	502.4
789.247	499.2
789.659	506.6
790.071	498
790.483	540.4
790.874	506
791.286	505.2
791.699	495.8
792.111	505
792.524	503
792.937	503
793.349	495.2
793.741	494.6
794.154	495.2
794.567	515.6
794.98	498.4
795.393	492.2
795.785	512
796.198	510.8
796.612	503.6
797.026	503.6
797.439	494.4
797.831	493.6
798.245	496.2
798.659	506.4
799.073	498.8
799.487	499.2
799.88	507.2
800.294	498.6
800.708	504
801.123	505.6
801.516	519
801.93	490.8
802.345	489
802.76	512.8
803.153	519.4
803.568	514.4
803.983	508.4
804.377	507.8
804.792	497.8
805.207	488.4
805.601	508
806.016	531.8
806.432	500.2
806.826	529.2
807.242	510.4
807.658	504.6
808.052	505.6
808.468	500.6
808.884	497.6
809.279	512.2
809.695	514.2
810.111	517.2
810.506	509.2
810.922	518.6
811.339	504
811.734	502.4
812.151	494.4
812.546	493.6
812.963	493.4
813.38	500.8
813.776	503.4
814.193	518.4
814.589	505.6
815.006	489.6
815.402	500.2
815.82	488.4
816.237	496.6
816.633	504
817.051	493.4
817.448	499.4
817.866	493.6
818.262	524
818.68	494.6
819.077	498
819.495	499
819.892	530
820.311	490.2
820.708	502.6
821.127	493.4
821.524	511
821.943	501
822.34	517.8
822.759	503.8
823.157	503.6
823.576	508.8
823.974	510.8
824.393	596
824.791	501.8
825.189	495.4
825.609	492.6
826.007	499.6
826.427	491.6
826.826	496.8
827.246	501.6
827.644	490.8
828.043	508.4
828.463	502.2
828.862	507.6
829.261	501.2
829.682	494.8
830.081	505.2
830.502	501.8
830.901	504.2
831.301	494.2
831.722	487.8
832.121	493.6
832.521	494.6
832.943	497
833.342	504.2
833.742	500.6
834.164	503.8
834.564	489.8
834.965	498.6
835.386	503.2
835.787	495
836.188	499.8
836.588	504.4
837.01	503.6
837.411	496
837.812	504.2
838.213	507.8
838.636	503
839.037	555.8
839.438	509
839.84	504.6
840.263	508.6
840.664	508
841.066	503.2
841.468	513
841.891	503.8
842.293	504.8
842.695	504.2
843.098	512.2
843.5	496.8
843.902	499.4
844.326	503.4
844.729	502.2
845.131	511.4
845.534	498.8
845.937	510.4
846.34	512.2
846.764	497.2
847.167	497.4
847.571	500.2
847.974	500.4
848.377	499.2
848.781	537.6
849.184	505.6
849.588	497.6
849.992	499
850.396	500.6
850.821	516.4
851.225	493.4
851.63	492.4
852.034	504.4
852.438	503.6
852.843	558.8
