#lambda/nm	C1
208.295	470.6
208.67	438
209.045	395.4
209.419	401.6
209.794	544.6
210.169	523.8
210.544	626.4
210.919	543.4
211.295	529.6
211.67	548
212.045	526.4
212.421	530.8
212.796	566.4
213.172	529
213.547	528.4
213.923	523.8
214.299	529
214.675	537
215.051	544.2
215.427	540.6
215.803	546.6
216.179	542.8
216.555	529.4
216.932	540.8
217.308	539
217.684	534.4
218.061	539.8
218.438	535.8
218.814	533.6
219.191	549.4
219.568	531.4
219.945	532.6
220.322	538
220.699	540.8
221.076	543.6
221.453	539
221.83	535.4
222.208	537.2
222.585	535.6
222.962	538.6
223.34	536.2
223.717	535.4
224.095	538.4
224.473	538.6
224.851	534
225.229	529.8
225.607	549.4
225.985	528.8
226.363	537.8
226.741	538.2
227.119	541.6
227.497	551.2
227.876	527.2
228.254	539.6
228.633	541.4
229.011	542.4
229.39	537
229.769	547.2
230.148	542.8
230.527	557.2
230.905	532.8
231.284	542
231.664	534.8
232.043	541.2
232.422	544.2
232.801	534
233.181	539.8
233.56	534.8
233.94	542
234.319	530.6
234.699	533.2
235.079	573
235.458	567.4
235.838	546.8
236.218	533.4
236.598	534.2
236.978	522.6
237.358	529.6
237.738	531.2
238.119	541.2
238.499	529.6
238.88	540.6
239.26	546.6
239.641	525.2
240.021	530.8
240.402	542
240.783	540
241.163	535
241.544	538.4
241.925	542.6
242.306	549
242.687	537.4
243.069	543.2
243.45	537.8
243.831	535.6
244.212	534.8
244.594	571.4
244.975	545.6
245.357	546.8
245.739	535
246.12	540.8
246.502	548.6
246.884	539
247.266	536.2
247.648	541.6
248.03	547.2
248.412	544
248.794	541.8
249.176	532.2
249.559	551.8
249.941	525.4
250.323	528.8
250.706	540
251.089	541.6
251.471	536.8
251.854	534.4
252.237	534.4
252.62	541.6
253.002	534.6
253.385	531.6
253.769	540.4
254.152	546.4
254.535	542.6
254.918	528.4
255.301	539.2
255.685	526.4
256.068	538.2
256.452	558
256.835	544.2
257.219	538.6
257.603	538.8
257.986	531
258.37	541.6
258.754	528.8
259.138	548.6
259.522	544.8
259.906	531.2
260.29	537.6
260.675	537.4
261.059	542.2
261.443	524.6
261.828	545.4
262.212	537.4
262.597	527.6
262.981	531
263.366	545.8
263.751	537.8
264.136	531.6
264.521	538.8
264.906	528.2
265.291	547
265.676	532.8
266.061	537
266.446	545.4
266.831	534.4
267.217	557.6
267.602	544.4
267.987	540.8
268.373	529.6
268.759	538.4
269.144	541.2
269.53	532.2
269.916	534.4
270.302	522.6
270.688	545
271.074	537
271.46	545.2
271.846	561
272.232	541
272.618	533.6
273.004	537
273.391	546.6
273.777	547
274.164	547.6
274.55	550.6
274.937	539.6
275.324	535.8
275.71	539
276.097	543.8
276.484	531.4
276.871	536.6
277.258	546.2
277.645	525.8
278.032	532.4
278.419	535
278.807	537
279.194	533.4
279.581	537.2
279.969	540.6
280.356	529.4
280.744	535.4
281.131	557.4
281.519	543.8
281.907	543
282.295	535.4
282.682	542.6
283.07	532.8
283.458	545
283.846	546.4
284.235	547
284.623	543.2
285.011	527
285.399	538
285.788	540
286.176	525.6
286.565	541
286.953	522.4
287.342	533.2
287.731	527.4
288.119	530.2
288.508	526.4
288.897	538.4
289.286	523
289.675	535.8
290.064	541
290.453	531
290.821	538.4
291.21	539.4
291.599	526.8
291.989	539.4
292.378	546.2
292.768	554.4
293.157	543.8
293.547	549.8
293.936	536.8
294.326	536
294.716	539
295.106	530.8
295.496	549.4
295.886	548.2
296.276	540
296.666	528.4
297.056	532.4
297.446	530.2
297.836	550.4
298.227	535
298.617	544.2
299.008	544.4
299.398	528.6
299.789	535.8
300.179	545
300.57	545.6
300.961	535
301.352	532.6
301.742	545.2
302.133	542.4
302.524	532.4
302.915	544.8
303.307	534.6
303.698	543.8
304.089	541
304.48	541
304.872	547.6
305.263	529.8
305.655	533.4
306.046	548.2
306.438	541.6
306.829	536.4
307.221	549.2
307.613	540
308.005	548
308.397	551
308.789	553
309.181	560
309.573	552.4
309.965	553.4
310.357	538.8
310.749	545.6
311.142	531
311.534	531.6
311.926	539
312.319	541.2
312.711	526.6
313.104	547.2
313.497	535.6
313.889	570
314.282	548.8
314.675	553.4
315.068	540
315.461	546.4
315.854	560.8
316.247	539.8
316.64	535.2
317.033	533.6
317.405	540.2
317.798	538
318.192	533.4
318.585	537.8
318.979	543
319.372	532
319.766	535.2
320.16	541
320.553	542.6
320.947	552
321.341	535.8
321.735	535
322.129	530.4
322.523	558.8
322.917	532.6
323.311	550.6
323.705	531.8
324.099	546
324.494	554.8
324.888	551.4
325.282	534.8
325.677	551.6
326.071	536.8
326.466	550.2
326.861	537.8
327.255	554
327.65	552.4
328.045	548.8
328.44	540.6
328.835	535.8
329.23	533.8
329.625	553.8
330.02	533.4
330.415	552.4
330.81	543.8
331.206	549.8
331.601	539
331.996	543.8
332.37	552
332.766	529.6
333.161	553.8
333.557	533
333.953	535
334.348	752.8
334.744	534.8
335.14	535.2
335.536	529.4
335.932	540.2
336.328	533.8
336.724	550.4
337.12	542.2
337.516	542.2
337.913	545.6
338.309	552
338.705	535.4
339.102	545.6
339.498	531.8
339.895	540.8
340.291	535.4
340.688	544
341.085	531.6
341.481	533.2
341.878	536
342.275	551.8
342.672	536.8
343.069	535.6
343.466	523.2
343.842	542.6
344.239	535.2
344.636	535.8
345.033	526
345.431	529.6
345.828	530.2
346.225	534
346.623	563.2
347.02	537
347.418	551.4
347.816	550.8
348.213	522.6
348.611	536
349.009	532.2
349.407	538.4
349.805	525
350.203	522.8
350.601	537.6
350.999	534.2
351.397	586.4
351.795	529.8
352.193	544
352.57	547
352.969	551
353.367	526.6
353.766	535.8
354.164	534.8
354.563	546.2
354.961	535.2
355.36	527.4
355.759	526
356.158	526.4
356.557	528.4
356.956	519.8
357.355	522.2
357.754	541.6
358.153	531
358.552	546.8
358.951	531.6
359.35	539.2
359.75	534
360.149	526.2
360.527	521.4
360.926	522.6
361.326	529
361.726	530.8
362.125	519
362.525	535
362.925	530
363.325	533
363.724	527.6
364.124	524.8
364.524	535.8
364.924	537.4
365.324	540.4
365.725	525.6
366.125	534.4
366.525	531.4
366.904	527.6
367.304	517.4
367.705	543.6
368.105	542.8
368.506	526.6
368.906	533
369.307	529.8
369.708	539.6
370.108	522.4
370.509	535
370.91	532.8
371.311	538.2
371.712	532.6
372.113	526.4
372.514	514.4
372.894	521.6
373.295	522.2
373.696	546.8
374.097	540.6
374.499	562.6
374.9	535.4
375.301	532.6
375.703	532.4
376.105	525.8
376.506	530.4
376.908	530.6
377.309	531
377.711	532
378.113	519.2
378.493	530.4
378.895	534.8
379.297	536.8
379.699	520.2
380.102	533.8
380.504	534
380.906	524.6
381.308	543.4
381.71	527.2
382.113	538.6
382.515	528
382.918	532.6
383.299	525.8
383.701	530.6
384.104	528.2
384.507	507.4
384.909	527.8
385.312	510.2
385.715	518.4
386.118	522.6
386.521	508.8
386.924	538
387.327	521.8
387.709	516.4
388.112	519.6
388.515	520.6
388.918	533.6
389.322	525.6
389.725	526.2
390.129	545.4
390.532	526.6
390.936	526
391.339	517.6
391.743	529.2
392.125	523.4
392.529	541.6
392.933	546
393.337	531.8
393.74	528
394.144	529.8
394.548	522.8
394.953	533.6
395.357	535.8
395.761	519.8
396.144	524.8
396.548	528.8
396.952	528
397.357	529.6
397.761	527.4
398.166	533
398.57	524.6
398.975	526.2
399.379	528.4
399.763	574
400.168	529.8
400.572	527.6
400.977	527.6
401.382	536.2
401.787	540.8
402.192	545.8
402.597	535.2
403.002	526.4
403.386	537
403.791	543.8
404.197	535.4
404.602	528.2
405.007	528.4
405.413	528
405.818	531
406.224	523.8
406.608	532.2
407.014	529
407.42	541.2
407.825	516.2
408.231	528.4
408.637	527.4
409.043	543.4
409.449	521.6
409.834	515.8
410.24	535.6
410.646	537.6
411.052	532.6
411.458	531.4
411.865	532
412.271	535.8
412.677	533.6
413.062	533.4
413.469	521.2
413.875	552.2
414.282	542
414.689	533.6
415.095	535.2
415.502	519
415.888	529.2
416.294	511.6
416.701	568.6
417.108	523.2
417.515	537
417.923	528.4
418.33	543
418.715	541.2
419.123	526.2
419.53	527.6
419.937	532.8
420.345	541.6
420.752	530
421.16	539.2
421.546	524.6
421.953	537.8
422.361	527.6
422.769	528.8
423.177	526.2
423.585	546.6
423.992	548
424.379	538.4
424.787	537.8
425.195	543.8
425.603	532.8
426.011	535.8
426.419	535.4
426.806	528.2
427.214	533.2
427.623	534
428.031	539.4
428.44	533
428.848	541.6
429.235	540
429.644	530.6
430.053	525.4
430.461	542.8
430.87	555
431.279	543
431.666	527
432.075	531.8
432.484	529
432.893	520
433.302	539.2
433.711	565
434.099	528
434.508	524
434.918	518
435.327	530.8
435.737	531.4
436.125	531.2
436.534	526.8
436.944	537.6
437.353	539.6
437.763	548.4
438.173	524.2
438.561	530.6
438.971	514
439.381	534.6
439.791	532.2
440.201	512.8
440.589	529.2
440.999	534.2
441.409	535.6
441.819	523
442.23	531.6
442.619	535.2
443.029	529
443.439	535
443.85	539.4
444.26	537
444.649	533.4
445.06	528
445.471	525.4
445.881	528.4
446.292	540.2
446.682	543.8
447.092	514.8
447.503	560.2
447.914	521
448.325	531
448.715	524.4
449.126	518.8
449.537	526.4
449.948	529
450.338	521.4
450.75	537.4
451.161	521.8
451.572	525.8
451.984	521.4
452.374	514.4
452.786	520.2
453.197	526.8
453.609	530.6
453.999	519.4
454.411	524
454.823	532.2
455.235	525
455.647	526
456.037	534
456.449	509.8
456.862	526
457.274	535.8
457.665	518.4
458.077	530.8
458.489	546.6
458.902	521.8
459.293	520.8
459.705	534.2
460.118	524.8
460.53	530.6
460.921	529.4
461.334	520.6
461.747	521.4
462.16	538.6
462.551	535.6
462.964	525.6
463.377	514.6
463.79	518
464.182	536
464.595	514
465.008	529.2
465.421	529.8
465.813	516.6
466.226	526
466.64	520.6
467.053	555.4
467.445	533
467.859	534.2
468.272	528
468.686	535.6
469.078	525.4
469.492	514.2
469.906	521.6
470.298	531.6
470.712	520.4
471.126	551.8
471.54	516.6
471.933	513
472.347	527.2
472.761	523
473.175	516.8
473.568	517.6
473.982	515.4
474.397	523.4
474.79	523.2
475.204	520.2
475.619	531.6
476.033	518.4
476.426	522.4
476.841	515.4
477.256	538.6
477.649	518.2
478.064	512.2
478.479	513.6
478.872	515.8
479.287	506.4
479.702	511.6
480.118	509
480.511	516.2
480.927	514.6
481.342	517.2
481.736	526.6
482.151	514
482.566	526.6
482.96	516.2
483.376	522
483.792	518.8
484.186	518.6
484.602	509.8
485.017	518.2
485.412	519.4
485.827	520.8
486.243	520.8
486.638	532
487.054	529.4
487.47	530.8
487.865	518.6
488.281	516
488.697	515.8
489.092	518.4
489.508	522.2
489.925	527.6
490.32	506.8
490.736	525.2
491.153	524.2
491.548	521.4
491.964	534.8
492.381	514.6
492.776	524.4
493.193	521.2
493.61	533.4
494.006	521.4
494.422	535.2
494.84	514.8
495.235	518.4
495.652	529.2
496.069	518
496.465	514.8
496.883	517.4
497.3	540
497.696	515.2
498.113	532
498.509	511.6
498.927	510.6
499.344	514.2
499.741	510.4
500.158	525.8
500.576	521.6
500.973	522.2
501.39	510.4
501.787	512.6
502.205	519.6
502.623	519
503.02	515
503.438	517
503.856	515.2
504.253	513.6
504.671	523.2
505.068	515
505.486	516.2
505.905	535.2
506.302	520.4
506.72	524.2
507.118	505.6
507.536	515.6
507.955	515.4
508.352	511.6
508.771	520.8
509.169	515.6
509.587	509.8
510.006	515.6
510.404	508.2
510.823	517.2
511.221	518
511.64	510.4
512.038	535.6
512.457	516.8
512.877	520.6
513.275	517.2
513.694	511.4
514.092	514.8
514.512	522
514.91	521.8
515.33	518.8
515.749	521.4
516.148	516.8
516.568	526.6
516.966	519.2
517.386	516.6
517.785	517.4
518.205	525
518.603	516.8
519.024	516.6
519.444	513
519.843	526.8
520.263	523.2
520.662	521.6
521.082	513.8
521.481	521.8
521.902	513.8
522.301	521.2
522.722	514
523.121	514.2
523.542	512.4
523.963	512.4
524.362	503.2
524.783	517.4
525.183	513.2
525.604	510.2
526.003	507.6
526.425	508
526.824	516.4
527.246	521
527.646	525.6
528.067	519
528.467	520.6
528.888	524.6
529.289	519.2
529.71	513.8
530.11	511.8
530.532	515
530.932	515.2
531.354	513.8
531.755	544
532.176	526.4
532.577	514
532.999	519
533.4	515.8
533.822	521.6
534.223	516.2
534.645	514
535.046	516.6
535.468	519.8
535.869	524
536.292	505.4
536.693	549.2
537.115	522.4
537.516	518.6
537.939	510
538.34	530
538.742	528.6
539.165	515
539.566	519.4
539.989	508.6
540.391	510.4
540.814	521.2
541.216	515.4
541.639	518.2
542.041	524.6
542.464	518
542.866	507.2
543.268	512.2
543.691	517
544.093	518
544.517	529
544.919	506.2
545.343	529.2
545.745	508.6
546.147	514.8
546.571	513
546.974	506.6
547.398	518.6
547.8	527.6
548.224	516.4
548.627	509.4
549.03	519.2
549.454	499.4
549.857	506
550.281	511.6
550.684	511.4
551.087	525
551.512	516.8
551.915	521.2
552.34	519.4
552.743	516.8
553.146	521.4
553.571	520
553.975	530.4
554.399	506.8
554.803	554.6
555.207	509
555.632	508.4
556.036	515.2
556.461	510.4
556.865	514.6
557.268	508
557.694	508.2
558.098	509.6
558.502	514.6
558.927	510.4
559.332	514.4
559.736	513.4
560.162	521.8
560.566	514.2
560.992	514.6
561.396	519.2
561.801	512.4
562.227	514.8
562.631	516.8
563.036	510.6
563.462	521.4
563.867	514
564.272	504.2
564.698	516.6
565.103	506
565.508	523.2
565.935	510.6
566.34	514.4
566.745	527.4
567.172	516.6
567.577	531.6
567.982	525.8
568.409	518.2
568.815	513.2
569.22	516.4
569.626	517.4
570.053	509.2
570.459	519.2
570.865	526.4
571.292	516.8
571.698	522.4
572.104	503
572.531	504.2
572.937	522
573.343	507.4
573.75	512.6
574.177	517
574.583	515.2
574.99	511.8
575.396	516.6
575.824	514.8
576.231	509.4
576.637	508.4
577.065	520.8
577.472	507.6
577.879	509
578.286	523.6
578.714	500.2
579.121	499.8
579.528	510.4
579.935	516.2
580.364	502.8
580.771	500.4
581.178	508.6
581.585	519.6
582.014	515.4
582.421	511
582.829	508.2
583.236	511.2
583.644	506.4
584.073	508
584.481	517.4
584.889	512.8
585.296	522
585.726	511
586.134	509.2
586.542	509.6
586.95	530.4
587.358	504
587.787	518.6
588.196	503.6
588.604	506.4
589.012	513
589.421	506.6
589.851	513.6
590.259	514
590.668	506.8
591.076	538.2
591.485	500.4
591.894	509.8
592.324	531.6
592.733	524.4
593.142	507
593.551	515.4
593.96	514.2
594.369	510.4
594.8	505.6
595.209	510.4
595.618	500.4
596.028	504.4
596.437	504.4
596.847	512.8
597.256	509.2
597.687	515.2
598.097	514.6
598.507	501
598.917	508.4
599.327	514.4
599.736	514.6
600.146	519.2
600.556	508.8
600.988	521.4
601.398	516
601.808	516
602.219	498
602.629	514.6
603.039	511.6
603.45	543.6
603.86	515.4
604.271	523.2
604.703	517.2
605.114	509.6
605.525	509.8
605.935	515.4
606.346	528.4
606.757	512.2
607.168	514.6
607.579	515.6
607.99	524.2
608.402	512.6
608.813	517
609.224	515.4
609.636	503.2
610.047	513.2
610.48	515.2
610.892	523.4
611.303	518.8
611.715	517.2
612.127	513.4
612.539	515.4
612.95	516.2
613.362	506.2
613.774	505
614.186	515.4
614.599	508.4
615.011	525.6
615.423	511.4
615.835	507
616.248	509.8
616.66	522.2
617.073	509.2
617.485	512
617.898	521
618.311	512.8
618.723	515.4
619.136	530.8
619.549	523.2
619.962	526
620.375	513
620.788	516.4
621.201	510.2
621.614	518.8
622.028	510.6
622.441	524
622.854	522.2
623.268	506
623.681	516.4
624.095	518
624.509	519.4
624.922	523.8
625.336	505.6
625.728	522.2
626.142	518.2
626.556	523.8
626.97	523.2
627.384	506.8
627.799	520.2
628.213	520.2
628.627	518.6
629.041	512.6
629.456	517.6
629.87	514.2
630.285	525.4
630.699	521.6
631.093	515
631.507	518.8
631.922	517.6
632.337	532.2
632.752	505.4
633.167	515.8
633.582	514.2
633.997	510.8
634.412	514.8
634.806	509.4
635.221	512.6
635.637	520.2
636.052	509.6
636.468	514
636.883	529.4
637.299	514.8
637.715	504.8
638.109	518.6
638.525	503.2
638.941	528.4
639.357	518
639.773	528.8
640.189	512.6
640.584	518
641	514.6
641.416	503.2
641.832	508.8
642.249	511.8
642.665	510.6
643.06	513.8
643.477	519.8
643.894	497.4
644.31	511.2
644.727	507.4
645.123	513.8
645.54	510
645.957	514.8
646.374	523.2
646.77	504.4
647.187	529.8
647.604	514.2
648.021	499.4
648.439	504.6
648.835	520
649.252	514.4
649.67	505.8
650.088	517
650.484	506.6
650.902	512.4
651.32	508
651.738	511.8
652.134	508.4
652.552	528.6
652.971	513.4
653.389	512.2
653.786	523.4
654.204	515.8
654.622	499.4
655.019	509.6
655.438	505.2
655.857	516
656.275	510.4
656.673	505.4
657.091	521
657.51	505.4
657.908	511.8
658.327	519.4
658.746	493.4
659.144	511
659.563	516.6
659.982	517.2
660.38	510.4
660.8	512.8
661.219	529
661.617	512.4
662.037	514.6
662.457	518.6
662.855	498
663.275	537.6
663.695	508.6
664.094	506.6
664.514	512.4
664.934	508.4
665.333	519.2
665.753	506.8
666.152	503.4
666.572	510
666.993	521.4
667.392	504.6
667.812	510.8
668.212	507
668.632	518
669.053	501.4
669.453	523.2
669.874	512.2
670.273	514
670.694	512.6
671.116	525.4
671.515	509.2
671.937	512.6
672.337	504.6
672.758	506
673.158	505.2
673.58	494.4
673.98	508.2
674.402	518.6
674.824	498.8
675.224	502.8
675.646	493.4
676.047	502.6
676.469	505.2
676.869	506.4
677.292	499.4
677.693	496.8
678.115	498.2
678.516	507.4
678.939	503.4
679.34	505
679.762	516.4
680.164	510.2
680.586	505.8
680.988	511.6
681.411	532
681.812	509
682.236	499.8
682.637	501.4
683.061	501
683.462	506.8
683.864	517.8
684.288	513.2
684.69	503
685.114	512
685.516	515.8
685.94	494.8
686.342	513.6
686.766	500.8
687.168	508
687.571	515
687.995	508.2
688.398	504.4
688.822	504.4
689.225	519.8
689.628	514.8
690.052	500.8
690.456	512.2
690.88	516.6
691.284	501.4
691.687	518.6
692.112	501.8
692.515	503
692.919	506.4
693.344	514.8
693.747	504
694.173	503.8
694.577	519.2
694.98	503.6
695.406	512.2
695.81	508
696.214	511.4
696.64	504.4
697.044	505.6
697.448	507.4
697.874	505.4
698.279	498.6
698.684	495
699.11	502.8
699.514	500
699.919	512.8
700.324	498.4
700.75	506.2
701.156	505.6
701.561	512
701.987	515.8
702.393	514.8
702.798	515.6
703.203	507
703.63	506.4
704.036	498.8
704.442	509.8
704.847	502.4
705.274	504.6
705.68	512
706.086	506.8
706.492	500.6
706.92	501.8
707.326	517
707.732	506
708.139	497.2
708.545	501.6
708.973	500.8
709.38	509.6
709.786	495.4
710.193	513.6
710.6	514.4
711.028	493.4
711.435	508.2
711.842	498.6
712.249	497.2
712.656	509.4
713.064	514.8
713.492	502.2
713.9	501
714.307	511.8
714.715	508.4
715.123	504.4
715.53	505.2
715.938	518.2
716.367	508.2
716.775	505.2
717.184	502.4
717.592	501.2
718	510.4
718.408	531.2
718.816	542.4
719.225	503.2
719.633	508.6
720.042	500
720.472	498.8
720.881	525
721.29	504.2
721.699	493.8
722.108	510
722.517	512.8
722.926	506.6
723.335	505.2
723.744	496.8
724.154	512.2
724.563	513.2
724.973	516.4
725.382	502
725.792	509
726.202	498.6
726.612	507
727.022	496.6
727.432	495.8
779.813	505
780.223	541.6
780.634	501.8
781.044	498.8
781.454	501.4
781.865	505.8
782.276	499.8
782.686	517.4
783.097	506
783.508	502.4
783.919	505.6
784.33	514.6
784.741	512.6
785.152	500.8
785.563	493.6
785.974	495.4
786.386	512.6
786.776	504.8
787.188	495.6
787.599	494
788.011	506.8
788.423	511
788.835	506.2
789.247	496.2
789.659	499.8
790.071	494.4
790.483	540.2
790.874	502.8
791.286	504.4
791.699	499
792.111	499.6
792.524	509.6
792.937	503.4
793.349	489
793.741	489.6
794.154	501.2
794.567	518
794.98	498.8
795.393	492.2
795.785	509
796.198	497.8
796.612	503
797.026	498.6
797.439	485
797.831	499.6
798.245	492.2
798.659	500
799.073	500.6
799.487	501.6
799.88	495.2
800.294	511.2
800.708	505
801.123	506.4
801.516	518
801.93	496.2
802.345	494
802.76	498.4
803.153	515.2
803.568	504.6
803.983	501.4
804.377	495.8
804.792	490.8
805.207	491.2
805.601	501.2
806.016	531
806.432	496.8
806.826	526.4
807.242	508
807.658	501.6
808.052	506
808.468	498.4
808.884	493.8
809.279	500.8
809.695	511.8
810.111	521
810.506	505.8
810.922	522.4
811.339	501.4
811.734	514.4
812.151	501
812.546	503.8
812.963	500.8
813.38	505
813.776	500.4
814.193	523
814.589	496.6
815.006	500.8
815.402	497.8
815.82	500.6
816.237	499.2
816.633	509
817.051	500
817.448	496.2
817.866	493.8
818.262	512.2
818.68	495.6
819.077	501
819.495	504.2
819.892	531
820.311	492.4
820.708	495
821.127	489.6
821.524	501.2
821.943	499
822.34	515.8
822.759	496.6
823.157	507.2
823.576	511
823.974	508
824.393	591.8
824.791	501.2
825.189	500.6
825.609	496.8
826.007	501.8
826.427	490.4
826.826	498.4
827.246	503
827.644	489.6
828.043	505.6
828.463	495
828.862	508.2
829.261	501.6
829.682	491.6
830.081	509.2
830.502	498.6
830.901	503.4
831.301	500.8
831.722	489.8
832.121	500.4
832.521	503
832.943	492
833.342	504.2
833.742	497.4
834.164	500.6
834.564	495
834.965	500
835.386	501.6
835.787	498
836.188	511.6
836.588	504
837.01	499
837.411	493.2
837.812	506.4
838.213	504.8
838.636	497.2
839.037	552
839.438	508
839.84	503
840.263	503.6
840.664	505.6
841.066	506.6
841.468	498.2
841.891	499
842.293	519.8
842.695	506.6
843.098	511.2
843.5	495.6
843.902	499.8
844.326	504.8
844.729	491
845.131	510.8
845.534	496.8
845.937	512
846.34	512.6
846.764	497.2
847.167	502
847.571	498.2
847.974	501.8
848.377	499.2
848.781	545.2
849.184	515.6
849.588	493.6
849.992	499.8
850.396	501.8
850.821	511.4
851.225	510
851.63	498.6
852.034	512.6
852.438	495.8
852.843	569.6
853.247	492.6
853.652	493.2
854.057	520.6
854.462	504.2
854.867	501.8
855.272	518.4
855.677	503.2
856.082	501
856.487	495.8
856.893	501.6
857.298	496.8
