#lambda/nm	C1
208.295	469.4
208.67	433.8
209.045	397.2
209.419	400.6
209.794	545.2
210.169	523
210.544	622.8
210.919	534.8
211.295	528.6
211.67	543.2
212.045	535.6
212.421	535
212.796	561.4
213.172	527.6
213.547	529
213.923	536
214.299	530.2
214.675	543.4
215.051	538.2
215.427	545.6
215.803	557.4
216.179	539.2
216.555	533
216.932	549
217.308	527
217.684	535.6
218.061	539.2
218.438	540.2
218.814	537.2
219.191	548.4
219.568	526.8
219.945	532.2
220.322	546
220.699	541
221.076	540.6
221.453	544.8
221.83	532.8
222.208	532.2
222.585	531.2
222.962	530.6
223.34	534.6
223.717	528.8
224.095	529.2
224.473	536
224.851	529.2
225.229	529.8
225.607	546.8
225.985	531.6
226.363	542.4
226.741	541.8
227.119	538.2
227.497	554.2
227.876	525
228.254	540.2
228.633	536.8
229.011	544.4
229.39	546.2
229.769	538.4
230.148	537
230.527	548
230.905	536.4
231.284	537.6
231.664	532.8
232.043	552.8
232.422	542
232.801	533.6
233.181	540.4
233.56	540.8
233.94	540
234.319	526.4
234.699	535.8
235.079	573
235.458	574.4
235.838	545.4
236.218	529.8
236.598	519
236.978	527.6
237.358	537.2
237.738	524.2
238.119	538
238.499	525.6
238.88	531.2
239.26	553.6
239.641	523.8
240.021	523.6
240.402	530
240.783	542.4
241.163	528.8
241.544	533.2
241.925	532
242.306	552
242.687	531.8
243.069	542.2
243.45	544.4
243.831	535
244.212	528.6
244.594	567.2
244.975	546.6
245.357	541.6
245.739	533
246.12	534.4
246.502	547.8
246.884	541.6
247.266	533.2
247.648	539
248.03	549.4
248.412	531.6
248.794	538
249.176	524.4
249.559	537.8
249.941	535.4
250.323	530.2
250.706	530.8
251.089	534.6
251.471	539.4
251.854	538
252.237	528.6
252.62	549.2
253.002	539.6
253.385	535.2
253.769	549.2
254.152	531.4
254.535	548.2
254.918	526
255.301	534.8
255.685	538.6
256.068	537.6
256.452	559
256.835	546
257.219	538.2
257.603	545.2
257.986	533.4
258.37	540.2
258.754	524.6
259.138	543.6
259.522	543.6
259.906	546.6
260.29	540
260.675	535.6
261.059	532.6
261.443	535.8
261.828	542.4
262.212	536.4
262.597	530
262.981	537
263.366	536.8
263.751	542.8
264.136	524.8
264.521	527.6
264.906	526.2
265.291	544.2
265.676	528
266.061	547
266.446	549.4
266.831	537.6
267.217	544.6
267.602	538.6
267.987	533.6
268.373	537.4
268.759	544.2
269.144	550.4
269.53	538.8
269.916	536.6
270.302	531.4
270.688	539.6
271.074	532.8
271.46	546.6
271.846	561.4
272.232	537.8
272.618	529.8
273.004	537.2
273.391	554.2
273.777	547.2
274.164	540.6
274.55	549.6
274.937	535
275.324	533
275.71	537.8
276.097	542
276.484	526.2
276.871	535.8
277.258	541.8
277.645	520.6
278.032	533.8
278.419	532.2
278.807	534.8
279.194	532
279.581	524
279.969	541.4
280.356	536.2
280.744	530.6
281.131	555.6
281.519	544.2
281.907	538.8
282.295	538.4
282.682	543.4
283.07	545.6
283.458	542.8
283.846	542
284.235	545.4
284.623	542.4
285.011	531.2
285.399	548
285.788	538.2
286.176	527
286.565	539.6
286.953	523
287.342	534
287.731	529.2
288.119	528.6
288.508	526.2
288.897	524.8
289.286	530.2
289.675	539.4
290.064	545.2
290.453	534.8
290.821	538.6
291.21	554.4
291.599	529.4
291.989	537
292.378	537.2
292.768	558.8
293.157	539
293.547	544.4
293.936	537.2
294.326	533.6
294.716	529.6
295.106	529.2
295.496	532.2
295.886	543.8
296.276	533.8
296.666	524.6
297.056	533.8
297.446	523.6
297.836	555.2
298.227	543.6
298.617	534.6
299.008	545.2
299.398	529.8
299.789	532.8
300.179	540
300.57	542.6
300.961	527.2
301.352	526.4
301.742	536.2
302.133	533.6
302.524	533
302.915	525.6
303.307	531.6
303.698	541.2
304.089	539.2
304.48	534
304.872	538.8
305.263	534.6
305.655	527.2
306.046	539.2
306.438	538.2
306.829	538.6
307.221	545
307.613	545.6
308.005	541.6
308.397	544.8
308.789	549.2
309.181	552.4
309.573	542.2
309.965	546.4
310.357	533
310.749	543
311.142	531.6
311.534	533
311.926	544
312.319	533.4
312.711	531
313.104	542.4
313.497	540.4
313.889	572.2
314.282	550.8
314.675	557.8
315.068	543.4
315.461	547
315.854	564.4
316.247	549.6
316.64	536.4
317.033	534
317.405	544.2
317.798	538.4
318.192	541
318.585	537.4
318.979	539.2
319.372	531.8
319.766	538.8
320.16	546.6
320.553	548.2
320.947	548
321.341	533.6
321.735	540.8
322.129	528.4
322.523	555.2
322.917	534.6
323.311	538.2
323.705	537.8
324.099	534.6
324.494	545.8
324.888	545
325.282	531.2
325.677	549
326.071	540.6
326.466	542.6
326.861	536.4
327.255	545.2
327.65	550.4
328.045	548
328.44	535.6
328.835	540.4
329.23	531.2
329.625	559.6
330.02	534.4
330.415	555.4
330.81	536
331.206	533.6
331.601	534.4
331.996	539.4
332.37	552.4
332.766	531.8
333.161	551
333.557	535.8
333.953	534.8
334.348	811.6
334.744	530.8
335.14	529.2
335.536	528.6
335.932	543.4
336.328	534.4
336.724	540.4
337.12	538.6
337.516	540.8
337.913	538.2
338.309	546.8
338.705	535.2
339.102	545.2
339.498	529.8
339.895	547.4
340.291	540
340.688	539.2
341.085	523.2
341.481	536.6
341.878	536.2
342.275	552.6
342.672	537.2
343.069	533.6
343.466	523.4
343.842	533.2
344.239	532.6
344.636	534.2
345.033	531.8
345.431	533.4
345.828	532.8
346.225	530
346.623	561.4
347.02	534
347.418	539.2
347.816	542.6
348.213	520.6
348.611	535
349.009	524
349.407	541.4
349.805	520.8
350.203	518.4
350.601	543
350.999	522.8
351.397	570.8
351.795	531.2
352.193	544
352.57	542.2
352.969	541.2
353.367	522.8
353.766	526.4
354.164	528.2
354.563	543.8
354.961	536
355.36	527.2
355.759	535.4
356.158	528.4
356.557	527.8
356.956	531
357.355	523
357.754	540.6
358.153	545.2
358.552	548.4
358.951	535.6
359.35	542.8
359.75	531.6
360.149	524.8
360.527	516.2
360.926	518.2
361.326	538.4
361.726	530.2
362.125	526
362.525	532
362.925	526.6
363.325	523.2
363.724	529.2
364.124	522.4
364.524	527
364.924	530.2
365.324	536.6
365.725	519.6
366.125	536.6
366.525	532.8
366.904	528
367.304	511.2
367.705	548.8
368.105	538
368.506	526.8
368.906	534.8
369.307	529.2
369.708	535.2
370.108	520
370.509	531
370.91	520.8
371.311	529
371.712	527.6
372.113	528.8
372.514	524.4
372.894	527.8
373.295	517.6
373.696	541.4
374.097	529.8
374.499	552.2
374.9	540.4
375.301	522
375.703	523.4
376.105	520
376.506	531.2
376.908	529.2
377.309	531.4
377.711	525
378.113	519.4
378.493	523.8
378.895	526.8
379.297	541.6
379.699	520
380.102	524.4
380.504	537.2
380.906	521
381.308	546.6
381.71	526.8
382.113	530
382.515	528.8
382.918	538.8
383.299	530
383.701	538.2
384.104	526.2
384.507	513.2
384.909	520.2
385.312	525.4
385.715	517.8
386.118	522
386.521	512.6
386.924	535.2
387.327	519.8
387.709	509.2
388.112	512
388.515	524.4
388.918	523.4
389.322	531.4
389.725	515
390.129	540.4
390.532	525.8
390.936	519.6
391.339	519.6
391.743	524.4
392.125	524.2
392.529	531.4
392.933	542.4
393.337	521.8
393.74	527.8
394.144	532.6
394.548	528.8
394.953	527
395.357	532.4
395.761	528
396.144	530.6
396.548	527.2
396.952	526.2
397.357	524
397.761	518
398.166	523
398.57	528.6
398.975	518
399.379	534.2
399.763	565.6
400.168	528
400.572	523
400.977	522.6
401.382	543.8
401.787	542
402.192	538.8
402.597	542.6
403.002	511.8
403.386	536.8
403.791	541.4
404.197	519.4
404.602	522.8
405.007	531.2
405.413	521.2
405.818	526.8
406.224	525.4
406.608	515.4
407.014	522.4
407.42	535.2
407.825	521.8
408.231	538
408.637	533.4
409.043	537.6
409.449	521
409.834	528.2
410.24	530.4
410.646	535
411.052	540.4
411.458	530.2
411.865	533.4
412.271	539.4
412.677	533.8
413.062	538.8
413.469	522.2
413.875	552.2
414.282	541.8
414.689	531.6
415.095	530.6
415.502	525.2
415.888	528.4
416.294	517.2
416.701	559.8
417.108	521
417.515	535.8
417.923	521.4
418.33	543.6
418.715	529.2
419.123	525.8
419.53	528.8
419.937	527.6
420.345	535.4
420.752	523.2
421.16	534.4
421.546	527.8
421.953	534.8
422.361	525.4
422.769	531.8
423.177	518.6
423.585	548.6
423.992	542.2
424.379	536.8
424.787	530.6
425.195	544.2
425.603	529
426.011	539.4
426.419	544
426.806	532.8
427.214	532.8
427.623	532.2
428.031	543
428.44	529.6
428.848	538.8
429.235	546.2
429.644	528.8
430.053	527.2
430.461	535.8
430.87	543
431.279	534.6
431.666	522.8
432.075	527.4
432.484	523.8
432.893	526
433.302	541.4
433.711	562.6
434.099	534.8
434.508	526.6
434.918	530.4
435.327	535.2
435.737	528.8
436.125	529.6
436.534	531.2
436.944	532.2
437.353	534.2
437.763	547.2
438.173	526
438.561	546.4
438.971	519
439.381	534.2
439.791	537
440.201	513.2
440.589	529.6
440.999	526.6
441.409	525.2
441.819	512.4
442.23	527.6
442.619	535.2
443.029	524
443.439	528.8
443.85	533.8
444.26	543.8
444.649	534
445.06	525.4
445.471	525.4
445.881	522.4
446.292	538.8
446.682	553.2
447.092	518.4
447.503	565.2
447.914	522.8
448.325	523.6
448.715	525.8
449.126	518.4
449.537	521.4
449.948	523.6
450.338	522.2
450.75	536.4
451.161	525.4
451.572	531
451.984	522
452.374	522.8
452.786	524.4
453.197	529.4
453.609	531.4
453.999	515.2
454.411	526
454.823	528.4
455.235	531.4
455.647	524
456.037	528.6
456.449	515.6
456.862	531.4
457.274	535.8
457.665	529.4
458.077	532.6
458.489	552.4
458.902	522.6
459.293	521.8
459.705	518.6
460.118	521
460.53	524.2
460.921	532
461.334	531
461.747	529.2
462.16	536.6
462.551	535.6
462.964	524
463.377	515.4
463.79	516
464.182	527.8
464.595	516
465.008	533
465.421	529.4
465.813	524.6
466.226	529.4
466.64	518.6
467.053	566.2
467.445	530.4
467.859	537.2
468.272	525.6
468.686	538.2
469.078	523.8
469.492	511
469.906	525.8
470.298	533.4
470.712	524.2
471.126	547.8
471.54	509.4
471.933	510
472.347	521.4
472.761	514.8
473.175	516.2
473.568	520.2
473.982	514.2
474.397	523.8
474.79	521.2
475.204	526.4
475.619	516.4
476.033	526
476.426	520.8
476.841	515.8
477.256	534.8
477.649	512.2
478.064	519
478.479	517.4
478.872	517.6
479.287	508
479.702	511.2
480.118	512.8
480.511	520.4
480.927	518.6
481.342	520.8
481.736	516.8
482.151	518.2
482.566	524.2
482.96	516.2
483.376	527.4
483.792	517.4
484.186	525.8
484.602	515
485.017	522.2
485.412	517.6
485.827	526.4
486.243	522
486.638	532.8
487.054	533.4
487.47	520.6
487.865	519.2
488.281	514
488.697	508.8
489.092	507.8
489.508	513.6
489.925	523.4
490.32	515.2
490.736	531
491.153	521.2
491.548	530
491.964	530.2
492.381	511.6
492.776	519
493.193	519.2
493.61	529
494.006	525
494.422	517.4
494.84	509.8
495.235	519.6
495.652	521.2
496.069	518.2
496.465	506.2
496.883	510.4
497.3	535.4
497.696	514.4
498.113	524
498.509	514.2
498.927	509.6
499.344	510.8
499.741	517
500.158	526.8
500.576	524.4
500.973	522.6
501.39	502.6
501.787	511.8
502.205	517
502.623	513
503.02	515.4
503.438	509.4
503.856	523.4
504.253	521.8
504.671	514.8
505.068	513.2
505.486	515
505.905	528.8
506.302	517.4
506.72	530.4
507.118	517.8
507.536	515.6
507.955	512
508.352	512.2
508.771	527.8
509.169	522.6
509.587	510.8
510.006	515.2
510.404	507.8
510.823	514.4
511.221	512.6
511.64	511
512.038	525.4
512.457	514.4
512.877	511
513.275	507
513.694	521.6
514.092	511.8
514.512	521.2
514.91	523.6
515.33	516.4
515.749	515.2
516.148	511.2
516.568	525.8
516.966	514.6
517.386	512.2
517.785	517.4
518.205	507
518.603	508
519.024	518
519.444	518.2
519.843	528.8
520.263	532.8
520.662	524.8
521.082	516.8
521.481	525.8
521.902	524.2
522.301	521.8
522.722	521
523.121	511.6
523.542	517.6
523.963	517
524.362	516.4
524.783	521.8
525.183	514.4
525.604	524.8
526.003	509.4
526.425	510.6
526.824	524.6
527.246	521.4
527.646	524
528.067	520.2
528.467	518
528.888	512.2
529.289	518.4
529.71	512.4
530.11	518.2
530.532	516.2
530.932	512
531.354	511.6
531.755	538.4
532.176	519.4
532.577	513
532.999	513.4
533.4	510.2
533.822	531.6
534.223	516.6
534.645	511.4
535.046	517.8
535.468	523
535.869	523
536.292	505.8
536.693	540.6
537.115	522.6
537.516	511.6
537.939	514.4
538.34	528.8
538.742	521.6
539.165	523.8
539.566	512.6
539.989	512.6
540.391	511.8
540.814	513.2
541.216	511
541.639	510.2
542.041	527.8
542.464	517.6
542.866	503
543.268	510.6
543.691	520.6
544.093	514.8
544.517	534.2
544.919	517
545.343	528.4
545.745	510.6
546.147	514.4
546.571	510
546.974	507.4
547.398	513.6
547.8	527.2
548.224	512
548.627	517
549.03	511.6
549.454	511.4
549.857	499.8
550.281	511.6
550.684	510.4
551.087	521.6
551.512	516
551.915	517.6
552.34	508.2
552.743	505.2
553.146	520
553.571	509.6
553.975	528.4
554.399	510
554.803	556
555.207	514.4
555.632	508.2
556.036	515.6
556.461	507.8
556.865	514
557.268	501.6
557.694	511.2
558.098	521.2
558.502	519
558.927	507.4
559.332	511.4
559.736	509.6
560.162	518
560.566	518.2
560.992	522.8
561.396	517.8
561.801	505.4
562.227	516.2
562.631	512.2
563.036	512.6
563.462	516.6
563.867	513
564.272	508.2
564.698	520.6
565.103	510.8
565.508	528.2
565.935	521.2
566.34	516.4
566.745	529.6
567.172	512.2
567.577	531.6
567.982	523.4
568.409	514
568.815	504.8
569.22	517.4
569.626	525.2
570.053	506.8
570.459	520.4
570.865	519
571.292	513
571.698	513.6
572.104	503.4
572.531	510.2
572.937	519.6
573.343	513
573.75	507.2
574.177	516.6
574.583	508
574.99	509.8
575.396	517.2
575.824	512.6
576.231	515.2
576.637	506
577.065	532.6
577.472	505
577.879	510
578.286	522.4
578.714	503.4
579.121	511.8
579.528	511.4
579.935	518.2
580.364	519.2
580.771	504.2
581.178	505.4
581.585	516.4
582.014	516.6
582.421	505
582.829	510.2
583.236	519.6
583.644	504
584.073	511.4
584.481	517.2
584.889	520.4
585.296	512
585.726	515
586.134	509.4
586.542	506.4
586.95	529.6
587.358	498.2
587.787	516.4
588.196	503.8
588.604	510
589.012	522.2
589.421	501.2
589.851	509
590.259	513.2
590.668	511.4
591.076	537.4
591.485	498.2
591.894	514
592.324	515.2
592.733	519.4
593.142	499.2
593.551	511.2
593.96	539.8
594.369	500
594.8	511.8
595.209	511.4
595.618	502.8
596.028	497.2
596.437	501.6
596.847	507.4
597.256	513.6
597.687	515.2
598.097	508.2
598.507	505.6
598.917	508.8
599.327	520.4
599.736	520.4
600.146	517.8
600.556	514.6
600.988	521.2
601.398	509.8
601.808	519.4
602.219	504.8
602.629	515.4
603.039	514.2
603.45	534
603.86	512.2
604.271	521
604.703	518.2
605.114	509.4
605.525	524.8
605.935	513.8
606.346	528
606.757	516.4
607.168	517.6
607.579	504.4
607.99	528.6
608.402	512.2
608.813	518.8
609.224	515
609.636	504.2
610.047	513.2
610.48	521
610.892	514
611.303	518.4
611.715	509.2
612.127	515.4
612.539	512.6
612.95	520.2
613.362	502.6
613.774	506.8
614.186	515.4
614.599	507.2
615.011	527.4
615.423	515.6
615.835	502.4
616.248	512.6
616.66	522.4
617.073	509.4
617.485	513.6
617.898	521.2
618.311	515.2
618.723	515.2
619.136	544
619.549	523
619.962	539.6
620.375	514
620.788	520.4
621.201	511.6
621.614	519.4
622.028	520
622.441	528.2
622.854	521
623.268	511.8
623.681	519.6
624.095	523.8
624.509	527.4
624.922	520.4
625.336	506
625.728	516.8
626.142	523.8
626.556	532.6
626.97	529.8
627.384	513.2
627.799	515.2
628.213	520
628.627	523.8
629.041	515.6
629.456	520.2
629.87	519.8
630.285	522.8
630.699	523
631.093	517.2
631.507	518.4
631.922	519.4
632.337	530.8
632.752	509.8
633.167	526.6
633.582	507.4
633.997	514.4
634.412	512.2
634.806	513
635.221	508.4
635.637	526.2
636.052	510.2
636.468	517.2
636.883	527.4
637.299	514.6
637.715	508.6
638.109	526.6
638.525	500
638.941	527.6
639.357	520.4
639.773	525.6
640.189	512
640.584	509.2
641	519.2
641.416	509.2
641.832	513
642.249	507
642.665	511.4
643.06	513.6
643.477	519.4
643.894	498.6
644.31	509.4
644.727	510.8
645.123	514.6
645.54	499.8
645.957	519.6
646.374	526.4
646.77	510.6
647.187	537.8
647.604	515
648.021	504.2
648.439	503.6
648.835	516.6
649.252	510
649.67	508.4
650.088	508.8
650.484	513.8
650.902	518.4
651.32	514.4
651.738	503.8
652.134	512.2
652.552	523.4
652.971	509.6
653.389	518.6
653.786	510.8
654.204	509.8
654.622	503.6
655.019	511.4
655.438	508.6
655.857	518
656.275	513.2
656.673	504.4
657.091	520.4
657.51	508.4
657.908	522.4
658.327	525.8
658.746	505.4
659.144	506
659.563	516.8
659.982	516
660.38	503
660.8	510
661.219	515
661.617	519.8
662.037	513.2
662.457	522.6
662.855	493.6
663.275	543
663.695	513.2
664.094	512.4
664.514	510.8
664.934	507.6
665.333	510
665.753	508.6
666.152	504
666.572	503.8
666.993	517.6
667.392	500.6
667.812	509.8
668.212	499.2
668.632	513
669.053	502
669.453	510.4
669.874	510.8
670.273	508.8
670.694	501.2
671.116	512.2
671.515	518.2
671.937	512.4
672.337	503.8
672.758	495.6
673.158	513.4
673.58	496.6
673.98	504.8
674.402	518.2
674.824	505.8
675.224	502.4
675.646	495.8
676.047	504.6
676.469	501.8
676.869	511
677.292	502.6
677.693	504.2
678.115	499.2
678.516	508.8
678.939	511.4
679.34	505
679.762	512.8
680.164	510.2
680.586	503.8
680.988	511.2
681.411	533.2
681.812	511
682.236	501.6
682.637	502.6
683.061	500
683.462	505.2
683.864	506.8
684.288	509.2
684.69	495.4
685.114	512.6
685.516	517.8
685.94	495.4
686.342	510.8
686.766	501.2
687.168	502.2
687.571	518.6
687.995	509.8
688.398	499.6
688.822	501.4
689.225	514.8
689.628	521.6
690.052	498
690.456	511
690.88	497.6
691.284	498.2
691.687	515.8
692.112	501
692.515	499.4
692.919	504.2
693.344	503.4
693.747	504.4
694.173	497.4
694.577	514.2
694.98	506
695.406	502.4
695.81	503.6
696.214	507.8
696.64	508.8
697.044	510.8
697.448	514.2
697.874	504.8
698.279	503.4
698.684	494.2
699.11	505.4
699.514	503.2
699.919	511
700.324	499.4
700.75	508
701.156	506.8
701.561	513.2
701.987	511.2
702.393	514.6
702.798	516
703.203	506.4
703.63	497
704.036	498.8
704.442	512.6
704.847	499.6
705.274	516
705.68	507.8
706.086	510.2
706.492	506.6
706.92	506.2
707.326	506.4
707.732	511.4
708.139	503
708.545	491.4
708.973	507.8
709.38	507.4
709.786	498.2
710.193	510.8
710.6	508.2
711.028	494.6
711.435	496.2
711.842	508.6
712.249	499.6
712.656	510.4
713.064	513
713.492	491.8
713.9	505
714.307	509.6
714.715	509.2
715.123	509.4
715.53	507.6
715.938	514.4
716.367	509.6
716.775	505.8
717.184	498.4
717.592	508.2
718	509.6
718.408	533
718.816	545
719.225	510.2
719.633	502.2
720.042	498.4
720.472	508.2
720.881	518
721.29	501.2
721.699	500.6
722.108	508
722.517	506.6
722.926	499.8
723.335	510.6
723.744	501
724.154	504
724.563	509.8
724.973	502.8
725.382	505.2
725.792	512.2
726.202	498.6
726.612	512
727.022	501.2
727.432	491.2
779.813	507.8
780.223	544
780.634	500.2
781.044	501.4
781.454	495.4
781.865	514
782.276	495.2
782.686	514.6
783.097	505.4
783.508	500
783.919	502.4
784.33	511.2
784.741	514.2
785.152	498
785.563	490.6
785.974	508.4
786.386	504.8
786.776	499.2
787.188	511.4
787.599	496.4
788.011	507.4
788.423	500
788.835	503.2
789.247	493.2
789.659	500.2
790.071	499.2
790.483	532
790.874	497
791.286	512.6
791.699	500
792.111	499
792.524	499.4
792.937	502.8
793.349	501.2
793.741	502
794.154	499.8
794.567	518.2
794.98	505.2
795.393	493.2
795.785	515.4
796.198	490
796.612	508.6
797.026	500.8
797.439	494.4
797.831	496
798.245	502.6
798.659	500.6
799.073	495
799.487	498.2
799.88	506.8
800.294	504.6
800.708	502.2
801.123	498
801.516	520
801.93	488.4
802.345	495.4
802.76	493.4
803.153	516
803.568	511.2
803.983	509.4
804.377	505.4
804.792	491.2
805.207	489.6
805.601	495.2
806.016	534.2
806.432	497.4
806.826	525
807.242	512.2
807.658	507.6
808.052	498.2
808.468	497.8
808.884	499.2
809.279	502.2
809.695	518.6
810.111	514.4
810.506	495.4
810.922	518.8
811.339	496
811.734	508.6
812.151	496
812.546	503.6
812.963	505.2
813.38	503.8
813.776	504.6
814.193	515.6
814.589	494.2
815.006	504.8
815.402	498.6
815.82	498
816.237	500.2
816.633	491
817.051	495.4
817.448	499.6
817.866	490
818.262	520.4
818.68	500.2
819.077	496
819.495	501.8
819.892	527.6
820.311	493
820.708	494
821.127	499
821.524	513.6
821.943	496.6
822.34	506.2
822.759	500.4
823.157	498
823.576	509.8
823.974	509
824.393	551.4
824.791	503.4
825.189	495.6
825.609	501.8
826.007	497.4
826.427	496
826.826	498.2
827.246	501.6
827.644	492
828.043	511.4
828.463	501.2
828.862	513.6
829.261	503.6
829.682	487
830.081	506.4
830.502	497.8
830.901	503.4
831.301	498
831.722	487
832.121	498.6
832.521	496.8
832.943	493
833.342	500.4
833.742	491.8
834.164	491.2
834.564	490.6
834.965	498.8
835.386	499.6
835.787	491.8
836.188	497.4
836.588	490.6
837.01	492.2
837.411	496.2
837.812	502.4
838.213	500.4
838.636	487
839.037	555
839.438	492.6
839.84	502.4
840.263	501.6
840.664	503.2
841.066	491.8
841.468	501.4
841.891	497.4
842.293	510.2
842.695	505.2
843.098	506.8
843.5	503
843.902	501.4
844.326	499
844.729	497.4
845.131	505.6
845.534	501.8
845.937	502.6
846.34	517.4
846.764	495.2
847.167	501.4
847.571	494.6
847.974	500.8
848.377	495.8
848.781	536
849.184	513
849.588	495.6
849.992	493
850.396	501.8
850.821	517
851.225	501
851.63	499.6
852.034	509.8
852.438	502.6
852.843	529.6
853.247	502
853.652	503.4
854.057	510.8
854.462	503
854.867	506.2
855.272	531.6
855.677	508.4
856.082	496
856.487	488.2
