#lambda/nm	C1
208.295	470.2
208.67	433
209.045	397.2
209.419	396.4
209.794	538.6
210.169	524
210.544	629.6
210.919	538
211.295	533.6
211.67	536.6
212.045	534.2
212.421	531.8
212.796	578.2
213.172	532.4
213.547	535.8
213.923	536.6
214.299	530.6
214.675	545
215.051	544
215.427	543
215.803	558.8
216.179	541
216.555	528
216.932	540.2
217.308	540
217.684	535
218.061	547
218.438	547
218.814	535.2
219.191	549
219.568	530.6
219.945	536
220.322	546
220.699	539.8
221.076	545.6
221.453	541.4
221.83	525
222.208	535.6
222.585	534.6
222.962	539.2
223.34	539.6
223.717	535.8
224.095	531.6
224.473	534.2
224.851	525
225.229	527.8
225.607	550
225.985	528
226.363	533.8
226.741	534.6
227.119	537.6
227.497	548.6
227.876	525.6
228.254	535
228.633	535.6
229.011	535.8
229.39	539
229.769	542.6
230.148	544.6
230.527	554
230.905	540.6
231.284	540.4
231.664	532.4
232.043	551.4
232.422	541
232.801	530.2
233.181	543.2
233.56	536.6
233.94	539.2
234.319	524.6
234.699	533.6
235.079	574.2
235.458	565.2
235.838	551.6
236.218	526.4
236.598	529.2
236.978	534.4
237.358	532.2
237.738	531.6
238.119	543
238.499	530
238.88	537.2
239.26	547.2
239.641	534.4
240.021	537.6
240.402	538
240.783	533.6
241.163	540
241.544	532.6
241.925	528.4
242.306	547
242.687	534
243.069	539.2
243.45	545.6
243.831	528.2
244.212	537.4
244.594	566.2
244.975	540
245.357	541.8
245.739	534.6
246.12	541
246.502	547
246.884	529
247.266	537.6
247.648	532.8
248.03	551.2
248.412	541.6
248.794	532.2
249.176	533.8
249.559	550.2
249.941	533.2
250.323	533.6
250.706	534.6
251.089	537.6
251.471	540.6
251.854	538.6
252.237	529.4
252.62	541.8
253.002	537.2
253.385	541.2
253.769	549.6
254.152	536.4
254.535	543.8
254.918	532.2
255.301	539
255.685	530.8
256.068	532.2
256.452	550.8
256.835	552
257.219	543
257.603	543.2
257.986	538
258.37	543
258.754	536.4
259.138	540.4
259.522	543.2
259.906	538.4
260.29	535
260.675	539.4
261.059	539.4
261.443	527.8
261.828	541.4
262.212	545.4
262.597	530.6
262.981	537.8
263.366	540.6
263.751	539.4
264.136	530.2
264.521	528
264.906	530.8
265.291	541.6
265.676	535.4
266.061	533.2
266.446	550.2
266.831	529.2
267.217	543
267.602	543.4
267.987	536.2
268.373	533
268.759	547.2
269.144	544
269.53	535.6
269.916	534.2
270.302	536.6
270.688	542.2
271.074	543.4
271.46	546.2
271.846	562.6
272.232	542.4
272.618	533
273.004	531.8
273.391	548.2
273.777	539.2
274.164	544.6
274.55	543.6
274.937	540.6
275.324	540.6
275.71	543.2
276.097	550.2
276.484	533.8
276.871	539.6
277.258	538.2
277.645	523.4
278.032	534.6
278.419	533.2
278.807	540.2
279.194	533.4
279.581	535.2
279.969	546
280.356	542.4
280.744	536
281.131	559.2
281.519	548
281.907	539.4
282.295	528.2
282.682	541.4
283.07	541.8
283.458	548.8
283.846	553.6
284.235	535.2
284.623	546.8
285.011	526.8
285.399	542.6
285.788	536.6
286.176	523.2
286.565	546.6
286.953	534.6
287.342	536.8
287.731	533.4
288.119	533
288.508	534.4
288.897	536.2
289.286	523.2
289.675	540.6
290.064	547.8
290.453	534.6
290.821	537.2
291.21	548.2
291.599	528.8
291.989	540.4
292.378	541
292.768	554.4
293.157	542.2
293.547	543.6
293.936	541.4
294.326	533
294.716	543.2
295.106	534
295.496	539.8
295.886	543.4
296.276	545.4
296.666	531.2
297.056	525.2
297.446	526.2
297.836	547.2
298.227	536.8
298.617	538.6
299.008	547.8
299.398	536.8
299.789	538.8
300.179	542
300.57	540.8
300.961	541.2
301.352	531
301.742	543.8
302.133	541.2
302.524	530
302.915	544
303.307	530.2
303.698	541.6
304.089	539
304.48	532.6
304.872	542.6
305.263	535
305.655	531.2
306.046	544.2
306.438	542.6
306.829	535
307.221	551.4
307.613	546.4
308.005	554.6
308.397	547.8
308.789	555.4
309.181	560
309.573	548.6
309.965	541
310.357	536.2
310.749	547.6
311.142	531.8
311.534	532.4
311.926	547.8
312.319	536.2
312.711	531.6
313.104	554.8
313.497	539.8
313.889	568.6
314.282	548.2
314.675	556.4
315.068	540.8
315.461	547
315.854	564.6
316.247	545.4
316.64	534.6
317.033	537.2
317.405	549.6
317.798	540.8
318.192	545
318.585	535.2
318.979	547.2
319.372	524.8
319.766	537.4
320.16	543.4
320.553	549
320.947	547.4
321.341	533
321.735	528.4
322.129	529.4
322.523	553.2
322.917	525
323.311	544.8
323.705	541
324.099	542.4
324.494	546.2
324.888	539.8
325.282	536
325.677	549
326.071	538.2
326.466	544.2
326.861	538
327.255	543.6
327.65	543.2
328.045	546.4
328.44	540.6
328.835	532.4
329.23	537.2
329.625	553.2
330.02	541.2
330.415	553.8
330.81	547.6
331.206	530.2
331.601	536.8
331.996	541.8
332.37	555.2
332.766	527.4
333.161	557.4
333.557	534
333.953	539.2
334.348	831.6
334.744	546
335.14	536
335.536	530.4
335.932	549.2
336.328	535.8
336.724	550.8
337.12	530.8
337.516	543.4
337.913	535
338.309	546.8
338.705	543.4
339.102	547.8
339.498	539.4
339.895	544
340.291	533.8
340.688	544.2
341.085	528.6
341.481	537.6
341.878	534.8
342.275	551
342.672	532.4
343.069	536.6
343.466	526
343.842	542
344.239	529.6
344.636	523.4
345.033	528.4
345.431	517.6
345.828	534.4
346.225	526.4
346.623	558.2
347.02	530.6
347.418	549
347.816	551.6
348.213	525.4
348.611	530.2
349.009	531.4
349.407	546.8
349.805	526.6
350.203	525.6
350.601	540.8
350.999	535.2
351.397	579.8
351.795	530.6
352.193	548.8
352.57	539.4
352.969	549.2
353.367	532.4
353.766	530.2
354.164	532
354.563	541.4
354.961	530.8
355.36	528.8
355.759	530.4
356.158	530.2
356.557	534
356.956	529.8
357.355	526
357.754	542
358.153	539.8
358.552	557.2
358.951	543.2
359.35	535.6
359.75	532.4
360.149	533
360.527	526.4
360.926	528.4
361.326	532.4
361.726	529.6
362.125	529.4
362.525	529.6
362.925	528.6
363.325	534.2
363.724	535.8
364.124	532.8
364.524	527.2
364.924	534
365.324	542
365.725	517
366.125	537
366.525	524.8
366.904	528.2
367.304	519.8
367.705	542
368.105	550.2
368.506	534.2
368.906	526.8
369.307	526.4
369.708	538.6
370.108	520.8
370.509	534.2
370.91	528
371.311	540.8
371.712	536
372.113	532.2
372.514	516
372.894	536.8
373.295	527.4
373.696	538.4
374.097	538.4
374.499	562
374.9	538.8
375.301	531.6
375.703	531.4
376.105	525.2
376.506	533.4
376.908	539.4
377.309	527.6
377.711	532.2
378.113	528.4
378.493	532.4
378.895	527.8
379.297	547
379.699	525.4
380.102	537
380.504	540
380.906	526.4
381.308	554.4
381.71	528
382.113	544.2
382.515	530.2
382.918	531.6
383.299	534.6
383.701	537.8
384.104	537
384.507	514
384.909	527.8
385.312	521.4
385.715	524.8
386.118	527.8
386.521	518.2
386.924	537.4
387.327	527.2
387.709	519.8
388.112	520.8
388.515	531.8
388.918	526.6
389.322	535.2
389.725	524.8
390.129	545.6
390.532	536
390.936	525.8
391.339	522.4
391.743	535.8
392.125	525.2
392.529	539
392.933	539
393.337	521.2
393.74	526.6
394.144	537
394.548	521.6
394.953	524.6
395.357	535.6
395.761	523.8
396.144	529.4
396.548	531.2
396.952	533.2
397.357	524.8
397.761	523.8
398.166	526.8
398.57	524.8
398.975	516.6
399.379	532.4
399.763	575.2
400.168	529.6
400.572	519
400.977	524.6
401.382	540.4
401.787	530.4
402.192	536.6
402.597	536.6
403.002	520
403.386	535
403.791	542.4
404.197	522.2
404.602	535.2
405.007	530
405.413	535.2
405.818	534.2
406.224	524
406.608	528
407.014	518.6
407.42	543.8
407.825	529
408.231	539.6
408.637	534.8
409.043	543.8
409.449	520.6
409.834	521.6
410.24	528.4
410.646	531.8
411.052	528.2
411.458	534.8
411.865	542.6
412.271	543.4
412.677	529
413.062	536.2
413.469	523.2
413.875	557.6
414.282	547.8
414.689	530.6
415.095	540.4
415.502	519.8
415.888	537.4
416.294	510.6
416.701	567.4
417.108	523
417.515	535.2
417.923	532.4
418.33	540.8
418.715	529.6
419.123	520.2
419.53	531.4
419.937	528.6
420.345	538.4
420.752	521.6
421.16	537.8
421.546	526.6
421.953	529
422.361	518.6
422.769	532.4
423.177	521.8
423.585	547
423.992	553.4
424.379	533
424.787	540.6
425.195	547.8
425.603	531.6
426.011	541.6
426.419	539.4
426.806	524.2
427.214	532.2
427.623	543.6
428.031	546.4
428.44	534.4
428.848	538.4
429.235	547.4
429.644	531.6
430.053	526.8
430.461	541.8
430.87	557
431.279	541.8
431.666	523.6
432.075	524.2
432.484	534
432.893	532
433.302	543
433.711	565.6
434.099	533.2
434.508	522.6
434.918	521.8
435.327	542
435.737	535
436.125	529.2
436.534	529.4
436.944	530.8
437.353	527.4
437.763	540
438.173	522.2
438.561	532
438.971	518.6
439.381	523.4
439.791	529.8
440.201	509.2
440.589	534
440.999	531.6
441.409	519.4
441.819	517.8
442.23	529.8
442.619	534.2
443.029	527.4
443.439	532.2
443.85	541.6
444.26	539
444.649	530.6
445.06	530.4
445.471	526
445.881	528.8
446.292	538.8
446.682	545.2
447.092	512.6
447.503	566.4
447.914	526.2
448.325	522.4
448.715	533
449.126	519.2
449.537	526.2
449.948	521.8
450.338	524.4
450.75	527.8
451.161	531.6
451.572	529.2
451.984	519.6
452.374	514.2
452.786	532.6
453.197	528.6
453.609	535.8
453.999	510.8
454.411	519.2
454.823	528.6
455.235	531.6
455.647	522.2
456.037	533.2
456.449	512
456.862	518.6
457.274	530.2
457.665	520.4
458.077	536.8
458.489	551
458.902	531.2
459.293	519
459.705	523.6
460.118	520.8
460.53	519.2
460.921	521.8
461.334	528.2
461.747	522.4
462.16	534.2
462.551	542.8
462.964	531.2
463.377	518.6
463.79	521
464.182	536.2
464.595	515
465.008	530.6
465.421	528.6
465.813	516.6
466.226	531.6
466.64	522.4
467.053	562.6
467.445	534.6
467.859	530.6
468.272	525.6
468.686	536
469.078	521.6
469.492	518.2
469.906	527.8
470.298	522
470.712	524
471.126	549.8
471.54	503.6
471.933	521.4
472.347	520.4
472.761	519
473.175	518.4
473.568	512.2
473.982	516.8
474.397	524.4
474.79	528.2
475.204	526
475.619	523.6
476.033	528.8
476.426	531.6
476.841	519
477.256	541.4
477.649	515.4
478.064	511.8
478.479	521.6
478.872	520
479.287	502.2
479.702	516.2
480.118	524.8
480.511	519.8
480.927	519.8
481.342	518
481.736	520.8
482.151	516.6
482.566	530.8
482.96	518.4
483.376	530.6
483.792	516.6
484.186	524.8
484.602	514
485.017	517.4
485.412	520.4
485.827	524
486.243	520.8
486.638	537.6
487.054	520.8
487.47	536.2
487.865	522.6
488.281	519.6
488.697	523.8
489.092	524.8
489.508	522.8
489.925	531.8
490.32	518.6
490.736	527.4
491.153	528.6
491.548	522
491.964	528.6
492.381	515
492.776	524.4
493.193	523.6
493.61	529
494.006	521.4
494.422	531
494.84	521
495.235	524.6
495.652	526.4
496.069	526.6
496.465	512
496.883	520.6
497.3	535.2
497.696	519.8
498.113	529.4
498.509	516.2
498.927	519
499.344	515.4
499.741	515.6
500.158	530.6
500.576	521.6
500.973	519
501.39	508.6
501.787	509.6
502.205	521.8
502.623	512
503.02	506.8
503.438	511.4
503.856	512
504.253	518.4
504.671	522.2
505.068	510.8
505.486	514.8
505.905	539.8
506.302	512.2
506.72	525.4
507.118	505
507.536	515.6
507.955	512.8
508.352	515.2
508.771	523.4
509.169	522.4
509.587	514.2
510.006	514
510.404	516.4
510.823	513.6
511.221	516.4
511.64	516
512.038	530.6
512.457	507.4
512.877	509.6
513.275	509
513.694	518.2
514.092	513.6
514.512	521
514.91	532.2
515.33	527
515.749	519.6
516.148	510.6
516.568	518.2
516.966	515.6
517.386	511.6
517.785	518.8
518.205	510.8
518.603	510
519.024	511.4
519.444	513
519.843	518.6
520.263	525.2
520.662	517.2
521.082	513.2
521.481	517
521.902	519.8
522.301	513.8
522.722	517.2
523.121	516.6
523.542	511.2
523.963	516.4
524.362	519
524.783	517.2
525.183	519
525.604	525.4
526.003	509
526.425	513.2
526.824	521.2
527.246	519.4
527.646	520
528.067	523
528.467	516.2
528.888	521.2
529.289	510.8
529.71	514.8
530.11	516
530.532	512
530.932	511.4
531.354	514
531.755	546.2
532.176	523.8
532.577	506.4
532.999	513
533.4	510
533.822	514.6
534.223	511.8
534.645	518.4
535.046	503.8
535.468	515
535.869	528.6
536.292	511.6
536.693	546.4
537.115	519
537.516	500.2
537.939	503
538.34	528
538.742	523
539.165	510.8
539.566	517.2
539.989	514.2
540.391	506.2
540.814	519.2
541.216	517.4
541.639	516.8
542.041	524.2
542.464	515.6
542.866	505
543.268	506.4
543.691	516
544.093	525.4
544.517	529.2
544.919	504
545.343	537
545.745	503.6
546.147	523.8
546.571	516
546.974	514.2
547.398	512.6
547.8	525.4
548.224	514.2
548.627	506.4
549.03	523.4
549.454	511.6
549.857	507.4
550.281	511.4
550.684	511.6
551.087	525
551.512	518.6
551.915	519.2
552.34	511
552.743	515
553.146	521.4
553.571	516.4
553.975	527.8
554.399	511.6
554.803	548.4
555.207	505.8
555.632	506.2
556.036	524.4
556.461	511.4
556.865	510.6
557.268	505.6
557.694	508.6
558.098	511
558.502	515.8
558.927	511.8
559.332	513.6
559.736	514
560.162	525
560.566	509.4
560.992	512.4
561.396	513
561.801	508.6
562.227	519.8
562.631	511.6
563.036	518.8
563.462	521
563.867	515.4
564.272	509.6
564.698	523.6
565.103	504.4
565.508	525.2
565.935	508.8
566.34	510
566.745	521.2
567.172	513.8
567.577	534.6
567.982	523.2
568.409	521.6
568.815	504
569.22	514.6
569.626	519.6
570.053	501.8
570.459	515.4
570.865	512
571.292	520.8
571.698	518.4
572.104	511.6
572.531	511.4
572.937	521.6
573.343	511.8
573.75	510.8
574.177	521.2
574.583	515
574.99	517.4
575.396	521.2
575.824	507.2
576.231	524.8
576.637	510.6
577.065	532.2
577.472	508.2
577.879	504.2
578.286	527.4
578.714	510.4
579.121	511.2
579.528	513
579.935	528.8
580.364	505.4
580.771	501.8
581.178	515.6
581.585	515.2
582.014	520.4
582.421	506.4
582.829	513.8
583.236	523
583.644	509.8
584.073	516.4
584.481	517.8
584.889	512.2
585.296	518
585.726	517.6
586.134	509.6
586.542	508.2
586.95	533.2
587.358	504.2
587.787	514
588.196	502.8
588.604	513.6
589.012	508.6
589.421	510.4
589.851	505.6
590.259	511.8
590.668	514.6
591.076	549
591.485	502.4
591.894	515.2
592.324	520.6
592.733	519.4
593.142	503.8
593.551	511.4
593.96	517.4
594.369	512
594.8	511.4
595.209	507.2
595.618	504.4
596.028	503.6
596.437	505.8
596.847	507.6
597.256	512.2
597.687	510
598.097	510
598.507	509.8
598.917	513.2
599.327	522.2
599.736	518.6
600.146	519.4
600.556	518.2
600.988	518.8
601.398	506.2
601.808	515.8
602.219	496
602.629	504
603.039	511.8
603.45	535.4
603.86	518
604.271	523
604.703	508.6
605.114	507.6
605.525	509.6
605.935	518.4
606.346	533.6
606.757	512.2
607.168	506.8
607.579	503.6
607.99	531
608.402	510.6
608.813	520.2
609.224	507.4
609.636	505.8
610.047	503
610.48	514.6
610.892	520.8
611.303	513.8
611.715	509.6
612.127	497.4
612.539	510.6
612.95	508.2
613.362	506
613.774	503.6
614.186	503.4
614.599	505.2
615.011	516.4
615.423	511.2
615.835	508.2
616.248	503.2
616.66	517.6
617.073	508.4
617.485	509.6
617.898	522.4
618.311	519.8
618.723	512.6
619.136	537.6
619.549	525
619.962	530.6
620.375	515.6
620.788	512.4
621.201	516.4
621.614	517.6
622.028	517.8
622.441	507
622.854	521.8
623.268	511.8
623.681	523
624.095	518.6
624.509	521.6
624.922	523.8
625.336	508.6
625.728	522.2
626.142	524
626.556	527.4
626.97	519.8
627.384	518.8
627.799	514.4
628.213	527.2
628.627	510
629.041	515.4
629.456	516.6
629.87	514.2
630.285	525.8
630.699	523.4
631.093	515.6
631.507	519.8
631.922	522.6
632.337	525
632.752	508.6
633.167	517.4
633.582	517.6
633.997	512
634.412	514.8
634.806	512
635.221	509.6
635.637	519.2
636.052	509.8
636.468	512.2
636.883	531.2
637.299	513
637.715	506.6
638.109	522.2
638.525	508.2
638.941	522.8
639.357	514.4
639.773	522.2
640.189	516.4
640.584	518.6
641	518.4
641.416	505.2
641.832	509.8
642.249	514.4
642.665	509.8
643.06	518
643.477	518
643.894	499.6
644.31	514.2
644.727	515.2
645.123	513.4
645.54	508.8
645.957	515.2
646.374	527.8
646.77	512.4
647.187	537.6
647.604	516
648.021	512.2
648.439	504.8
648.835	511.6
649.252	518.2
649.67	514.2
650.088	511.6
650.484	513.4
650.902	510.8
651.32	518.8
651.738	510.4
652.134	511.4
652.552	524.4
652.971	516.8
653.389	511.2
653.786	514.4
654.204	518
654.622	498.2
655.019	501.6
655.438	516
655.857	516.4
656.275	511.6
656.673	506
657.091	517.6
657.51	498.6
657.908	515.6
658.327	521.2
658.746	503.8
659.144	507.2
659.563	518.4
659.982	516.2
660.38	509.4
660.8	511
661.219	518.2
661.617	511.4
662.037	515.6
662.457	516
662.855	496
663.275	539.6
663.695	513.8
664.094	507.4
664.514	506.6
664.934	502
665.333	517.4
665.753	508.2
666.152	504.8
666.572	503.4
666.993	519.6
667.392	507.4
667.812	508.2
668.212	506.2
668.632	513.4
669.053	499.6
669.453	511
669.874	509.4
670.273	513.8
670.694	498.4
671.116	518.6
671.515	518.4
671.937	516.6
672.337	502
672.758	507.2
673.158	515.4
673.58	497.6
673.98	506
674.402	520.8
674.824	510.8
675.224	504.2
675.646	495.6
676.047	507.8
676.469	510.8
676.869	505.2
677.292	504
677.693	499.6
678.115	506
678.516	513
678.939	510.4
679.34	509
679.762	516
680.164	509.6
680.586	503.8
680.988	512.8
681.411	534.2
681.812	510.8
682.236	504.6
682.637	499.8
683.061	504.2
683.462	513
683.864	514.2
684.288	510.2
684.69	497.6
685.114	515.6
685.516	521.6
685.94	502.6
686.342	520.4
686.766	506.4
687.168	503.2
687.571	523.8
687.995	504.6
688.398	492.8
688.822	511
689.225	516
689.628	516.6
690.052	510
690.456	510
690.88	505.8
691.284	503.2
691.687	517.8
692.112	502.6
692.515	501.4
692.919	511.6
693.344	504
693.747	506.8
694.173	495.4
694.577	507.4
694.98	500.2
695.406	506.2
695.81	509.8
696.214	514.4
696.64	511.8
697.044	502.8
697.448	521
697.874	503.6
698.279	507
698.684	505.4
699.11	503
699.514	503.4
699.919	500.2
700.324	494.6
700.75	508.8
701.156	504.2
701.561	511
701.987	503.4
702.393	519.2
702.798	516.4
703.203	511
703.63	496.8
704.036	501.4
704.442	502.2
704.847	491.2
705.274	507
705.68	509.8
706.086	510
706.492	496.2
706.92	506.2
707.326	516.4
707.732	501
708.139	494.2
708.545	497.6
708.973	493.6
709.38	498
709.786	492.8
710.193	509
710.6	502.2
711.028	497.8
711.435	500.8
711.842	504.4
712.249	500.4
712.656	503.6
713.064	514.6
713.492	503
713.9	502.2
714.307	507.6
714.715	502.8
715.123	507
715.53	505.8
715.938	505.8
716.367	506.6
716.775	504.4
717.184	497.6
717.592	505
718	512.6
718.408	537
718.816	541.8
719.225	503.8
719.633	503.4
720.042	493
720.472	507.2
720.881	515.4
721.29	515.2
721.699	505.8
722.108	513.2
722.517	509.8
722.926	507.2
723.335	518
723.744	504.4
724.154	510.6
724.563	504.8
724.973	511.6
725.382	501.8
725.792	501
726.202	502.4
726.612	503.6
727.022	502.8
727.432	497
779.813	504.6
780.223	541.8
780.634	504.4
781.044	495
781.454	501.6
781.865	514.2
782.276	502.8
782.686	503.8
783.097	504.8
783.508	501.4
783.919	502.4
784.33	513.6
784.741	509.4
785.152	498.4
785.563	493.6
785.974	497.4
786.386	501.4
786.776	504.8
787.188	500.6
787.599	502.6
788.011	507.8
788.423	508.8
788.835	508.6
789.247	490.8
789.659	498.6
790.071	501
790.483	537.4
790.874	506
791.286	508.4
791.699	496
792.111	506.6
792.524	503.8
792.937	492.6
793.349	495.6
793.741	492.2
794.154	496.8
794.567	521.2
794.98	496.6
795.393	502.2
795.785	514
796.198	505
796.612	506.6
797.026	503.2
797.439	490.4
797.831	498.4
798.245	495.2
798.659	495.2
799.073	499.8
799.487	501.6
799.88	501.2
800.294	494.6
800.708	512.4
801.123	504
801.516	506.6
801.93	493.6
802.345	495
802.76	499.8
803.153	511.8
803.568	517.6
803.983	506.8
804.377	504.6
804.792	494.8
805.207	478.4
805.601	494.8
806.016	526.2
806.432	500
806.826	521.2
807.242	517
807.658	500.8
808.052	505
808.468	502.2
808.884	503.4
809.279	513.6
809.695	515
810.111	517.4
810.506	506.2
810.922	519.8
811.339	501
811.734	504.4
812.151	501.6
812.546	502.2
812.963	499.8
813.38	510.2
813.776	511.2
814.193	517.8
814.589	496
815.006	499.2
815.402	501
815.82	501.4
816.237	499.4
816.633	499.2
817.051	492.4
817.448	497.6
817.866	495.6
818.262	516.6
818.68	499
819.077	500.2
819.495	502.4
819.892	541.2
820.311	501.4
820.708	501.2
821.127	493.8
821.524	511.4
821.943	500.8
822.34	517.6
822.759	501.8
823.157	510.6
823.576	514
823.974	508.2
824.393	590.2
824.791	495.6
825.189	499.2
825.609	493
826.007	497.2
826.427	495.2
826.826	505
827.246	510.2
827.644	490.4
828.043	508.4
828.463	507.2
828.862	507.6
829.261	507.4
829.682	494
830.081	504
830.502	495
830.901	510
831.301	503
831.722	497.8
832.121	512.4
832.521	498.8
832.943	505.2
833.342	501.6
833.742	504.6
834.164	495.4
834.564	492.8
834.965	496.6
835.386	499.2
835.787	508.8
836.188	507
836.588	503.8
837.01	502.4
837.411	493.2
837.812	504.2
838.213	500.2
838.636	496.6
839.037	554.8
839.438	497.8
839.84	506.2
840.263	503.6
840.664	511
841.066	499.8
841.468	499.8
841.891	497
842.293	507.6
842.695	506
843.098	508
843.5	501.6
843.902	506.4
844.326	504.4
844.729	505.4
845.131	511
845.534	509.8
845.937	505.4
846.34	512
846.764	502.2
847.167	505.6
847.571	492.4
847.974	495.6
848.377	502.2
848.781	530.6
849.184	508
849.588	494.4
849.992	497.8
850.396	505.8
850.821	509.6
851.225	500.2
851.63	498.4
852.034	517.6
852.438	498
852.843	562.2
853.247	495
853.652	497.4
854.057	515.8
854.462	502.6
854.867	504
855.272	521.4
855.677	497.8
856.082	492.6
856.487	499.4
