#lambda/nm	C1
208.295	463.6
208.67	429.2
209.045	390.4
209.419	398.8
209.794	533.2
210.169	523.8
210.544	629.2
210.919	539.6
211.295	525.8
211.67	535
212.045	536
212.421	534.4
212.796	560
213.172	536
213.547	535
213.923	526.2
214.299	525.6
214.675	545
215.051	541.8
215.427	543
215.803	549.2
216.179	532.6
216.555	535.2
216.932	537.4
217.308	537.8
217.684	534.6
218.061	543.8
218.438	532.4
218.814	536.2
219.191	547
219.568	527
219.945	528.2
220.322	532.2
220.699	535.8
221.076	545
221.453	528.6
221.83	527.2
222.208	524.4
222.585	528.8
222.962	538
223.34	534.2
223.717	531.6
224.095	533.8
224.473	530
224.851	528.2
225.229	528.8
225.607	545.6
225.985	528.4
226.363	532.8
226.741	535.8
227.119	534.2
227.497	541.4
227.876	520
228.254	534.2
228.633	535.8
229.011	529.8
229.39	542.2
229.769	541.4
230.148	538.4
230.527	547
230.905	535.2
231.284	534.4
231.664	523.8
232.043	546.2
232.422	535.4
232.801	533.2
233.181	539.2
233.56	529.4
233.94	532.2
234.319	520.6
234.699	531
235.079	560.8
235.458	564
235.838	545.8
236.218	529.6
236.598	516.8
236.978	530.8
237.358	527.2
237.738	528.8
238.119	538.2
238.499	526
238.88	543.6
239.26	548.4
239.641	526.4
240.021	539.6
240.402	537.6
240.783	537.8
241.163	531.2
241.544	537.2
241.925	527.6
242.306	543.4
242.687	531.6
243.069	532
243.45	554.2
243.831	529.4
244.212	534.6
244.594	572.6
244.975	539.2
245.357	545.6
245.739	530.6
246.12	538.6
246.502	541
246.884	547.4
247.266	540.8
247.648	533.8
248.03	549
248.412	537.2
248.794	540.6
249.176	532.2
249.559	537
249.941	527.6
250.323	534.4
250.706	526.6
251.089	532
251.471	529.6
251.854	531
252.237	537.4
252.62	532.8
253.002	538.6
253.385	531.6
253.769	549.4
254.152	532.6
254.535	541.8
254.918	527.6
255.301	533
255.685	536.6
256.068	530.2
256.452	557.4
256.835	548.4
257.219	547
257.603	545.2
257.986	523
258.37	545
258.754	531.6
259.138	537.2
259.522	544.2
259.906	531.8
260.29	536.8
260.675	528.4
261.059	528
261.443	525.2
261.828	536.4
262.212	537.8
262.597	524.8
262.981	533
263.366	531.4
263.751	528.6
264.136	533.2
264.521	531.8
264.906	525.8
265.291	541
265.676	534.6
266.061	542.4
266.446	539.8
266.831	536.8
267.217	552.4
267.602	540.6
267.987	533.6
268.373	530
268.759	533.4
269.144	541.4
269.53	536.6
269.916	535.8
270.302	526.4
270.688	542.8
271.074	538.6
271.46	544.2
271.846	554.2
272.232	538.6
272.618	534.4
273.004	530.4
273.391	544.4
273.777	540.6
274.164	537.6
274.55	547
274.937	543.6
275.324	533
275.71	539.2
276.097	541
276.484	531.8
276.871	537
277.258	542
277.645	525.8
278.032	527.6
278.419	531.6
278.807	533.4
279.194	534
279.581	525.8
279.969	534.2
280.356	532
280.744	534
281.131	555.8
281.519	546
281.907	530
282.295	533.4
282.682	541.2
283.07	534.8
283.458	544
283.846	555.4
284.235	546
284.623	541.2
285.011	524.2
285.399	539
285.788	535
286.176	528
286.565	541
286.953	527.6
287.342	532.6
287.731	531.8
288.119	528.8
288.508	530.6
288.897	538.4
289.286	525.6
289.675	532.8
290.064	544.4
290.453	531.8
290.821	539.8
291.21	552
291.599	534.2
291.989	531.4
292.378	530
292.768	550
293.157	539.6
293.547	541
293.936	533.8
294.326	527.2
294.716	533.6
295.106	533.8
295.496	541.2
295.886	538.6
296.276	538.4
296.666	534.8
297.056	526.8
297.446	525
297.836	558
298.227	530.6
298.617	534.6
299.008	551.2
299.398	530.6
299.789	532
300.179	537.2
300.57	545.2
300.961	530.8
301.352	533.6
301.742	539.2
302.133	536.4
302.524	526.6
302.915	540.8
303.307	521.8
303.698	539.6
304.089	541.8
304.48	538.4
304.872	534.2
305.263	537
305.655	533
306.046	544.6
306.438	540.6
306.829	524.4
307.221	544.8
307.613	536
308.005	545.2
308.397	539
308.789	555.6
309.181	558.8
309.573	548.4
309.965	546.2
310.357	529
310.749	546.6
311.142	527.6
311.534	531.4
311.926	535
312.319	532.6
312.711	528.2
313.104	545.4
313.497	536.2
313.889	566.6
314.282	546.4
314.675	549.2
315.068	542.8
315.461	540.2
315.854	558.2
316.247	540.4
316.64	540
317.033	531.6
317.405	538
317.798	536.2
318.192	529.8
318.585	529.2
318.979	537.8
319.372	536.4
319.766	527.2
320.16	542
320.553	549.8
320.947	552.2
321.341	532.8
321.735	540.4
322.129	521.2
322.523	551.4
322.917	530
323.311	541.4
323.705	537.6
324.099	542.8
324.494	547
324.888	537.6
325.282	535.2
325.677	542.4
326.071	544.6
326.466	549.4
326.861	539.4
327.255	545
327.65	543.2
328.045	547.4
328.44	533
328.835	536.6
329.23	534.2
329.625	551.2
330.02	536.4
330.415	543.8
330.81	534.8
331.206	525.8
331.601	535.4
331.996	542.4
332.37	549.8
332.766	529.8
333.161	555.8
333.557	525.4
333.953	536
334.348	798.6
334.744	533.6
335.14	533.4
335.536	531.6
335.932	543
336.328	540.4
336.724	542.2
337.12	531.2
337.516	532.4
337.913	534.6
338.309	539.2
338.705	527.2
339.102	540
339.498	534.8
339.895	541
340.291	525
340.688	536.6
341.085	529.6
341.481	533.4
341.878	544.8
342.275	550.8
342.672	528.2
343.069	523.4
343.466	522
343.842	530.6
344.239	527.8
344.636	543.2
345.033	531.2
345.431	528
345.828	533.4
346.225	525.4
346.623	555.8
347.02	522.8
347.418	539.6
347.816	543.4
348.213	529
348.611	540
349.009	524.2
349.407	541.4
349.805	524.6
350.203	521.8
350.601	545.6
350.999	527.2
351.397	578
351.795	530.8
352.193	540.8
352.57	537.8
352.969	542
353.367	528.2
353.766	524.6
354.164	533.2
354.563	541.2
354.961	526
355.36	537
355.759	529.6
356.158	524.8
356.557	528.4
356.956	522.8
357.355	523.2
357.754	537.2
358.153	533.4
358.552	550.8
358.951	536.4
359.35	546.8
359.75	526.2
360.149	525.2
360.527	521.8
360.926	524.6
361.326	533.6
361.726	529.8
362.125	526.2
362.525	535.2
362.925	529.4
363.325	535
363.724	536.8
364.124	524.4
364.524	528.2
364.924	524.4
365.324	528.4
365.725	512.6
366.125	525.6
366.525	530.2
366.904	526.8
367.304	526.8
367.705	543.8
368.105	538.2
368.506	520.6
368.906	527.8
369.307	524.4
369.708	533
370.108	517.4
370.509	536.8
370.91	521.4
371.311	534
371.712	532.6
372.113	521.6
372.514	523.6
372.894	524.2
373.295	526.8
373.696	537.2
374.097	535.8
374.499	554.2
374.9	534.4
375.301	523
375.703	526.4
376.105	517.4
376.506	533.4
376.908	536.8
377.309	541
377.711	531.2
378.113	527
378.493	527
378.895	516.4
379.297	530.2
379.699	516.4
380.102	534.8
380.504	525
380.906	532.2
381.308	545.4
381.71	528.6
382.113	534
382.515	527.6
382.918	532.6
383.299	528.6
383.701	528
384.104	528.8
384.507	505.8
384.909	528.2
385.312	515.8
385.715	520.2
386.118	524
386.521	518.8
386.924	529.8
387.327	517.6
387.709	517.4
388.112	518
388.515	524.8
388.918	530.4
389.322	534.4
389.725	528.6
390.129	550.6
390.532	533
390.936	531.4
391.339	518.4
391.743	526.8
392.125	523
392.529	537.4
392.933	546
393.337	530
393.74	529.6
394.144	530.4
394.548	523.8
394.953	519.4
395.357	529.8
395.761	524.2
396.144	530.6
396.548	524.6
396.952	527.4
397.357	531.2
397.761	530.4
398.166	516.2
398.57	522.4
398.975	520
399.379	529.6
399.763	575.6
400.168	530.4
400.572	532.6
400.977	526.4
401.382	534
401.787	534.4
402.192	539.8
402.597	535.6
403.002	520.8
403.386	536
403.791	538.2
404.197	521.4
404.602	526
405.007	531.2
405.413	520.4
405.818	520
406.224	516.8
406.608	522
407.014	518.8
407.42	533.6
407.825	527
408.231	531
408.637	525.2
409.043	533.8
409.449	520.4
409.834	525.2
410.24	526.4
410.646	532.6
411.052	525.8
411.458	534.2
411.865	534.2
412.271	532.8
412.677	527.6
413.062	538.4
413.469	519
413.875	544.8
414.282	541.6
414.689	531.6
415.095	532
415.502	526.4
415.888	520.2
416.294	519.8
416.701	561.2
417.108	520.4
417.515	538.8
417.923	531
418.33	543.4
418.715	531.6
419.123	523.2
419.53	516.8
419.937	525.6
420.345	538
420.752	517.2
421.16	533.2
421.546	529.2
421.953	527.6
422.361	519.8
422.769	522.8
423.177	517.8
423.585	550
423.992	544.2
424.379	533.4
424.787	533.6
425.195	538.6
425.603	522.2
426.011	529
426.419	542.2
426.806	526.4
427.214	533.8
427.623	535
428.031	545.4
428.44	526.6
428.848	529.8
429.235	540.2
429.644	527.8
430.053	529.4
430.461	535.4
430.87	542.8
431.279	539
431.666	525.2
432.075	527.8
432.484	537.2
432.893	518.2
433.302	538
433.711	554.2
434.099	537.8
434.508	520.4
434.918	519.4
435.327	529.4
435.737	526
436.125	527.4
436.534	528.8
436.944	530.2
437.353	529
437.763	544.6
438.173	523.8
438.561	536.4
438.971	513.8
439.381	527.8
439.791	526.8
440.201	507.8
440.589	533.2
440.999	532
441.409	528.6
441.819	515
442.23	533.2
442.619	540
443.029	530.6
443.439	529.8
443.85	541
444.26	535.2
444.649	531
445.06	522
445.471	518.4
445.881	531.8
446.292	541.8
446.682	538.8
447.092	507.6
447.503	563.8
447.914	522.6
448.325	526.4
448.715	524.2
449.126	517
449.537	527.8
449.948	521.4
450.338	527.6
450.75	532.6
451.161	527.6
451.572	535
451.984	521.6
452.374	517.8
452.786	522.8
453.197	522.8
453.609	525.8
453.999	514.6
454.411	512
454.823	528.8
455.235	526
455.647	519.4
456.037	532.4
456.449	512.6
456.862	523.6
457.274	527.2
457.665	514.6
458.077	526.4
458.489	556.6
458.902	519
459.293	527.6
459.705	525
460.118	525.4
460.53	520.2
460.921	523.6
461.334	527.2
461.747	523.4
462.16	532
462.551	536.8
462.964	525
463.377	513
463.79	513.4
464.182	533.4
464.595	513
465.008	524.4
465.421	529
465.813	510.8
466.226	526.8
466.64	522.4
467.053	561.2
467.445	536.4
467.859	531.4
468.272	521.8
468.686	533.6
469.078	520.8
469.492	507.2
469.906	522.4
470.298	524.8
470.712	516.2
471.126	538.2
471.54	518.8
471.933	516.2
472.347	521.2
472.761	509.8
473.175	514.2
473.568	518
473.982	511.6
474.397	517.2
474.79	518.6
475.204	527.2
475.619	518.2
476.033	524
476.426	523.2
476.841	513.2
477.256	533.2
477.649	510.8
478.064	522.2
478.479	515
478.872	519.2
479.287	506.6
479.702	511.4
480.118	518
480.511	519.8
480.927	521.4
481.342	517.2
481.736	519.6
482.151	513.8
482.566	533.4
482.96	519.8
483.376	529.4
483.792	513.6
484.186	528.2
484.602	525.8
485.017	517
485.412	513
485.827	518.8
486.243	527.2
486.638	532.6
487.054	524.2
487.47	528.2
487.865	517.6
488.281	518.6
488.697	514.6
489.092	515.6
489.508	512.6
489.925	522.2
490.32	512
490.736	526.4
491.153	523
491.548	516.4
491.964	524.6
492.381	510.2
492.776	518.2
493.193	520.6
493.61	519.2
494.006	523.8
494.422	522.4
494.84	516.2
495.235	524.6
495.652	522
496.069	519.8
496.465	508.6
496.883	515.6
497.3	537.6
497.696	516.2
498.113	527.8
498.509	514.8
498.927	507.4
499.344	512.2
499.741	513.4
500.158	520.2
500.576	527.6
500.973	523.6
501.39	509.2
501.787	518.2
502.205	511.8
502.623	513.4
503.02	497.4
503.438	512.6
503.856	512.8
504.253	518
504.671	514
505.068	518
505.486	515.6
505.905	533
506.302	516
506.72	528.2
507.118	513.4
507.536	524
507.955	512.8
508.352	517.2
508.771	529.8
509.169	525.4
509.587	513
510.006	519
510.404	506.4
510.823	517.2
511.221	512.2
511.64	518
512.038	528.8
512.457	511.6
512.877	512.8
513.275	513.4
513.694	516.4
514.092	516.2
514.512	517.2
514.91	525
515.33	512.8
515.749	523.2
516.148	514
516.568	515
516.966	516.6
517.386	502.6
517.785	511.2
518.205	511.8
518.603	513.6
519.024	506.4
519.444	515.2
519.843	531.4
520.263	522.6
520.662	513.8
521.082	512.4
521.481	515
521.902	510
522.301	520.4
522.722	514
523.121	515
523.542	518.4
523.963	521.8
524.362	517.2
524.783	511.2
525.183	523.4
525.604	512.4
526.003	509.4
526.425	512.6
526.824	512.6
527.246	528.6
527.646	522
528.067	511
528.467	510.8
528.888	522.2
529.289	510.4
529.71	521.4
530.11	510.4
530.532	514
530.932	506.6
531.354	506
531.755	535.6
532.176	522.8
532.577	513.4
532.999	510.4
533.4	508.8
533.822	515.6
534.223	511
534.645	518
535.046	516.6
535.468	515.8
535.869	532
536.292	510.8
536.693	545.8
537.115	506.6
537.516	507.4
537.939	511.8
538.34	518.6
538.742	521.8
539.165	515.2
539.566	516.4
539.989	511
540.391	510.6
540.814	516.4
541.216	515.6
541.639	513.2
542.041	529.2
542.464	509.8
542.866	512.2
543.268	507.2
543.691	514.8
544.093	519.6
544.517	533
544.919	509
545.343	533.4
545.745	504.6
546.147	515.4
546.571	510.6
546.974	508.8
547.398	511.6
547.8	521.8
548.224	521
548.627	510.6
549.03	518.4
549.454	511.4
549.857	509.4
550.281	507.6
550.684	506.6
551.087	524
551.512	517.8
551.915	520.2
552.34	513.6
552.743	512
553.146	509.8
553.571	514.4
553.975	528.2
554.399	508.2
554.803	552.2
555.207	506.2
555.632	517.2
556.036	523.6
556.461	508.2
556.865	511.6
557.268	505.8
557.694	509.8
558.098	515.8
558.502	518.4
558.927	510
559.332	514.2
559.736	516.8
560.162	513.6
560.566	510.2
560.992	512.6
561.396	508.4
561.801	506.6
562.227	514.6
562.631	510.2
563.036	512
563.462	523
563.867	517
564.272	502.6
564.698	514.4
565.103	507.6
565.508	530.8
565.935	517.4
566.34	505
566.745	528.2
567.172	514
567.577	524.6
567.982	523.8
568.409	516.8
568.815	507.8
569.22	512.6
569.626	526.6
570.053	507.4
570.459	519
570.865	516.4
571.292	512.4
571.698	512.6
572.104	494.6
572.531	503.4
572.937	519.2
573.343	510.6
573.75	506.8
574.177	509.6
574.583	523
574.99	508.4
575.396	523.6
575.824	505.2
576.231	521.4
576.637	504
577.065	533
577.472	511.2
577.879	510.2
578.286	530
578.714	505.2
579.121	511.4
579.528	509.4
579.935	520.4
580.364	512.4
580.771	502.6
581.178	510
581.585	509.8
582.014	516.8
582.421	516.2
582.829	511.4
583.236	514.8
583.644	507.4
584.073	510
584.481	519
584.889	510
585.296	522.8
585.726	507.4
586.134	504.6
586.542	512.8
586.95	524
587.358	504.4
587.787	518.2
588.196	501
588.604	502.8
589.012	512
589.421	502.4
589.851	508.6
590.259	519.6
590.668	506.6
591.076	537.4
591.485	500.2
591.894	509.4
592.324	523.2
592.733	521.8
593.142	499.6
593.551	515.2
593.96	539
594.369	502.8
594.8	510.2
595.209	514.4
595.618	501.4
596.028	505.2
596.437	495.8
596.847	516
597.256	512.4
597.687	517.6
598.097	508.8
598.507	497.4
598.917	518
599.327	517
599.736	512.8
600.146	523.8
600.556	513.4
600.988	523.8
601.398	506.8
601.808	528
602.219	506.2
602.629	507.2
603.039	511
603.45	530.2
603.86	509.4
604.271	525.8
604.703	512.6
605.114	507.4
605.525	507.6
605.935	511.8
606.346	525.6
606.757	512
607.168	514.8
607.579	505
607.99	518.4
608.402	513.2
608.813	521.2
609.224	503.8
609.636	500.8
610.047	504.2
610.48	516.2
610.892	519.6
611.303	515
611.715	505
612.127	500.2
612.539	514.2
612.95	505
613.362	499.8
613.774	506.2
614.186	506
614.599	499.2
615.011	519.8
615.423	516.2
615.835	508.8
616.248	504.8
616.66	516.8
617.073	504
617.485	511.4
617.898	514.2
618.311	521
618.723	509.8
619.136	532
619.549	527
619.962	530.4
620.375	508
620.788	511.6
621.201	511
621.614	517.8
622.028	506.8
622.441	521.4
622.854	520
623.268	507
623.681	521.2
624.095	515.6
624.509	510.6
624.922	518
625.336	501
625.728	505.8
626.142	520.8
626.556	533.8
626.97	521.2
627.384	506
627.799	511.6
628.213	519.8
628.627	514.2
629.041	509.4
629.456	507.8
629.87	516.2
630.285	516.8
630.699	523.8
631.093	510.8
631.507	516.2
631.922	508
632.337	524
632.752	506.4
633.167	517.6
633.582	505.8
633.997	508.2
634.412	513.2
634.806	509.4
635.221	502.4
635.637	512.6
636.052	497.2
636.468	510.6
636.883	521.6
637.299	515.6
637.715	501.4
638.109	509.8
638.525	499.6
638.941	518.8
639.357	510
639.773	517.4
640.189	509.2
640.584	507.4
641	512.4
641.416	502.6
641.832	505.2
642.249	506.6
642.665	516.8
643.06	515
643.477	517.6
643.894	499.6
644.31	507.2
644.727	513.4
645.123	516
645.54	506.2
645.957	509.8
646.374	528.4
646.77	511.2
647.187	531.8
647.604	511.4
648.021	500
648.439	507.2
648.835	510.6
649.252	508.8
649.67	503.6
650.088	506.8
650.484	515.2
650.902	516.4
651.32	518.8
651.738	503.8
652.134	507.8
652.552	524.2
652.971	512.4
653.389	511.6
653.786	520.8
654.204	508.4
654.622	504.8
655.019	506.4
655.438	516.8
655.857	497
656.275	508.4
656.673	504.6
657.091	517.6
657.51	500.4
657.908	511.8
658.327	524.2
658.746	492.2
659.144	501
659.563	521.8
659.982	505.8
660.38	501.6
660.8	508.2
661.219	515
661.617	505.2
662.037	504.6
662.457	511.4
662.855	500.2
663.275	526.8
663.695	515
664.094	499.2
664.514	506
664.934	505.8
665.333	511.2
665.753	506
666.152	504.2
666.572	499.8
666.993	512.8
667.392	493.4
667.812	500.4
668.212	501.6
668.632	504.6
669.053	502.6
669.453	509.6
669.874	504.8
670.273	513.6
670.694	500.8
671.116	515.2
671.515	511.8
671.937	506.8
672.337	505.4
672.758	501.6
673.158	516.2
673.58	494.6
673.98	507.4
674.402	520.6
674.824	498.6
675.224	506.8
675.646	492.8
676.047	503.6
676.469	507.4
676.869	509
677.292	510.4
677.693	501.8
678.115	500.8
678.516	506.6
678.939	513.4
679.34	512.4
679.762	514.2
680.164	514.6
680.586	502.4
680.988	511.4
681.411	532.2
681.812	503.4
682.236	502.2
682.637	494.2
683.061	500.2
683.462	512.6
683.864	508
684.288	508.4
684.69	501.4
685.114	510
685.516	516.8
685.94	502.2
686.342	516.2
686.766	498.8
687.168	502
687.571	519
687.995	507.2
688.398	491.6
688.822	505.8
689.225	518.8
689.628	513.6
690.052	501.6
690.456	503.4
690.88	508.8
691.284	495.8
691.687	516.2
692.112	494.8
692.515	499.8
692.919	503.6
693.344	504.8
693.747	504.2
694.173	493.8
694.577	510
694.98	505.6
695.406	508.4
695.81	508.6
696.214	514.4
696.64	514.6
697.044	512
697.448	511.6
697.874	506.4
698.279	500
698.684	494.2
699.11	500.8
699.514	503.6
699.919	497.2
700.324	498
700.75	505.8
701.156	504.2
701.561	509.6
701.987	508.2
702.393	502.6
702.798	515.4
703.203	507.6
703.63	499.8
704.036	500
704.442	499.2
704.847	503.4
705.274	506.6
705.68	511.8
706.086	506.8
706.492	498.6
706.92	497
707.326	511.8
707.732	497
708.139	497
708.545	492.4
708.973	497.2
709.38	501.2
709.786	494.4
710.193	513
710.6	507.4
711.028	491.4
711.435	499.8
711.842	505.4
712.249	505.4
712.656	507.8
713.064	516.4
713.492	502.8
713.9	503.8
714.307	507.8
714.715	502.2
715.123	504.2
715.53	502
715.938	509.8
716.367	508
716.775	497.8
717.184	495.8
717.592	500
718	515.6
718.408	531.2
718.816	538
719.225	504
719.633	507.2
720.042	493.2
720.472	500.4
720.881	520.4
721.29	505.2
721.699	499.2
722.108	509.8
722.517	500.4
722.926	505.6
723.335	506
723.744	500.6
724.154	500.8
724.563	504
724.973	509.2
725.382	503.4
725.792	502
726.202	501
726.612	510
727.022	503.8
727.432	499.6
779.813	501
780.223	545.4
780.634	494.4
781.044	499.2
781.454	502.4
781.865	509.4
782.276	495.8
782.686	503.2
783.097	508.8
783.508	494.2
783.919	508
784.33	506.2
784.741	509.8
785.152	503.2
785.563	485
785.974	497.4
786.386	510.4
786.776	498.8
787.188	504.8
787.599	492.4
788.011	512.6
788.423	497.6
788.835	499.6
789.247	498.8
789.659	498
790.071	498.2
790.483	534.6
790.874	504
791.286	504.6
791.699	503.8
792.111	505.6
792.524	504.8
792.937	502.6
793.349	496
793.741	497.4
794.154	494.4
794.567	509.2
794.98	500.4
795.393	497.6
795.785	517
796.198	502
796.612	500.8
797.026	495.8
797.439	486.2
797.831	498.8
798.245	493.2
798.659	499.4
799.073	505.6
799.487	494.6
799.88	509
800.294	503
800.708	505.4
801.123	506
801.516	512.8
801.93	486
802.345	491.2
802.76	491.2
803.153	507.6
803.568	512.2
803.983	516
804.377	498.4
804.792	489.8
805.207	492.6
805.601	500
806.016	520.2
806.432	497
806.826	516.2
807.242	516.2
807.658	499.6
808.052	499.4
808.468	499.4
808.884	494.8
809.279	510.2
809.695	504.6
810.111	520.6
810.506	500.6
810.922	518
811.339	495.6
811.734	509.8
812.151	508.2
812.546	500
812.963	496
813.38	506.8
813.776	495.8
814.193	516.8
814.589	499.8
815.006	497
815.402	493.2
815.82	496.2
816.237	499.6
816.633	495.6
817.051	494
817.448	500.4
817.866	492.6
818.262	512.4
818.68	491.6
819.077	494.8
819.495	497
819.892	529.4
820.311	501.6
820.708	499.6
821.127	495.6
821.524	511.4
821.943	505.8
822.34	515.4
822.759	500.4
823.157	497.8
823.576	503.6
823.974	506
824.393	585.2
824.791	504.2
825.189	499.6
825.609	495
826.007	499.4
826.427	485.6
826.826	493.6
827.246	499.6
827.644	492.8
828.043	505.6
828.463	499
828.862	501.6
829.261	502.6
829.682	497
830.081	508
830.502	500.6
830.901	502
831.301	486.8
831.722	497.2
832.121	495.8
832.521	500.8
832.943	509.4
833.342	497.6
833.742	492.8
834.164	503
834.564	493.2
834.965	504.6
835.386	494.6
835.787	500
836.188	495.6
836.588	495.6
837.01	498.8
837.411	498.6
837.812	504.6
838.213	499
838.636	497.6
839.037	550.4
839.438	503.6
839.84	506.4
840.263	508.6
840.664	497.8
841.066	497
841.468	502.8
841.891	500
842.293	504.8
842.695	505.4
843.098	510
843.5	502.2
843.902	494
844.326	507.6
844.729	505.6
845.131	514.6
845.534	497.6
845.937	510.6
846.34	508.8
846.764	497
847.167	505.6
847.571	492.6
847.974	489.4
848.377	494.8
848.781	529.4
849.184	503
849.588	497.2
849.992	494.8
850.396	498.6
850.821	509
851.225	499.8
851.63	494.2
852.034	514.4
852.438	497.8
852.843	522.6
853.247	491.8
853.652	497
854.057	517.2
854.462	500
854.867	500
855.272	516
855.677	496
856.082	489.2
