#lambda/nm	C1
208.295	465.6
208.67	431.4
209.045	399.8
209.419	405.6
209.794	543
210.169	532.8
210.544	629.4
210.919	539.2
211.295	532.4
211.67	534.8
212.045	525.6
212.421	538.2
212.796	568.4
213.172	527
213.547	529.4
213.923	529
214.299	525.4
214.675	540.4
215.051	543.4
215.427	548
215.803	555.2
216.179	542.4
216.555	534.6
216.932	549.2
217.308	532
217.684	527
218.061	543.6
218.438	544.4
218.814	532.4
219.191	548.2
219.568	532.2
219.945	536.6
220.322	539.4
220.699	546
221.076	539.6
221.453	538.2
221.83	528.8
222.208	524.4
222.585	533
222.962	537.8
223.34	538.8
223.717	535.6
224.095	535.8
224.473	537.4
224.851	526.6
225.229	525.4
225.607	547
225.985	523.4
226.363	534
226.741	540.2
227.119	533.8
227.497	546.4
227.876	528.8
228.254	548.8
228.633	538.4
229.011	536.6
229.39	536.4
229.769	538
230.148	538.8
230.527	550.8
230.905	538
231.284	537
231.664	529
232.043	551.6
232.422	540.6
232.801	538.4
233.181	542.6
233.56	535
233.94	529.2
234.319	524.8
234.699	535.8
235.079	569.8
235.458	566.2
235.838	546.6
236.218	522.6
236.598	527.8
236.978	532
237.358	535.8
237.738	535.8
238.119	540.6
238.499	519.8
238.88	538.4
239.26	541.4
239.641	530.4
240.021	532.2
240.402	538.2
240.783	531.6
241.163	536.4
241.544	544.6
241.925	535.4
242.306	551.2
242.687	538.6
243.069	539
243.45	545.4
243.831	539.8
244.212	544.4
244.594	570
244.975	543.8
245.357	538.8
245.739	534.6
246.12	538.2
246.502	551.8
246.884	536.8
247.266	526.8
247.648	535.4
248.03	554
248.412	537.2
248.794	541.6
249.176	539.4
249.559	545.2
249.941	531.8
250.323	529.8
250.706	532.8
251.089	533.6
251.471	543
251.854	543.6
252.237	536.2
252.62	549.8
253.002	536.4
253.385	540.4
253.769	545.6
254.152	543.6
254.535	544
254.918	524.4
255.301	538.2
255.685	538.4
256.068	525.8
256.452	553.8
256.835	538.6
257.219	541.6
257.603	545.4
257.986	536
258.37	542
258.754	525.8
259.138	537.6
259.522	537.8
259.906	537
260.29	540
260.675	543.6
261.059	538.8
261.443	526.4
261.828	545.4
262.212	538
262.597	526.6
262.981	531.2
263.366	534.2
263.751	544
264.136	531.4
264.521	540.6
264.906	530
265.291	547.6
265.676	532.8
266.061	543.8
266.446	555.4
266.831	529.4
267.217	554.2
267.602	534.2
267.987	536
268.373	532.6
268.759	541.2
269.144	539.6
269.53	536.8
269.916	534.8
270.302	532.8
270.688	540.6
271.074	545.6
271.46	545.2
271.846	563.6
272.232	530.4
272.618	532.4
273.004	539.6
273.391	543
273.777	552.4
274.164	541.8
274.55	547.2
274.937	528.2
275.324	536
275.71	544.2
276.097	542.4
276.484	528.6
276.871	542.8
277.258	535.4
277.645	526.2
278.032	540.2
278.419	530.4
278.807	536.8
279.194	526.6
279.581	538.2
279.969	544.4
280.356	536
280.744	538.8
281.131	558
281.519	545.2
281.907	541.2
282.295	537.8
282.682	547.8
283.07	547.4
283.458	546
283.846	542.4
284.235	540.2
284.623	543
285.011	531
285.399	535.2
285.788	535
286.176	531.4
286.565	545
286.953	534
287.342	533.6
287.731	528.6
288.119	531.8
288.508	537.2
288.897	534
289.286	523.8
289.675	535.8
290.064	536.6
290.453	539.6
290.821	545.2
291.21	552.6
291.599	535
291.989	541.8
292.378	546.4
292.768	551.6
293.157	540.4
293.547	543.8
293.936	533.6
294.326	540.2
294.716	537.8
295.106	537.6
295.496	543.6
295.886	548.6
296.276	542.8
296.666	532.8
297.056	524.8
297.446	520.4
297.836	555.6
298.227	537
298.617	533.4
299.008	545.4
299.398	540.6
299.789	531.8
300.179	541.4
300.57	544.4
300.961	530.8
301.352	534.2
301.742	537.8
302.133	535
302.524	530
302.915	535.6
303.307	540.6
303.698	544.8
304.089	543.2
304.48	541.8
304.872	545
305.263	538
305.655	526.4
306.046	540.2
306.438	547.6
306.829	535.4
307.221	549
307.613	545.6
308.005	547.2
308.397	553.6
308.789	558
309.181	558.4
309.573	551.4
309.965	552.6
310.357	535.4
310.749	550.2
311.142	534.4
311.534	534.4
311.926	537.8
312.319	538
312.711	532
313.104	540.6
313.497	535.2
313.889	563
314.282	544.8
314.675	560
315.068	534
315.461	544.8
315.854	560.4
316.247	539.2
316.64	535.4
317.033	532.2
317.405	538.8
317.798	528.6
318.192	531.6
318.585	531.2
318.979	539.6
319.372	535
319.766	535
320.16	544.2
320.553	542.4
320.947	556.4
321.341	530.4
321.735	534.6
322.129	526.8
322.523	547.6
322.917	539
323.311	546.4
323.705	540.2
324.099	545
324.494	549.4
324.888	545.6
325.282	535
325.677	548.4
326.071	545.8
326.466	547.6
326.861	547.2
327.255	555.4
327.65	549.4
328.045	547.8
328.44	533.8
328.835	534.4
329.23	536.2
329.625	554.4
330.02	541
330.415	550.8
330.81	541.4
331.206	535
331.601	536.4
331.996	544.6
332.37	552.4
332.766	529.4
333.161	554.2
333.557	534.8
333.953	541
334.348	836.4
334.744	535.6
335.14	532.6
335.536	530.8
335.932	541.2
336.328	530.6
336.724	545
337.12	537.6
337.516	548.6
337.913	544.4
338.309	559.8
338.705	533
339.102	536
339.498	530
339.895	546.8
340.291	528.2
340.688	544.6
341.085	533.8
341.481	540.8
341.878	534.2
342.275	547.8
342.672	535.8
343.069	535.6
343.466	529
343.842	548
344.239	524.6
344.636	532
345.033	526.4
345.431	530
345.828	537.8
346.225	530.2
346.623	564.8
347.02	531.8
347.418	540.4
347.816	544.6
348.213	529.2
348.611	542.8
349.009	532.4
349.407	549.8
349.805	529
350.203	520.8
350.601	541
350.999	539.8
351.397	592.6
351.795	522.6
352.193	541.2
352.57	541.6
352.969	547.4
353.367	524.6
353.766	528
354.164	528.4
354.563	538.6
354.961	531.6
355.36	530.8
355.759	530
356.158	526
356.557	532.4
356.956	532.4
357.355	530.8
357.754	534.2
358.153	531
358.552	550.2
358.951	525.4
359.35	534.4
359.75	527.8
360.149	518.6
360.527	524.6
360.926	526
361.326	535.2
361.726	538.2
362.125	529.8
362.525	542
362.925	534.2
363.325	537
363.724	534.8
364.124	530.8
364.524	528.8
364.924	536
365.324	543.8
365.725	523.2
366.125	534.6
366.525	535.6
366.904	527.2
367.304	512.8
367.705	547.2
368.105	544
368.506	532.4
368.906	526.4
369.307	532.2
369.708	531
370.108	529.2
370.509	540.6
370.91	522.8
371.311	529.8
371.712	530.8
372.113	525.4
372.514	513.8
372.894	529.6
373.295	522
373.696	531.6
374.097	533.4
374.499	553.6
374.9	533.2
375.301	519
375.703	534.4
376.105	524.2
376.506	534.4
376.908	529
377.309	529.6
377.711	528.6
378.113	520.4
378.493	529.4
378.895	526.6
379.297	541.8
379.699	519.8
380.102	529.4
380.504	533
380.906	522
381.308	546.4
381.71	529
382.113	539
382.515	532.4
382.918	527
383.299	527
383.701	536
384.104	532
384.507	516.4
384.909	520.8
385.312	516
385.715	519.2
386.118	524.4
386.521	526.2
386.924	537
387.327	523
387.709	519.8
388.112	516.8
388.515	527.8
388.918	521.6
389.322	532
389.725	518.2
390.129	548.2
390.532	525.4
390.936	529
391.339	520.8
391.743	534.4
392.125	516.8
392.529	532
392.933	536
393.337	526.8
393.74	525
394.144	527
394.548	520.8
394.953	528
395.357	533.2
395.761	525.2
396.144	527.2
396.548	518.6
396.952	526.2
397.357	529.2
397.761	519.6
398.166	526.8
398.57	533
398.975	519.2
399.379	529.6
399.763	572.6
400.168	532.2
400.572	526.8
400.977	537.4
401.382	544.2
401.787	533.4
402.192	553.2
402.597	544
403.002	519
403.386	545.6
403.791	550.8
404.197	520.4
404.602	527.4
405.007	529.2
405.413	528.6
405.818	526.4
406.224	527.2
406.608	526.8
407.014	517.4
407.42	538.8
407.825	522
408.231	535.4
408.637	531.4
409.043	539.2
409.449	515.4
409.834	520.2
410.24	526.4
410.646	538.4
411.052	547.4
411.458	528.6
411.865	534.4
412.271	526.4
412.677	531.6
413.062	533.8
413.469	522.8
413.875	547
414.282	545
414.689	533.8
415.095	539.8
415.502	523.8
415.888	527.4
416.294	517
416.701	564.4
417.108	524.2
417.515	532.2
417.923	522.6
418.33	545.6
418.715	535.2
419.123	522
419.53	523.4
419.937	533.6
420.345	535.6
420.752	525.6
421.16	538.6
421.546	525.2
421.953	534
422.361	517.4
422.769	529.6
423.177	522.6
423.585	551.2
423.992	546.6
424.379	539.4
424.787	538.4
425.195	552
425.603	528.8
426.011	535.6
426.419	544
426.806	531.8
427.214	540
427.623	536.6
428.031	544
428.44	539.8
428.848	543.6
429.235	545.6
429.644	531.2
430.053	533.2
430.461	549
430.87	557.8
431.279	537.2
431.666	526.8
432.075	541.2
432.484	533.4
432.893	533
433.302	534.8
433.711	563
434.099	536.2
434.508	524.2
434.918	515.2
435.327	538.8
435.737	532.6
436.125	533.4
436.534	531
436.944	540.8
437.353	539.2
437.763	539
438.173	520.6
438.561	535
438.971	516.2
439.381	535
439.791	532.6
440.201	511
440.589	530.8
440.999	534.6
441.409	521.4
441.819	520.8
442.23	531
442.619	536.4
443.029	529.2
443.439	532.8
443.85	542
444.26	537
444.649	529.4
445.06	529
445.471	526.4
445.881	527.2
446.292	544.6
446.682	538.2
447.092	520.2
447.503	568.2
447.914	529
448.325	529
448.715	531
449.126	524.4
449.537	522.6
449.948	526.4
450.338	525.2
450.75	533.8
451.161	530.2
451.572	523.4
451.984	518.4
452.374	511.2
452.786	529.2
453.197	530
453.609	533.8
453.999	510.6
454.411	518.4
454.823	531.2
455.235	522.8
455.647	519.6
456.037	524.6
456.449	519.8
456.862	521
457.274	532.4
457.665	521
458.077	535
458.489	550.6
458.902	523.8
459.293	522.2
459.705	528.6
460.118	524.2
460.53	526
460.921	523
461.334	525.4
461.747	527.2
462.16	532.6
462.551	536
462.964	531.4
463.377	509.4
463.79	529.6
464.182	519.2
464.595	517.6
465.008	526.8
465.421	531
465.813	525.4
466.226	533.6
466.64	520.4
467.053	562.8
467.445	531
467.859	540.2
468.272	532.2
468.686	536.4
469.078	517.4
469.492	515.2
469.906	522
470.298	532.2
470.712	523
471.126	544.2
471.54	511.2
471.933	512.6
472.347	520
472.761	511.4
473.175	518.2
473.568	518.4
473.982	515.4
474.397	525
474.79	522.2
475.204	525.4
475.619	520
476.033	524
476.426	529.4
476.841	510.8
477.256	543.8
477.649	520.8
478.064	513.6
478.479	517.6
478.872	515.6
479.287	507
479.702	511.8
480.118	519.4
480.511	508.8
480.927	523.2
481.342	514.8
481.736	522.6
482.151	514.2
482.566	530
482.96	519.4
483.376	530
483.792	517.8
484.186	517.2
484.602	516.8
485.017	527.4
485.412	513.6
485.827	519
486.243	526.2
486.638	537.4
487.054	525.2
487.47	533.8
487.865	518.2
488.281	519.8
488.697	520.8
489.092	516.6
489.508	517.2
489.925	532.6
490.32	511.4
490.736	527
491.153	514.6
491.548	520.4
491.964	527.2
492.381	511
492.776	519.8
493.193	522
493.61	529.4
494.006	526.4
494.422	523.6
494.84	513.2
495.235	525.2
495.652	520.6
496.069	518.6
496.465	514.8
496.883	516.4
497.3	540.2
497.696	516
498.113	526.6
498.509	516
498.927	522.2
499.344	509.6
499.741	517.4
500.158	519.2
500.576	529.2
500.973	523.4
501.39	508.2
501.787	511
502.205	513.4
502.623	515.2
503.02	513.8
503.438	518.2
503.856	520
504.253	508.8
504.671	512
505.068	516.8
505.486	515.8
505.905	526.4
506.302	520.6
506.72	525.8
507.118	504
507.536	522
507.955	520.6
508.352	523
508.771	519.8
509.169	518.6
509.587	504.2
510.006	510.4
510.404	500.6
510.823	509.8
511.221	511.8
511.64	517.2
512.038	525.4
512.457	508.2
512.877	516.2
513.275	509.4
513.694	517.8
514.092	507.8
514.512	525.2
514.91	525.2
515.33	515
515.749	520.6
516.148	514.4
516.568	516.8
516.966	516.2
517.386	518.8
517.785	523.2
518.205	519
518.603	509
519.024	508.4
519.444	517.4
519.843	520.8
520.263	518
520.662	525.4
521.082	510
521.481	516.8
521.902	510
522.301	518.2
522.722	525.6
523.121	514
523.542	514.6
523.963	508.6
524.362	515.2
524.783	516.4
525.183	517.6
525.604	517.2
526.003	512.6
526.425	514.6
526.824	520.6
527.246	531.6
527.646	523.4
528.067	514.6
528.467	518.8
528.888	522.2
529.289	505.2
529.71	513.4
530.11	509.8
530.532	514.2
530.932	509.6
531.354	509.6
531.755	543.2
532.176	521
532.577	515.8
532.999	519.6
533.4	513.2
533.822	519.4
534.223	520.4
534.645	524
535.046	507.4
535.468	513.6
535.869	531
536.292	514.2
536.693	549
537.115	514.6
537.516	511.4
537.939	518
538.34	531.2
538.742	526.8
539.165	522.4
539.566	521
539.989	510.8
540.391	521.4
540.814	518.8
541.216	517.8
541.639	517.4
542.041	520.4
542.464	516
542.866	505.2
543.268	509.4
543.691	515
544.093	523
544.517	534.2
544.919	510.8
545.343	535.4
545.745	511.2
546.147	517.2
546.571	514.4
546.974	510
547.398	512.6
547.8	525.6
548.224	514
548.627	512.4
549.03	522
549.454	510.6
549.857	500
550.281	507.2
550.684	511
551.087	517.6
551.512	518
551.915	518.8
552.34	515.6
552.743	514.4
553.146	516.6
553.571	513
553.975	531.4
554.399	505.2
554.803	551
555.207	513.2
555.632	514.8
556.036	513.4
556.461	510
556.865	514.2
557.268	507.8
557.694	511.4
558.098	516.6
558.502	518.4
558.927	507.8
559.332	512.4
559.736	520.6
560.162	515.2
560.566	519
560.992	519.4
561.396	520.4
561.801	517.8
562.227	515.2
562.631	514
563.036	516.4
563.462	525
563.867	519.8
564.272	512
564.698	521
565.103	507.4
565.508	527.8
565.935	517
566.34	502.2
566.745	517.8
567.172	504.2
567.577	517.2
567.982	520
568.409	511.6
568.815	508.6
569.22	510.8
569.626	520.8
570.053	502
570.459	509.4
570.865	512.2
571.292	516.6
571.698	517.4
572.104	504.8
572.531	506.6
572.937	524.8
573.343	512.6
573.75	520.4
574.177	513.2
574.583	520.4
574.99	512.2
575.396	512.8
575.824	504
576.231	511.8
576.637	506.4
577.065	533.4
577.472	522.8
577.879	514.4
578.286	523.6
578.714	503.2
579.121	511.4
579.528	511.4
579.935	519.4
580.364	507.6
580.771	502.4
581.178	509.4
581.585	519
582.014	521.6
582.421	509
582.829	509.6
583.236	516
583.644	508.4
584.073	508.8
584.481	508.4
584.889	511.4
585.296	515
585.726	518.8
586.134	504.8
586.542	507.8
586.95	525.8
587.358	502.2
587.787	514.2
588.196	500.8
588.604	504.8
589.012	514
589.421	510.2
589.851	495.6
590.259	513.6
590.668	509
591.076	536.8
591.485	498.6
591.894	510
592.324	532
592.733	520.2
593.142	502.4
593.551	505.2
593.96	543.6
594.369	498.2
594.8	504.8
595.209	515
595.618	502
596.028	507
596.437	511
596.847	507.8
597.256	511.6
597.687	522.2
598.097	515.6
598.507	499.6
598.917	514.6
599.327	511.8
599.736	515.6
600.146	520
600.556	514
600.988	531
601.398	510.2
601.808	515
602.219	504
602.629	509.6
603.039	507.4
603.45	532.6
603.86	508.2
604.271	518.2
604.703	520
605.114	505.4
605.525	514.6
605.935	517.8
606.346	526.8
606.757	511.8
607.168	505.4
607.579	501.2
607.99	521.4
608.402	508
608.813	514.6
609.224	502
609.636	497.8
610.047	492.8
610.48	510
610.892	519
611.303	521.4
611.715	508.4
612.127	497.4
612.539	510.4
612.95	515.2
613.362	500.8
613.774	504.2
614.186	508.2
614.599	507.6
615.011	518.6
615.423	519
615.835	503.6
616.248	499.4
616.66	516
617.073	505
617.485	508
617.898	521.8
618.311	511.8
618.723	514
619.136	525.2
619.549	524
619.962	531.4
620.375	511
620.788	516.2
621.201	513.8
621.614	520.8
622.028	514
622.441	518.4
622.854	524
623.268	507.2
623.681	514
624.095	515.6
624.509	518.4
624.922	516.6
625.336	498.4
625.728	516.6
626.142	522.6
626.556	528
626.97	517.6
627.384	511.8
627.799	510.6
628.213	528
628.627	516.8
629.041	506.4
629.456	510.4
629.87	510
630.285	519.2
630.699	515.2
631.093	508.8
631.507	520
631.922	512.8
632.337	514.8
632.752	499.2
633.167	511
633.582	509
633.997	506
634.412	512
634.806	507.6
635.221	502
635.637	516.6
636.052	501.6
636.468	509
636.883	532.6
637.299	509
637.715	508
638.109	513.8
638.525	501.8
638.941	512.6
639.357	516.2
639.773	517.4
640.189	500.4
640.584	506.2
641	513.2
641.416	504.4
641.832	511.4
642.249	508.2
642.665	511.6
643.06	513
643.477	520.2
643.894	498.2
644.31	506.8
644.727	516.4
645.123	507.6
645.54	507.6
645.957	505.8
646.374	519.8
646.77	511.4
647.187	532.2
647.604	506.6
648.021	494.4
648.439	503.8
648.835	508
649.252	505.2
649.67	500
650.088	508.4
650.484	508.2
650.902	516
651.32	514.6
651.738	498
652.134	511.6
652.552	525.6
652.971	514
653.389	519.8
653.786	519.6
654.204	519
654.622	507.8
655.019	507.8
655.438	517
655.857	510.2
656.275	512
656.673	509
657.091	519.4
657.51	508.2
657.908	519
658.327	526.6
658.746	500.4
659.144	508.8
659.563	512.4
659.982	513
660.38	499.8
660.8	508.8
661.219	519.4
661.617	508.2
662.037	508
662.457	517.6
662.855	498.2
663.275	533.2
663.695	512.4
664.094	513.6
664.514	511.8
664.934	499.8
665.333	515.4
665.753	500.6
666.152	503.6
666.572	503.2
666.993	514.6
667.392	506.2
667.812	502.4
668.212	505.8
668.632	515.2
669.053	508
669.453	516.6
669.874	509.6
670.273	515.6
670.694	506.4
671.116	523.2
671.515	506.6
671.937	511.8
672.337	502
672.758	500.6
673.158	521.6
673.58	502.6
673.98	509.2
674.402	515
674.824	502.6
675.224	508.6
675.646	498.2
676.047	503.2
676.469	504.8
676.869	512
677.292	514.4
677.693	494.8
678.115	502.2
678.516	517.2
678.939	503
679.34	508.6
679.762	518
680.164	514
680.586	498.2
680.988	503.4
681.411	524.8
681.812	500
682.236	511
682.637	497.8
683.061	498.2
683.462	512.8
683.864	509.4
684.288	510
684.69	500.2
685.114	506.8
685.516	513.6
685.94	496
686.342	510.6
686.766	504.2
687.168	502
687.571	528.8
687.995	506.6
688.398	497.8
688.822	501
689.225	519.6
689.628	523.8
690.052	507.6
690.456	514.6
690.88	504.4
691.284	495
691.687	515.2
692.112	494.6
692.515	500.4
692.919	505
693.344	508.4
693.747	509.8
694.173	496
694.577	517.6
694.98	510.6
695.406	501.8
695.81	512.8
696.214	511.6
696.64	504.4
697.044	514.8
697.448	514.2
697.874	508.6
698.279	503.8
698.684	491.8
699.11	502.2
699.514	505.4
699.919	500.2
700.324	498.2
700.75	510.4
701.156	495.6
701.561	512.8
701.987	500.4
702.393	515.8
702.798	515
703.203	504
703.63	492.8
704.036	501.6
704.442	516.2
704.847	503.6
705.274	496.4
705.68	508.8
706.086	510.2
706.492	500.2
706.92	504
707.326	502.6
707.732	502.6
708.139	499
708.545	492.8
708.973	504.8
709.38	505
709.786	493.4
710.193	516
710.6	508.8
711.028	499.4
711.435	499.6
711.842	498
712.249	496.8
712.656	504.2
713.064	523
713.492	495.6
713.9	503.2
714.307	513.6
714.715	499.4
715.123	513.6
715.53	509.4
715.938	509.4
716.367	514.8
716.775	502.8
717.184	498.8
717.592	494.8
718	511.6
718.408	529
718.816	539.6
719.225	510.2
719.633	504.4
720.042	495.4
720.472	504.8
720.881	520.4
721.29	509
721.699	507.6
722.108	505.8
722.517	506.6
722.926	505.2
723.335	515.4
723.744	498.8
724.154	512
724.563	509.6
724.973	505
725.382	501.4
725.792	503.2
726.202	499.8
726.612	517.6
727.022	498.2
727.432	502.2
779.813	509
780.223	541.2
780.634	500.8
781.044	501.4
781.454	507.2
781.865	515.4
782.276	490.6
782.686	506.8
783.097	498.8
783.508	505.2
783.919	515.4
784.33	514
784.741	516.6
785.152	502.6
785.563	499
785.974	495.6
786.386	511.6
786.776	503
787.188	502
787.599	490
788.011	503
788.423	508.4
788.835	508
789.247	494.4
789.659	497.4
790.071	503.6
790.483	534.8
790.874	501.2
791.286	507.6
791.699	499
792.111	504.4
792.524	505
792.937	507.6
793.349	493.8
793.741	500.6
794.154	499.2
794.567	516.2
794.98	504
795.393	490.6
795.785	519.8
796.198	493.2
796.612	500.4
797.026	504.2
797.439	488.2
797.831	502
798.245	493.6
798.659	506.4
799.073	499.4
799.487	502.4
799.88	502.2
800.294	505.8
800.708	514.8
801.123	501.2
801.516	517.6
801.93	491.2
802.345	489
802.76	501.2
803.153	502.6
803.568	507.2
803.983	512.4
804.377	508
804.792	495.6
805.207	493.2
805.601	502.8
806.016	532
806.432	498.8
806.826	525.6
807.242	514.2
807.658	509.8
808.052	500.2
808.468	493.8
808.884	494.6
809.279	507.6
809.695	516.4
810.111	532
810.506	504.8
810.922	514.4
811.339	507.6
811.734	505.6
812.151	502.2
812.546	503.6
812.963	495.6
813.38	508
813.776	498.4
814.193	521.2
814.589	501.2
815.006	500.8
815.402	497
815.82	503.6
816.237	501.2
816.633	503.4
817.051	508
817.448	503.2
817.866	491.4
818.262	520
818.68	498.4
819.077	497.2
819.495	497.6
819.892	527
820.311	499.4
820.708	497.2
821.127	502.2
821.524	510.4
821.943	502.8
822.34	509
822.759	499.8
823.157	501.8
823.576	513.6
823.974	507.4
824.393	590.8
824.791	496.4
825.189	493.4
825.609	499
826.007	503.8
826.427	495.6
826.826	507.4
827.246	504.6
827.644	489.4
828.043	513.4
828.463	505.6
828.862	506.2
829.261	502.8
829.682	499.8
830.081	504.6
830.502	498.6
830.901	503.2
831.301	494.4
831.722	492.6
832.121	492.8
832.521	498.8
832.943	497.2
833.342	506.4
833.742	495
834.164	496.2
834.564	490.8
834.965	489.2
835.386	503.2
835.787	494.6
836.188	499
836.588	501.4
837.01	501.2
837.411	501
837.812	506.8
838.213	504.4
838.636	502.8
839.037	554.4
839.438	503.8
839.84	502.2
840.263	502.4
840.664	504.4
841.066	499.8
841.468	507
841.891	499.4
842.293	508.6
842.695	504.4
843.098	512.8
843.5	500.8
843.902	508.2
844.326	510
844.729	503.6
845.131	512.4
845.534	508.2
845.937	509.2
846.34	503.2
846.764	492
847.167	504.4
847.571	491
847.974	498.4
848.377	490.8
848.781	543.2
849.184	505.4
849.588	496.2
849.992	489.2
850.396	508.6
850.821	508.2
851.225	505.8
851.63	498.4
852.034	504.2
852.438	500.6
852.843	569
853.247	488.8
853.652	493.2
854.057	513.4
854.462	504
854.867	506
855.272	527.8
855.677	496.6
856.082	492.4
856.487	491.8
856.893	504
857.298	498.8
857.704	491.8
