#lambda/nm	C1
208.295	464.6
208.67	429.8
209.045	394.2
209.419	399.2
209.794	531.2
210.169	525.4
210.544	625
210.919	538.6
211.295	529.8
211.67	529.8
212.045	528.4
212.421	530
212.796	564.2
213.172	530.8
213.547	532
213.923	533.6
214.299	528
214.675	538.2
215.051	538.2
215.427	543
215.803	550.8
216.179	545
216.555	533
216.932	544.2
217.308	535.4
217.684	534.8
218.061	545.2
218.438	550.6
218.814	532
219.191	544
219.568	526.8
219.945	534.6
220.322	551.2
220.699	534.6
221.076	546.2
221.453	538.4
221.83	529.4
222.208	534.8
222.585	532.6
222.962	540.8
223.34	532.4
223.717	533.6
224.095	539.6
224.473	539.6
224.851	528
225.229	520.6
225.607	542
225.985	524.8
226.363	541.2
226.741	538.8
227.119	538.2
227.497	543.8
227.876	532.8
228.254	541.4
228.633	538.6
229.011	537.6
229.39	540.8
229.769	538
230.148	536.6
230.527	554.6
230.905	534.2
231.284	533.8
231.664	523.2
232.043	549.2
232.422	542.4
232.801	531
233.181	542.6
233.56	531
233.94	534.4
234.319	521
234.699	537.8
235.079	570
235.458	563.4
235.838	544
236.218	525.6
236.598	528.4
236.978	527.8
237.358	526.4
237.738	533.6
238.119	544.2
238.499	526
238.88	536.6
239.26	549.8
239.641	526.6
240.021	529.2
240.402	525
240.783	531.2
241.163	538.6
241.544	540.4
241.925	540
242.306	549.4
242.687	528.4
243.069	537.4
243.45	545.8
243.831	531.8
244.212	531.4
244.594	566.6
244.975	540.2
245.357	534.8
245.739	532
246.12	534.2
246.502	544.4
246.884	534.4
247.266	534.6
247.648	544.8
248.03	555.8
248.412	533.6
248.794	542.2
249.176	531.8
249.559	543.4
249.941	532.4
250.323	530.6
250.706	526.6
251.089	535.6
251.471	540
251.854	539.2
252.237	531.8
252.62	549.4
253.002	533.2
253.385	534.2
253.769	549
254.152	533.4
254.535	537.8
254.918	526.4
255.301	534.6
255.685	529.6
256.068	529.6
256.452	548.4
256.835	549
257.219	540
257.603	552.6
257.986	529.6
258.37	537.8
258.754	526
259.138	540.6
259.522	537
259.906	534.8
260.29	533.4
260.675	535.4
261.059	533.2
261.443	529.2
261.828	539.6
262.212	533.4
262.597	529.8
262.981	537.6
263.366	537.2
263.751	536
264.136	531.8
264.521	532
264.906	523.2
265.291	546.4
265.676	528.2
266.061	545.4
266.446	551.4
266.831	526.6
267.217	549.2
267.602	532.4
267.987	535
268.373	530.8
268.759	545
269.144	541.8
269.53	537
269.916	533.8
270.302	526.8
270.688	541.2
271.074	534.6
271.46	534.6
271.846	552.8
272.232	538
272.618	532.2
273.004	534.8
273.391	543.8
273.777	540.4
274.164	530.4
274.55	548.6
274.937	534
275.324	525
275.71	540.6
276.097	546.2
276.484	538.4
276.871	533
277.258	535
277.645	529.8
278.032	529.8
278.419	536.4
278.807	537.8
279.194	530.2
279.581	533.2
279.969	543.4
280.356	535.4
280.744	533.4
281.131	560.8
281.519	545.8
281.907	529.2
282.295	525.8
282.682	545.6
283.07	536.8
283.458	537
283.846	538.6
284.235	547.4
284.623	540.6
285.011	532.6
285.399	538.8
285.788	535.4
286.176	526.8
286.565	540.4
286.953	528.2
287.342	532.4
287.731	523
288.119	531
288.508	529.8
288.897	534.4
289.286	531.6
289.675	540.6
290.064	544.2
290.453	525.2
290.821	531.4
291.21	550.2
291.599	533.4
291.989	532.4
292.378	544.6
292.768	556
293.157	543.2
293.547	538.6
293.936	534.6
294.326	527.4
294.716	539
295.106	533.2
295.496	540.2
295.886	541.2
296.276	538.6
296.666	530.2
297.056	528.4
297.446	528
297.836	546.6
298.227	536.4
298.617	528.4
299.008	546.4
299.398	529.8
299.789	530.2
300.179	538.6
300.57	545.6
300.961	531
301.352	523.6
301.742	530.6
302.133	534.6
302.524	537.6
302.915	532.8
303.307	519.6
303.698	544.4
304.089	534.8
304.48	534.8
304.872	531.6
305.263	532
305.655	532.2
306.046	541.4
306.438	537.4
306.829	527.2
307.221	537.4
307.613	540.6
308.005	543.6
308.397	542
308.789	558.2
309.181	564.4
309.573	547.8
309.965	540
310.357	531.6
310.749	541
311.142	532
311.534	535.2
311.926	540
312.319	530.2
312.711	527.8
313.104	545.8
313.497	535.6
313.889	563.4
314.282	546.2
314.675	556.6
315.068	536.2
315.461	544.8
315.854	563.8
316.247	538.2
316.64	539.8
317.033	536.4
317.405	539.8
317.798	538.2
318.192	542
318.585	535.2
318.979	537.2
319.372	527.2
319.766	540.8
320.16	540
320.553	545
320.947	553.8
321.341	534.2
321.735	533.8
322.129	523.4
322.523	546
322.917	531.8
323.311	544.4
323.705	535.2
324.099	544.2
324.494	542.8
324.888	541.4
325.282	536.6
325.677	552.2
326.071	543.4
326.466	543.2
326.861	540
327.255	538.2
327.65	538.4
328.045	545.6
328.44	542.2
328.835	534.2
329.23	527.4
329.625	562.2
330.02	530.4
330.415	552
330.81	544.4
331.206	540.2
331.601	539.8
331.996	542
332.37	551.6
332.766	529.6
333.161	558.6
333.557	536.2
333.953	530.2
334.348	799.2
334.744	537.8
335.14	537.6
335.536	528.6
335.932	545
336.328	539.4
336.724	539.8
337.12	534.8
337.516	536.6
337.913	527.8
338.309	537
338.705	527
339.102	534
339.498	529.8
339.895	548
340.291	532.8
340.688	532
341.085	520.4
341.481	529
341.878	536.8
342.275	551.2
342.672	527.8
343.069	526.4
343.466	526.4
343.842	547
344.239	526
344.636	539.4
345.033	527.2
345.431	526
345.828	530.2
346.225	526.6
346.623	571.4
347.02	535.6
347.418	541.8
347.816	540.4
348.213	527.2
348.611	538.4
349.009	523.4
349.407	540.4
349.805	525.2
350.203	527
350.601	545
350.999	533
351.397	577
351.795	528.6
352.193	535.2
352.57	536.4
352.969	545.4
353.367	529.6
353.766	522.4
354.164	532
354.563	548.4
354.961	531.8
355.36	530.4
355.759	532.4
356.158	528.4
356.557	526.8
356.956	530.8
357.355	518.8
357.754	535.2
358.153	531.2
358.552	542.4
358.951	526
359.35	543.6
359.75	521.4
360.149	518
360.527	512
360.926	524.4
361.326	531.8
361.726	526.2
362.125	523.6
362.525	538.4
362.925	522
363.325	532.6
363.724	531.2
364.124	522.6
364.524	520.2
364.924	528
365.324	537
365.725	521.6
366.125	533.2
366.525	530
366.904	521.8
367.304	516.8
367.705	541.6
368.105	538.6
368.506	525.8
368.906	523.8
369.307	533.2
369.708	532
370.108	516.4
370.509	540.4
370.91	526.2
371.311	536.2
371.712	533.4
372.113	523
372.514	523.4
372.894	535.2
373.295	525.8
373.696	536.2
374.097	532.6
374.499	550.2
374.9	529.8
375.301	521.6
375.703	534.4
376.105	520.8
376.506	527
376.908	530
377.309	536
377.711	532
378.113	522.6
378.493	524
378.895	522.4
379.297	538.4
379.699	517
380.102	536.8
380.504	521.2
380.906	520.2
381.308	542.2
381.71	527.4
382.113	540.6
382.515	521.6
382.918	537.4
383.299	523.8
383.701	536.4
384.104	528.4
384.507	508.2
384.909	525.8
385.312	516.6
385.715	519.6
386.118	528.6
386.521	513.8
386.924	529.8
387.327	516.8
387.709	518
388.112	511.8
388.515	518.2
388.918	523.4
389.322	524.6
389.725	526.8
390.129	546.8
390.532	536.8
390.936	531.4
391.339	515
391.743	526
392.125	521.2
392.529	530.8
392.933	542.8
393.337	534
393.74	529.4
394.144	524.6
394.548	528.2
394.953	529.6
395.357	540
395.761	530.2
396.144	521.8
396.548	523
396.952	528.6
397.357	524
397.761	523.4
398.166	521.8
398.57	526.8
398.975	512.4
399.379	528.6
399.763	561.6
400.168	519.2
400.572	522.2
400.977	521
401.382	536
401.787	532
402.192	543.6
402.597	539.8
403.002	515.8
403.386	538.2
403.791	534.2
404.197	527.4
404.602	530.6
405.007	524.4
405.413	518.8
405.818	529.4
406.224	517.8
406.608	527
407.014	520
407.42	533
407.825	518.6
408.231	531.2
408.637	531.6
409.043	541.4
409.449	527.4
409.834	520
410.24	518.2
410.646	542.2
411.052	537.2
411.458	530.2
411.865	533.6
412.271	531.6
412.677	528.2
413.062	534.6
413.469	523.6
413.875	546.4
414.282	534.4
414.689	532
415.095	527
415.502	527.4
415.888	523.4
416.294	520.4
416.701	564
417.108	519
417.515	528
417.923	530.2
418.33	548
418.715	532.8
419.123	526
419.53	518.8
419.937	525.6
420.345	537.4
420.752	521
421.16	539.4
421.546	518.2
421.953	533.6
422.361	516.8
422.769	523
423.177	519.2
423.585	545.8
423.992	542.2
424.379	532.8
424.787	540.8
425.195	543.6
425.603	527.4
426.011	536.6
426.419	533.6
426.806	527.6
427.214	526.8
427.623	539.6
428.031	535.2
428.44	525.6
428.848	549.8
429.235	542.2
429.644	533
430.053	525
430.461	538.2
430.87	549.8
431.279	533.2
431.666	526
432.075	526
432.484	535.8
432.893	527
433.302	537.8
433.711	563
434.099	529.4
434.508	526.6
434.918	519
435.327	521.6
435.737	526
436.125	523.6
436.534	528.4
436.944	538
437.353	527.2
437.763	538.4
438.173	517.8
438.561	530.2
438.971	513.6
439.381	523
439.791	528.4
440.201	501.8
440.589	524.6
440.999	532.8
441.409	527.8
441.819	519.2
442.23	534.2
442.619	529.4
443.029	531.2
443.439	533.4
443.85	539.8
444.26	540.8
444.649	523.6
445.06	534.4
445.471	526.6
445.881	522.6
446.292	533.6
446.682	539.8
447.092	514
447.503	557.2
447.914	525.4
448.325	523.6
448.715	524.2
449.126	520.8
449.537	524.6
449.948	526.6
450.338	520.4
450.75	527.6
451.161	532.8
451.572	530
451.984	519.8
452.374	514.2
452.786	524.2
453.197	525.6
453.609	528
453.999	512.6
454.411	512.2
454.823	527
455.235	520.2
455.647	523.8
456.037	530.4
456.449	504.4
456.862	522.8
457.274	525.6
457.665	513.4
458.077	517.8
458.489	547.6
458.902	525
459.293	525.4
459.705	525.4
460.118	512.2
460.53	522.8
460.921	525.2
461.334	528.8
461.747	522.4
462.16	536.2
462.551	527.6
462.964	528.4
463.377	522.4
463.79	520.8
464.182	526.4
464.595	520.2
465.008	521
465.421	528.8
465.813	516.6
466.226	527.6
466.64	525.8
467.053	560.6
467.445	525.4
467.859	535
468.272	527.8
468.686	536
469.078	523.4
469.492	510.4
469.906	528
470.298	529.4
470.712	511.6
471.126	544.2
471.54	516.4
471.933	516.6
472.347	514
472.761	520.2
473.175	515.8
473.568	517
473.982	520.2
474.397	528.6
474.79	521
475.204	527.6
475.619	522.6
476.033	523.2
476.426	518.8
476.841	512.2
477.256	548.8
477.649	518
478.064	512.4
478.479	514.8
478.872	515.2
479.287	499.8
479.702	515
480.118	516.6
480.511	516.4
480.927	515
481.342	512
481.736	514.8
482.151	512.2
482.566	526.4
482.96	520.4
483.376	525.6
483.792	517.4
484.186	518.8
484.602	520.2
485.017	524
485.412	519.8
485.827	529.8
486.243	520.6
486.638	545.4
487.054	523.6
487.47	526.4
487.865	520.8
488.281	511.2
488.697	510.4
489.092	517.8
489.508	516.4
489.925	527
490.32	516.4
490.736	525.4
491.153	521
491.548	513.8
491.964	530
492.381	514
492.776	525
493.193	516.6
493.61	520.4
494.006	518.8
494.422	519
494.84	510.8
495.235	525.2
495.652	515.8
496.069	521.2
496.465	506
496.883	516.6
497.3	533.8
497.696	510.8
498.113	526.6
498.509	499.8
498.927	512.2
499.344	513.8
499.741	511.2
500.158	519.4
500.576	525.6
500.973	514.6
501.39	512.2
501.787	511
502.205	515.2
502.623	517.4
503.02	505
503.438	514
503.856	512.4
504.253	515.6
504.671	517.2
505.068	517
505.486	506.4
505.905	533.6
506.302	518
506.72	526.4
507.118	515.8
507.536	510.2
507.955	516.6
508.352	520.2
508.771	521.8
509.169	525.8
509.587	506.6
510.006	521
510.404	513.2
510.823	511.8
511.221	516.6
511.64	507.2
512.038	531.4
512.457	518
512.877	511
513.275	516.2
513.694	509.2
514.092	518.4
514.512	517
514.91	518.2
515.33	513.2
515.749	512.4
516.148	514.8
516.568	516.2
516.966	511.8
517.386	516.6
517.785	514
518.205	514.2
518.603	509
519.024	508.8
519.444	514.8
519.843	520.8
520.263	523.4
520.662	520.6
521.082	508.4
521.481	522.4
521.902	518.8
522.301	522.2
522.722	519.8
523.121	509.2
523.542	503.8
523.963	512.4
524.362	511.4
524.783	511
525.183	516.6
525.604	517.2
526.003	511.6
526.425	506.2
526.824	519.8
527.246	520.2
527.646	531.2
528.067	514.2
528.467	512.8
528.888	519.2
529.289	506.8
529.71	516
530.11	516.6
530.532	510
530.932	503
531.354	510.6
531.755	545.6
532.176	526.6
532.577	514
532.999	517.4
533.4	507.6
533.822	522.4
534.223	515.2
534.645	506
535.046	512.8
535.468	513.2
535.869	522
536.292	507.4
536.693	546.2
537.115	516.4
537.516	513.6
537.939	513.6
538.34	525.2
538.742	524.8
539.165	521.4
539.566	516.6
539.989	511.8
540.391	515.8
540.814	518
541.216	521
541.639	518.4
542.041	524.4
542.464	516.4
542.866	510.8
543.268	515.6
543.691	522.4
544.093	516.2
544.517	527
544.919	508.4
545.343	536.4
545.745	505.6
546.147	522.6
546.571	514.2
546.974	504
547.398	519.2
547.8	518.8
548.224	516.6
548.627	500.4
549.03	519.6
549.454	507.2
549.857	506.2
550.281	504.8
550.684	506.8
551.087	521.4
551.512	521.4
551.915	512.8
552.34	511.2
552.743	515.6
553.146	515
553.571	517.6
553.975	530.4
554.399	512
554.803	552.8
555.207	506.4
555.632	505.8
556.036	508.4
556.461	506.4
556.865	513.6
557.268	512.8
557.694	505.8
558.098	516.8
558.502	506.2
558.927	510.8
559.332	505.6
559.736	514
560.162	516.8
560.566	505.8
560.992	508
561.396	508.8
561.801	512.6
562.227	520.4
562.631	509
563.036	514.8
563.462	518
563.867	517.2
564.272	506.6
564.698	523.6
565.103	511.2
565.508	529
565.935	517.8
566.34	516
566.745	519
567.172	512.2
567.577	535
567.982	521.2
568.409	511.8
568.815	509.6
569.22	517.2
569.626	522
570.053	507.8
570.459	513.8
570.865	526.4
571.292	513.6
571.698	519.8
572.104	502.6
572.531	511.6
572.937	525.6
573.343	516
573.75	513.6
574.177	514.2
574.583	519.6
574.99	512.6
575.396	516.4
575.824	508
576.231	515.4
576.637	504.2
577.065	530.8
577.472	506
577.879	504.8
578.286	519.2
578.714	500.2
579.121	508.8
579.528	512.4
579.935	514.6
580.364	511.6
580.771	494.6
581.178	515
581.585	516.8
582.014	515.6
582.421	510.6
582.829	511.4
583.236	515.2
583.644	505.8
584.073	510.4
584.481	514.8
584.889	510.6
585.296	514.4
585.726	512.2
586.134	503.2
586.542	506
586.95	525.2
587.358	499.8
587.787	510.4
588.196	508.2
588.604	510.2
589.012	515
589.421	508.4
589.851	504.6
590.259	518.6
590.668	511
591.076	541
591.485	508.6
591.894	518
592.324	520.8
592.733	516.6
593.142	498.8
593.551	505.8
593.96	543
594.369	505.6
594.8	501.8
595.209	505.8
595.618	499.4
596.028	507.4
596.437	504.8
596.847	510.2
597.256	512.2
597.687	513.2
598.097	509.6
598.507	499
598.917	512.6
599.327	513
599.736	510.6
600.146	515.8
600.556	505.8
600.988	527.2
601.398	512.2
601.808	522.8
602.219	503.6
602.629	516.4
603.039	510.2
603.45	533.8
603.86	512.8
604.271	523
604.703	520.8
605.114	508.2
605.525	506.8
605.935	519.4
606.346	532.8
606.757	520.6
607.168	517.6
607.579	504.8
607.99	525.6
608.402	515.4
608.813	514.8
609.224	514.6
609.636	510.8
610.047	509.6
610.48	519.4
610.892	518.6
611.303	515.2
611.715	509.8
612.127	507.8
612.539	513.6
612.95	516
613.362	499.2
613.774	503.6
614.186	504.6
614.599	507
615.011	516
615.423	516.2
615.835	515.6
616.248	510.6
616.66	515.6
617.073	501.4
617.485	508.2
617.898	513.8
618.311	518.8
618.723	509.2
619.136	528.8
619.549	528
619.962	528.8
620.375	517
620.788	509
621.201	516
621.614	526.8
622.028	514.6
622.441	519.8
622.854	528
623.268	515
623.681	521
624.095	519.8
624.509	526.4
624.922	518.6
625.336	508
625.728	513.4
626.142	516
626.556	525
626.97	518.2
627.384	509.8
627.799	505.8
628.213	517.2
628.627	510.2
629.041	511.4
629.456	507.2
629.87	510.2
630.285	522.6
630.699	522
631.093	508
631.507	521.2
631.922	521
632.337	521.2
632.752	499.4
633.167	512.6
633.582	512.4
633.997	514.4
634.412	510.8
634.806	519.4
635.221	500.6
635.637	523.4
636.052	503
636.468	523.4
636.883	532.6
637.299	516.8
637.715	503
638.109	518.4
638.525	499
638.941	522.8
639.357	519.8
639.773	520
640.189	511.6
640.584	511.8
641	519.2
641.416	501
641.832	512
642.249	510
642.665	507.8
643.06	517
643.477	525
643.894	491.6
644.31	512
644.727	510.8
645.123	518
645.54	509
645.957	513.8
646.374	515.8
646.77	514.8
647.187	536.6
647.604	512
648.021	504
648.439	508.2
648.835	516.2
649.252	507.2
649.67	510.8
650.088	503.8
650.484	513.8
650.902	509.4
651.32	514.8
651.738	498
652.134	507.2
652.552	519.2
652.971	507.4
653.389	506.6
653.786	518.6
654.204	517
654.622	506.4
655.019	508.2
655.438	506.2
655.857	513.6
656.275	510
656.673	501.2
657.091	510.8
657.51	498.4
657.908	512.4
658.327	510.6
658.746	495
659.144	510
659.563	511.4
659.982	509
660.38	496.6
660.8	513.8
661.219	519
661.617	508
662.037	501.8
662.457	514
662.855	489.4
663.275	533.8
663.695	509
664.094	505.6
664.514	506.6
664.934	500.8
665.333	512.2
665.753	503.2
666.152	496.8
666.572	498.6
666.993	517.8
667.392	505.2
667.812	505.2
668.212	503.4
668.632	519.4
669.053	502.6
669.453	509.6
669.874	512.4
670.273	515.2
670.694	506
671.116	513.8
671.515	511.4
671.937	505
672.337	501.6
672.758	501.8
673.158	511.2
673.58	497
673.98	503.8
674.402	513.6
674.824	504.6
675.224	502.6
675.646	499.4
676.047	500.2
676.469	501.4
676.869	504.6
677.292	503.8
677.693	498.2
678.115	504.4
678.516	508.6
678.939	512.8
679.34	508.8
679.762	519
680.164	502.8
680.586	500.6
680.988	510.2
681.411	530.4
681.812	500.8
682.236	499.2
682.637	493.6
683.061	490.8
683.462	511.6
683.864	503.8
684.288	513.8
684.69	492.6
685.114	513.4
685.516	508
685.94	501.8
686.342	512.6
686.766	498.4
687.168	501.4
687.571	525.6
687.995	511.4
688.398	498
688.822	503
689.225	515.4
689.628	511.6
690.052	505
690.456	513
690.88	501.4
691.284	491.6
691.687	508.8
692.112	493
692.515	500
692.919	508
693.344	509.8
693.747	499
694.173	494.2
694.577	510.8
694.98	511.4
695.406	501.8
695.81	506.4
696.214	514
696.64	516.2
697.044	511.2
697.448	509.4
697.874	499.8
698.279	501
698.684	505
699.11	496.2
699.514	503.8
699.919	505.4
700.324	503.6
700.75	510.2
701.156	505.2
701.561	514.6
701.987	505.8
702.393	519.2
702.798	509.8
703.203	505.8
703.63	499.4
704.036	502.6
704.442	509.6
704.847	492.6
705.274	500.2
705.68	500.4
706.086	503.6
706.492	495
706.92	508.6
707.326	510.2
707.732	499.8
708.139	498.8
708.545	499
708.973	505.4
709.38	506.2
709.786	494.4
710.193	513.2
710.6	508
711.028	497.4
711.435	499
711.842	494.8
712.249	502.4
712.656	503.6
713.064	510.6
713.492	496.6
713.9	500.4
714.307	511.4
714.715	510.2
715.123	508
715.53	502
715.938	513.6
716.367	509.2
716.775	495.6
717.184	493.8
717.592	496.8
718	508.6
718.408	525
718.816	537.2
719.225	510.2
719.633	506.4
720.042	501
720.472	504.8
720.881	518.2
721.29	503.6
721.699	496.6
722.108	502
722.517	499
722.926	500.4
723.335	502.2
723.744	498.8
724.154	504
724.563	495.8
724.973	501.4
725.382	498.8
725.792	498.2
726.202	492.2
726.612	508.2
727.022	495.8
727.432	492.4
779.813	505.8
780.223	538.4
780.634	504.2
781.044	497.6
781.454	498.2
781.865	505.8
782.276	498.2
782.686	510.8
783.097	503.8
783.508	495.8
783.919	514
784.33	517.2
784.741	506.8
785.152	491
785.563	493.6
785.974	502.8
786.386	507.6
786.776	507.8
787.188	509.6
787.599	494
788.011	509.2
788.423	508.8
788.835	496.2
789.247	491
789.659	500.8
790.071	489.8
790.483	537.8
790.874	503
791.286	503.8
791.699	499.8
792.111	501.8
792.524	506.2
792.937	507.6
793.349	493.2
793.741	495
794.154	504.2
794.567	510.8
794.98	497.8
795.393	493.4
795.785	508.8
796.198	491.4
796.612	504.2
797.026	489.4
797.439	486.4
797.831	490.4
798.245	484.6
798.659	502.8
799.073	494.8
799.487	490.2
799.88	501.6
800.294	500
800.708	502.4
801.123	495.6
801.516	515.6
801.93	490.4
802.345	491.4
802.76	501
803.153	502.2
803.568	504.6
803.983	505.4
804.377	497.2
804.792	494.8
805.207	489.6
805.601	506
806.016	526.2
806.432	495.8
806.826	528.8
807.242	507.8
807.658	501.4
808.052	498.8
808.468	498.8
808.884	495.8
809.279	504.6
809.695	514.4
810.111	518.2
810.506	509.4
810.922	518.6
811.339	502
811.734	506.6
812.151	504.4
812.546	497.4
812.963	498.8
813.38	498.4
813.776	496
814.193	524.2
814.589	496.2
815.006	502.4
815.402	501.6
815.82	495.2
816.237	488.2
816.633	504.6
817.051	491.2
817.448	501.8
817.866	492.2
818.262	516.2
818.68	491.8
819.077	499.8
819.495	498.6
819.892	535
820.311	498.2
820.708	494
821.127	497
821.524	510.2
821.943	502.4
822.34	513
822.759	502
823.157	499
823.576	510.8
823.974	504.6
824.393	589.4
824.791	495.4
825.189	493.8
825.609	489.8
826.007	494.4
826.427	484.4
826.826	495.6
827.246	500.4
827.644	480.8
828.043	502.6
828.463	497.8
828.862	513.8
829.261	504
829.682	495.6
830.081	503.8
830.502	491.8
830.901	497.6
831.301	495.6
831.722	495.2
832.121	499.2
832.521	488.6
832.943	500.2
833.342	499.6
833.742	493.4
834.164	497.8
834.564	495.6
834.965	504.4
835.386	502.8
835.787	500
836.188	495.6
836.588	494.8
837.01	502.2
837.411	499.6
837.812	498.8
838.213	507
838.636	499.6
839.037	557.2
839.438	500.2
839.84	497.8
840.263	500.6
840.664	509
841.066	500.2
841.468	505.2
841.891	501.2
842.293	507.2
842.695	499.8
843.098	503.8
843.5	497.6
843.902	499
844.326	506.8
844.729	500.4
845.131	512.4
845.534	496.2
845.937	509.4
846.34	507
846.764	494.8
847.167	502.6
847.571	491.2
847.974	504.6
848.377	507
848.781	536.6
849.184	507.2
849.588	494.4
849.992	493.2
850.396	500.2
850.821	513.2
851.225	509.2
851.63	495.4
852.034	509.2
852.438	507.8
852.843	559.4
853.247	486.4
853.652	496.4
854.057	507
854.462	499.8
854.867	493.8
855.272	529.8
855.677	504.4
