#lambda/nm	C1
208.295	465.6
208.67	435
209.045	397
209.419	403.6
209.794	540.4
210.169	523.4
210.544	631
210.919	534.6
211.295	530.4
211.67	534
212.045	533
212.421	536
212.796	561.2
213.172	534.6
213.547	528
213.923	527.6
214.299	534.4
214.675	536.2
215.051	542
215.427	542.8
215.803	551.4
216.179	538.8
216.555	526.8
216.932	539.2
217.308	536.4
217.684	528.2
218.061	538.4
218.438	535.2
218.814	531.8
219.191	543.4
219.568	532
219.945	535.6
220.322	544.2
220.699	537
221.076	541.8
221.453	536.6
221.83	530
222.208	529.6
222.585	529.2
222.962	527.2
223.34	539
223.717	539
224.095	542.8
224.473	541.2
224.851	532
225.229	527.6
225.607	549.8
225.985	527.8
226.363	535.8
226.741	538.8
227.119	534.6
227.497	549.4
227.876	521.2
228.254	539.6
228.633	547
229.011	535
229.39	542
229.769	535
230.148	546
230.527	553.8
230.905	537.8
231.284	543.2
231.664	539.8
232.043	558.8
232.422	545.2
232.801	534.4
233.181	542
233.56	539
233.94	537.6
234.319	519.8
234.699	530.6
235.079	575.6
235.458	575.8
235.838	547.6
236.218	531
236.598	528.4
236.978	525.6
237.358	525.6
237.738	529.6
238.119	548
238.499	524.4
238.88	524.8
239.26	549.6
239.641	527
240.021	529.2
240.402	538.2
240.783	533
241.163	531
241.544	536
241.925	535
242.306	548.4
242.687	531.4
243.069	533.4
243.45	548.4
243.831	534.6
244.212	525.4
244.594	567.4
244.975	545.2
245.357	543.4
245.739	539.4
246.12	533.2
246.502	557.8
246.884	530.8
247.266	531
247.648	536
248.03	555
248.412	535.4
248.794	539.4
249.176	535.8
249.559	553
249.941	530.2
250.323	534.4
250.706	528.4
251.089	539.2
251.471	535.2
251.854	537.6
252.237	535
252.62	546.8
253.002	537.4
253.385	538
253.769	549
254.152	543.6
254.535	539.6
254.918	537
255.301	533
255.685	537.6
256.068	530.8
256.452	557.8
256.835	542
257.219	545.6
257.603	547.8
257.986	530.2
258.37	540.4
258.754	530.2
259.138	544.8
259.522	542.2
259.906	535
260.29	533.6
260.675	535
261.059	542.4
261.443	530.8
261.828	544.2
262.212	542.8
262.597	527.4
262.981	538.2
263.366	541.6
263.751	537.8
264.136	525.4
264.521	532.6
264.906	531.8
265.291	549.8
265.676	531.8
266.061	546.4
266.446	550.6
266.831	532
267.217	554.4
267.602	539.2
267.987	543.8
268.373	535.8
268.759	538.8
269.144	542.2
269.53	531.6
269.916	528
270.302	538
270.688	540.4
271.074	541.8
271.46	546.6
271.846	563.8
272.232	534.4
272.618	526.2
273.004	539.2
273.391	543.6
273.777	546.4
274.164	536.6
274.55	551.2
274.937	539.2
275.324	530.8
275.71	539.8
276.097	544.6
276.484	534
276.871	542.6
277.258	540.2
277.645	528
278.032	540.2
278.419	532.8
278.807	540.2
279.194	527.4
279.581	529.4
279.969	532.8
280.356	543.6
280.744	531.2
281.131	549
281.519	544.4
281.907	534.4
282.295	532.8
282.682	536.2
283.07	543.8
283.458	544.2
283.846	542.8
284.235	544.4
284.623	547.8
285.011	533
285.399	542.2
285.788	532.6
286.176	526.8
286.565	544.4
286.953	524.4
287.342	532.4
287.731	529.8
288.119	533.6
288.508	536
288.897	541.4
289.286	524.8
289.675	541.6
290.064	538.2
290.453	538.4
290.821	532.4
291.21	544.6
291.599	523.6
291.989	535.8
292.378	546.8
292.768	556.8
293.157	538
293.547	547.4
293.936	532.4
294.326	533.8
294.716	544
295.106	530.2
295.496	542.8
295.886	539.4
296.276	535.4
296.666	531
297.056	526.8
297.446	526.8
297.836	544
298.227	535.8
298.617	542.6
299.008	544.8
299.398	537.2
299.789	534.2
300.179	535.4
300.57	547.2
300.961	532.2
301.352	531.6
301.742	530.2
302.133	538.6
302.524	535
302.915	539.4
303.307	529.6
303.698	542.6
304.089	537.8
304.48	534.2
304.872	538.6
305.263	537.8
305.655	527.4
306.046	544
306.438	547.4
306.829	529
307.221	545.8
307.613	541
308.005	543
308.397	539.4
308.789	544
309.181	552.6
309.573	547.4
309.965	537
310.357	535.4
310.749	548
311.142	519.4
311.534	529.2
311.926	543.2
312.319	529.8
312.711	534.8
313.104	554.6
313.497	528.8
313.889	571
314.282	551
314.675	548.8
315.068	537.8
315.461	538
315.854	564.8
316.247	540.6
316.64	531.2
317.033	534.8
317.405	537.8
317.798	531.4
318.192	546.8
318.585	529.2
318.979	538.4
319.372	530.6
319.766	535.8
320.16	544.8
320.553	552.8
320.947	545.2
321.341	534.8
321.735	540
322.129	524.4
322.523	551.6
322.917	533
323.311	546
323.705	535.8
324.099	546.4
324.494	548
324.888	550
325.282	536.8
325.677	546
326.071	549.4
326.466	550.4
326.861	540.6
327.255	543.2
327.65	548
328.045	543.4
328.44	547.6
328.835	528.4
329.23	536.6
329.625	554.6
330.02	532.6
330.415	546.4
330.81	539.4
331.206	536.2
331.601	534
331.996	546.2
332.37	555.2
332.766	531.2
333.161	558.2
333.557	527
333.953	531.2
334.348	764
334.744	538
335.14	526.6
335.536	532.8
335.932	548.8
336.328	533.6
336.724	544
337.12	541.6
337.516	539.8
337.913	535.4
338.309	545.2
338.705	535.4
339.102	543.2
339.498	532.2
339.895	548.8
340.291	536.8
340.688	545
341.085	534.8
341.481	537.2
341.878	536.4
342.275	552.2
342.672	526.4
343.069	529
343.466	516.8
343.842	539.8
344.239	537.2
344.636	537.6
345.033	533
345.431	527.8
345.828	531.8
346.225	533.2
346.623	557.8
347.02	529.4
347.418	541.6
347.816	542.4
348.213	529.6
348.611	541.6
349.009	532.4
349.407	541.2
349.805	524
350.203	528.4
350.601	543.6
350.999	532.8
351.397	588.4
351.795	532.4
352.193	540.6
352.57	538
352.969	543.2
353.367	532
353.766	529.2
354.164	539.6
354.563	541.4
354.961	533.4
355.36	539.8
355.759	534
356.158	528
356.557	527.6
356.956	524.6
357.355	524
357.754	541.4
358.153	534.2
358.552	546.4
358.951	529.4
359.35	546
359.75	534.4
360.149	533.8
360.527	524.2
360.926	523.4
361.326	526.4
361.726	526
362.125	529
362.525	540.8
362.925	537.8
363.325	535.8
363.724	528.8
364.124	529
364.524	524
364.924	530.6
365.324	543.2
365.725	522.2
366.125	530.4
366.525	527
366.904	524.8
367.304	517.4
367.705	542.6
368.105	539.6
368.506	523.8
368.906	533.4
369.307	527.6
369.708	528
370.108	519.8
370.509	539.6
370.91	519
371.311	528.6
371.712	524
372.113	527.8
372.514	526.2
372.894	528.4
373.295	531.4
373.696	533.8
374.097	537.4
374.499	559
374.9	530.6
375.301	526
375.703	533.6
376.105	517.8
376.506	534.2
376.908	534.2
377.309	530.8
377.711	521
378.113	527
378.493	530.8
378.895	520
379.297	529.2
379.699	515.6
380.102	526.2
380.504	529.4
380.906	525.8
381.308	546.2
381.71	527.2
382.113	539.2
382.515	528.6
382.918	537
383.299	531.2
383.701	540.8
384.104	540
384.507	520
384.909	528
385.312	518.6
385.715	513.4
386.118	524.4
386.521	521.6
386.924	539.6
387.327	526
387.709	514.6
388.112	517.4
388.515	528.4
388.918	527.6
389.322	539
389.725	526.2
390.129	550.4
390.532	540.4
390.936	526.2
391.339	521.6
391.743	521.2
392.125	530
392.529	541.6
392.933	538.8
393.337	525.2
393.74	522.2
394.144	530
394.548	524
394.953	526.8
395.357	533
395.761	521.8
396.144	525
396.548	524.6
396.952	528.6
397.357	525.4
397.761	517.4
398.166	524.4
398.57	521
398.975	518.6
399.379	535
399.763	565.8
400.168	524.8
400.572	527.8
400.977	521.6
401.382	543.4
401.787	530.8
402.192	541.2
402.597	540.6
403.002	518
403.386	538
403.791	542.4
404.197	519.4
404.602	529.4
405.007	529.2
405.413	525.2
405.818	532.4
406.224	520.4
406.608	519.4
407.014	514.8
407.42	537.8
407.825	524.2
408.231	532.2
408.637	526.6
409.043	543.2
409.449	527.4
409.834	516
410.24	529.4
410.646	535.8
411.052	536.6
411.458	525
411.865	532.4
412.271	524.4
412.677	524.8
413.062	527.4
413.469	522
413.875	549.4
414.282	537.4
414.689	524
415.095	532
415.502	519.2
415.888	527.6
416.294	511.2
416.701	557.6
417.108	523.4
417.515	541.8
417.923	525.8
418.33	549.8
418.715	538.4
419.123	524
419.53	525
419.937	531
420.345	539.8
420.752	522.6
421.16	535.2
421.546	534.2
421.953	536.8
422.361	518.8
422.769	528.8
423.177	525.2
423.585	546.8
423.992	540.4
424.379	539.4
424.787	543.2
425.195	546.2
425.603	520.6
426.011	540
426.419	539
426.806	530.2
427.214	534.4
427.623	546.2
428.031	545.8
428.44	526.4
428.848	542.8
429.235	540.4
429.644	534.8
430.053	527.8
430.461	548.8
430.87	554
431.279	539
431.666	520.8
432.075	537
432.484	538.6
432.893	528.2
433.302	543
433.711	562
434.099	531.6
434.508	528.8
434.918	528.2
435.327	529
435.737	529.8
436.125	532.6
436.534	533.4
436.944	532.4
437.353	534.4
437.763	542
438.173	525.6
438.561	539.6
438.971	515.8
439.381	524.6
439.791	535.8
440.201	516.2
440.589	523.8
440.999	532.8
441.409	530.2
441.819	520.6
442.23	539.8
442.619	529
443.029	535.8
443.439	535.8
443.85	536.2
444.26	543.8
444.649	539.2
445.06	530.8
445.471	520.6
445.881	527.4
446.292	543.2
446.682	547.8
447.092	521.6
447.503	574
447.914	525.4
448.325	525.6
448.715	528.2
449.126	521.8
449.537	529.8
449.948	526.2
450.338	534
450.75	535.2
451.161	527.2
451.572	524.2
451.984	521.2
452.374	510
452.786	524.4
453.197	527.6
453.609	532
453.999	521
454.411	519.2
454.823	542.8
455.235	531.2
455.647	528.8
456.037	523
456.449	518.2
456.862	522.8
457.274	530
457.665	525.6
458.077	530
458.489	552
458.902	521
459.293	528.4
459.705	525
460.118	526.6
460.53	525.2
460.921	527.6
461.334	529.6
461.747	522.2
462.16	537.2
462.551	537.2
462.964	534
463.377	510.2
463.79	519.8
464.182	527.8
464.595	525.4
465.008	529.8
465.421	528.8
465.813	520
466.226	523.8
466.64	515
467.053	559.2
467.445	527
467.859	537.2
468.272	533.8
468.686	530
469.078	522.2
469.492	514
469.906	529.4
470.298	528.6
470.712	522.6
471.126	545.4
471.54	513.4
471.933	510.4
472.347	521.6
472.761	515.8
473.175	516
473.568	521.8
473.982	519.8
474.397	521.4
474.79	519.4
475.204	531.8
475.619	509.6
476.033	522.4
476.426	528
476.841	519.4
477.256	540.4
477.649	510.6
478.064	521.8
478.479	506.4
478.872	517.8
479.287	512.8
479.702	520.6
480.118	519.2
480.511	519.6
480.927	531
481.342	514.2
481.736	527
482.151	514
482.566	523.4
482.96	522
483.376	524
483.792	515.8
484.186	519.8
484.602	515.6
485.017	526.6
485.412	512.4
485.827	529.8
486.243	517
486.638	532
487.054	527
487.47	523
487.865	517
488.281	516
488.697	518
489.092	525.8
489.508	514.4
489.925	518.4
490.32	517.6
490.736	525.8
491.153	519
491.548	519.4
491.964	530.2
492.381	507.6
492.776	524.4
493.193	515.8
493.61	524.4
494.006	523.8
494.422	528.2
494.84	510.6
495.235	525
495.652	518.8
496.069	515.6
496.465	506
496.883	521.2
497.3	540.8
497.696	523.4
498.113	525.4
498.509	508.6
498.927	506.8
499.344	509.2
499.741	512.2
500.158	528
500.576	521.6
500.973	513.8
501.39	509.2
501.787	510.2
502.205	517.8
502.623	515.6
503.02	514
503.438	514
503.856	506.2
504.253	519.2
504.671	518.4
505.068	515.6
505.486	507
505.905	534.2
506.302	512.8
506.72	516.8
507.118	513.4
507.536	517.4
507.955	517.2
508.352	510.8
508.771	517.6
509.169	513.6
509.587	517.8
510.006	508.2
510.404	502.8
510.823	510
511.221	516
511.64	509.6
512.038	529
512.457	514.8
512.877	516.2
513.275	518.2
513.694	518.4
514.092	513
514.512	521.8
514.91	525
515.33	518.8
515.749	516.8
516.148	521
516.568	521
516.966	517.6
517.386	516
517.785	521.4
518.205	513.4
518.603	518.6
519.024	523.8
519.444	518.2
519.843	524.8
520.263	534.6
520.662	517.6
521.082	514
521.481	522.2
521.902	513.4
522.301	519.8
522.722	525.8
523.121	514.4
523.542	511.4
523.963	518.6
524.362	518
524.783	522
525.183	511.6
525.604	514.4
526.003	512.8
526.425	508.4
526.824	518.8
527.246	520.6
527.646	523.2
528.067	512.6
528.467	521.2
528.888	518.2
529.289	510.8
529.71	519.6
530.11	510.8
530.532	517.8
530.932	508.8
531.354	511.4
531.755	541
532.176	523.8
532.577	511.8
532.999	513.4
533.4	513.2
533.822	521.4
534.223	518
534.645	514.6
535.046	514.8
535.468	514.8
535.869	529.8
536.292	512.2
536.693	545.2
537.115	520.6
537.516	514.6
537.939	517.2
538.34	531.4
538.742	524.8
539.165	520.2
539.566	515.4
539.989	515.2
540.391	513.6
540.814	515.8
541.216	519.6
541.639	526.6
542.041	527
542.464	510.2
542.866	515
543.268	509.2
543.691	521.6
544.093	525.8
544.517	538.6
544.919	511.2
545.343	536.2
545.745	510.8
546.147	519.4
546.571	510
546.974	507.6
547.398	513.4
547.8	524
548.224	507.6
548.627	506.8
549.03	517.8
549.454	511
549.857	510
550.281	508.2
550.684	518.2
551.087	524
551.512	521
551.915	513.2
552.34	519.4
552.743	512.2
553.146	509.6
553.571	514.2
553.975	523.2
554.399	502
554.803	554.8
555.207	509
555.632	516.2
556.036	527.6
556.461	509.4
556.865	519.2
557.268	519.8
557.694	508
558.098	525.6
558.502	520
558.927	507.2
559.332	519.6
559.736	515.6
560.162	516.4
560.566	517.4
560.992	520.4
561.396	511.6
561.801	512.6
562.227	517
562.631	519.6
563.036	512.4
563.462	529.4
563.867	519.8
564.272	506
564.698	519.4
565.103	510.6
565.508	529.6
565.935	518.4
566.34	516.2
566.745	528.8
567.172	514.8
567.577	526.4
567.982	520.8
568.409	515.2
568.815	513.2
569.22	513
569.626	526
570.053	502.2
570.459	514.4
570.865	523.2
571.292	522.2
571.698	510.8
572.104	502.2
572.531	506.6
572.937	517.2
573.343	517.6
573.75	514.2
574.177	509.8
574.583	525.4
574.99	514.8
575.396	518.8
575.824	508.8
576.231	519.8
576.637	512.4
577.065	541.4
577.472	506.4
577.879	512.4
578.286	524.4
578.714	504.6
579.121	514.2
579.528	514.4
579.935	518
580.364	508.4
580.771	498
581.178	516.2
581.585	509.4
582.014	515.2
582.421	510.4
582.829	514.6
583.236	521.8
583.644	510
584.073	511
584.481	511.2
584.889	501.4
585.296	520.6
585.726	515.8
586.134	501.8
586.542	503
586.95	525.2
587.358	505.6
587.787	517.4
588.196	498.6
588.604	517.8
589.012	518
589.421	515.4
589.851	507.6
590.259	516.4
590.668	511.4
591.076	534.6
591.485	505.6
591.894	518.8
592.324	523.2
592.733	520.4
593.142	504.2
593.551	501.8
593.96	534
594.369	504.4
594.8	512.8
595.209	503.4
595.618	507
596.028	503.8
596.437	495.8
596.847	512.2
597.256	517.8
597.687	511.4
598.097	508.2
598.507	508.8
598.917	511.8
599.327	514.6
599.736	510.4
600.146	522.2
600.556	507
600.988	516
601.398	498.2
601.808	512.6
602.219	504.2
602.629	506.8
603.039	516
603.45	535
603.86	519.2
604.271	513.8
604.703	508.4
605.114	505.8
605.525	511.6
605.935	517
606.346	523.2
606.757	521.6
607.168	513.4
607.579	508
607.99	522.6
608.402	508.4
608.813	520
609.224	505.2
609.636	511.6
610.047	504
610.48	508.6
610.892	520
611.303	518.6
611.715	509.2
612.127	500.2
612.539	508.2
612.95	504.4
613.362	499.8
613.774	508.4
614.186	507
614.599	503.2
615.011	513.2
615.423	509.6
615.835	509
616.248	503.8
616.66	510.8
617.073	507.8
617.485	505.6
617.898	513.4
618.311	516.2
618.723	507.6
619.136	535.4
619.549	513.4
619.962	530
620.375	508.6
620.788	518.2
621.201	512.2
621.614	521.6
622.028	501.8
622.441	511.8
622.854	524.4
623.268	503
623.681	518.2
624.095	507.6
624.509	516.8
624.922	518.8
625.336	501.6
625.728	508.6
626.142	519.2
626.556	530.8
626.97	523.4
627.384	510.6
627.799	505.2
628.213	518.8
628.627	506.8
629.041	512.6
629.456	502.8
629.87	513
630.285	514.2
630.699	518.6
631.093	508.2
631.507	517.4
631.922	513.8
632.337	522.6
632.752	505.4
633.167	510
633.582	505.2
633.997	505.4
634.412	497.2
634.806	510.6
635.221	493.6
635.637	514.6
636.052	505
636.468	514.2
636.883	523.4
637.299	510
637.715	507.8
638.109	510.6
638.525	501
638.941	520
639.357	513.2
639.773	513.2
640.189	508.6
640.584	506.8
641	513
641.416	505.8
641.832	508.6
642.249	511.8
642.665	510.2
643.06	515.8
643.477	518.6
643.894	499.2
644.31	508.8
644.727	511.6
645.123	510.6
645.54	501
645.957	518.6
646.374	526.6
646.77	510.6
647.187	534.6
647.604	511.2
648.021	503.4
648.439	501.6
648.835	514
649.252	504
649.67	508
650.088	508.6
650.484	509.4
650.902	517.2
651.32	517.8
651.738	509
652.134	514.8
652.552	520.4
652.971	514.2
653.389	511.4
653.786	518
654.204	516.8
654.622	503.8
655.019	509
655.438	515
655.857	516
656.275	513.8
656.673	502
657.091	510.6
657.51	507.6
657.908	516.2
658.327	531.4
658.746	501.6
659.144	512.4
659.563	516.6
659.982	510
660.38	504.2
660.8	514
661.219	515.2
661.617	511
662.037	505
662.457	521.6
662.855	496.4
663.275	538
663.695	505.2
664.094	504.4
664.514	510.6
664.934	506.2
665.333	515.2
665.753	495
666.152	497
666.572	497.6
666.993	515.4
667.392	503.8
667.812	504.8
668.212	506.2
668.632	504.8
669.053	498.2
669.453	500.6
669.874	512.4
670.273	508.6
670.694	507
671.116	518.6
671.515	520.4
671.937	511.8
672.337	508.2
672.758	502.4
673.158	518.6
673.58	503.4
673.98	512.8
674.402	517.8
674.824	505.4
675.224	503
675.646	500.4
676.047	504.6
676.469	506.6
676.869	516.8
677.292	512
677.693	507.2
678.115	501
678.516	513.2
678.939	511.8
679.34	512.4
679.762	514
680.164	510.4
680.586	504.4
680.988	517
681.411	525.4
681.812	506.2
682.236	497.8
682.637	501
683.061	494.6
683.462	511
683.864	503.2
684.288	514
684.69	504
685.114	518.6
685.516	513.8
685.94	502.6
686.342	516.4
686.766	502.8
687.168	505
687.571	519.2
687.995	514.4
688.398	497.8
688.822	500.8
689.225	517.2
689.628	522.6
690.052	507.4
690.456	501
690.88	508.6
691.284	501.6
691.687	507
692.112	499
692.515	502.6
692.919	504
693.344	507.6
693.747	502.4
694.173	498.8
694.577	511.8
694.98	512.8
695.406	502.8
695.81	511.4
696.214	509.8
696.64	509.8
697.044	504.8
697.448	509.8
697.874	504.8
698.279	503.8
698.684	501.4
699.11	499.4
699.514	500.6
699.919	505
700.324	494.2
700.75	496
701.156	511.8
701.561	509.2
701.987	508.2
702.393	510.8
702.798	513
703.203	505
703.63	497.8
704.036	498.2
704.442	500.2
704.847	498.2
705.274	511.8
705.68	508.4
706.086	512.6
706.492	492.6
706.92	504.6
707.326	511.8
707.732	505.2
708.139	507.2
708.545	493.8
708.973	500.2
709.38	506.2
709.786	502.2
710.193	523.8
710.6	509.2
711.028	499.4
711.435	496.2
711.842	505.2
712.249	499.6
712.656	506.6
713.064	517.2
713.492	501.2
713.9	503.6
714.307	506.2
714.715	502.6
715.123	506.4
715.53	510
715.938	514.2
716.367	509.8
716.775	507.6
717.184	505.4
717.592	505.8
718	510.6
718.408	531.4
718.816	532.2
719.225	506.4
719.633	509.2
720.042	499.6
720.472	501.4
720.881	516.8
721.29	510.2
721.699	502
722.108	505.8
722.517	510.4
722.926	499.6
723.335	508.4
723.744	497.6
724.154	502.6
724.563	502.8
724.973	506
725.382	508
725.792	490.8
726.202	494.6
726.612	511.6
727.022	501.4
727.432	502.2
779.813	502
780.223	544.4
780.634	496.4
781.044	490
781.454	506
781.865	513.4
782.276	490.2
782.686	510.2
783.097	500.8
783.508	506.4
783.919	511
784.33	514
784.741	519.2
785.152	492.8
785.563	490
785.974	499.8
786.386	509.8
786.776	504
787.188	508.4
787.599	494.4
788.011	508.2
788.423	505.4
788.835	505.4
789.247	495.2
789.659	500.2
790.071	494
790.483	541.4
790.874	503
791.286	517.2
791.699	499.6
792.111	504.4
792.524	508.4
792.937	498
793.349	496.4
793.741	494
794.154	499.4
794.567	513.6
794.98	499.6
795.393	494.2
795.785	523.8
796.198	496.8
796.612	507.4
797.026	503.8
797.439	490.4
797.831	497.6
798.245	494
798.659	500.4
799.073	502.4
799.487	504.8
799.88	508.4
800.294	508.2
800.708	510
801.123	501.4
801.516	521.6
801.93	488.2
802.345	499
802.76	503
803.153	517
803.568	513.8
803.983	514.8
804.377	508.4
804.792	500
805.207	492.2
805.601	507.2
806.016	526.2
806.432	497.4
806.826	526.4
807.242	520
807.658	503.2
808.052	500.6
808.468	499
808.884	498.6
809.279	505
809.695	506.4
810.111	514
810.506	505.8
810.922	516
811.339	499.4
811.734	512.8
812.151	499.2
812.546	499.6
812.963	493.2
813.38	509.2
813.776	498.2
814.193	513.2
814.589	485.6
815.006	496.6
815.402	497.6
815.82	491.8
816.237	499.4
816.633	497.2
817.051	490.2
817.448	506.8
817.866	493.4
818.262	521.4
818.68	502
819.077	501.4
819.495	502.8
819.892	533.2
820.311	504
820.708	491.2
821.127	494.8
821.524	517.4
821.943	502.4
822.34	514.2
822.759	510
823.157	496.6
823.576	513.4
823.974	519.2
824.393	547.4
824.791	506.6
825.189	492.8
825.609	497.2
826.007	500
826.427	488.8
826.826	502.4
827.246	501.4
827.644	493.2
828.043	508.8
828.463	493
828.862	503.2
829.261	502.6
829.682	494.8
830.081	508
830.502	497.6
830.901	504.6
831.301	499.8
831.722	496.2
832.121	506.6
832.521	494.6
832.943	496.4
833.342	498.2
833.742	493.8
834.164	498.8
834.564	494.6
834.965	504.4
835.386	498
835.787	506.8
836.188	502.2
836.588	498.8
837.01	495.4
837.411	489.6
837.812	499.6
838.213	504.6
838.636	492.6
839.037	546.8
839.438	504.2
839.84	498.4
840.263	504.6
840.664	501
841.066	498.4
841.468	497
841.891	499
842.293	506.2
842.695	500.4
843.098	506.8
843.5	500.2
843.902	505.4
844.326	500.8
844.729	504.2
845.131	511.2
845.534	503
845.937	506
846.34	508.4
846.764	490
847.167	500.4
847.571	492.2
847.974	497
848.377	495.8
848.781	536.2
849.184	509
849.588	496
849.992	493.4
850.396	495
850.821	505.4
851.225	494.6
851.63	491.8
852.034	505
852.438	492.6
852.843	518.2
853.247	493.4
853.652	486
854.057	515.2
854.462	503
854.867	501.8
855.272	526.4
855.677	498.2
856.082	496
856.487	494.8
856.893	502.6
857.298	495
