#lambda/nm	C1
208.295	468.4
208.67	439.8
209.045	396.4
209.419	400.2
209.794	546.2
210.169	527
210.544	623.4
210.919	540
211.295	531.4
211.67	547.2
212.045	535.8
212.421	532.4
212.796	568.4
213.172	532.2
213.547	528.4
213.923	530.6
214.299	535.2
214.675	541.4
215.051	542.4
215.427	545
215.803	552.4
216.179	544.2
216.555	536.8
216.932	540.8
217.308	542.2
217.684	534.2
218.061	546.4
218.438	542.4
218.814	533.6
219.191	551.6
219.568	539.2
219.945	536.8
220.322	543.2
220.699	546.6
221.076	553
221.453	532.2
221.83	537.8
222.208	534
222.585	535
222.962	540.4
223.34	537.4
223.717	534.4
224.095	534
224.473	538.6
224.851	532.6
225.229	535.4
225.607	556
225.985	532.8
226.363	540.6
226.741	540.4
227.119	534.4
227.497	553
227.876	528.8
228.254	548.2
228.633	540.6
229.011	539.8
229.39	546.6
229.769	540.8
230.148	542.8
230.527	549.2
230.905	527.6
231.284	546.8
231.664	522.2
232.043	545.6
232.422	543.2
232.801	537.4
233.181	549.4
233.56	536.4
233.94	548
234.319	523.8
234.699	536.2
235.079	564.2
235.458	568.8
235.838	551
236.218	533.6
236.598	527.2
236.978	533
237.358	530.6
237.738	531.6
238.119	543.4
238.499	528.2
238.88	544.4
239.26	551.6
239.641	532.4
240.021	525.6
240.402	530.4
240.783	531.2
241.163	540
241.544	536.6
241.925	532
242.306	547.6
242.687	529
243.069	540.2
243.45	550.6
243.831	531
244.212	543
244.594	559.2
244.975	545.2
245.357	546.6
245.739	532.4
246.12	541.2
246.502	548.8
246.884	539.4
247.266	540.8
247.648	539.8
248.03	553.2
248.412	533
248.794	538.8
249.176	529.6
249.559	544.8
249.941	533.2
250.323	530.6
250.706	534.6
251.089	541.4
251.471	541.8
251.854	539.2
252.237	532.8
252.62	552.2
253.002	546.4
253.385	531.8
253.769	549.6
254.152	531.6
254.535	545.6
254.918	530.4
255.301	539.2
255.685	539.2
256.068	526.8
256.452	559.2
256.835	547.4
257.219	544.6
257.603	546.4
257.986	530.8
258.37	545.6
258.754	528.8
259.138	548.8
259.522	548.2
259.906	533.6
260.29	539.8
260.675	537.8
261.059	544.2
261.443	528.4
261.828	540.2
262.212	537.6
262.597	530.8
262.981	534.2
263.366	543.2
263.751	536.2
264.136	537.4
264.521	529.4
264.906	520.8
265.291	547.8
265.676	542.4
266.061	545
266.446	558.8
266.831	538.4
267.217	558.6
267.602	544
267.987	540.8
268.373	532.2
268.759	539.6
269.144	538.8
269.53	540.6
269.916	541.6
270.302	539.8
270.688	543.4
271.074	543.4
271.46	546.8
271.846	561.4
272.232	540.4
272.618	527.4
273.004	532
273.391	552.8
273.777	548
274.164	535.6
274.55	543.2
274.937	546.6
275.324	530.6
275.71	539.6
276.097	539.2
276.484	532.2
276.871	544.8
277.258	539.2
277.645	537.2
278.032	530
278.419	528.4
278.807	532.2
279.194	532.8
279.581	531
279.969	543.8
280.356	535.6
280.744	544.4
281.131	553.8
281.519	552
281.907	539.6
282.295	529.6
282.682	545.2
283.07	540.8
283.458	544.6
283.846	542.6
284.235	550
284.623	543.4
285.011	526.8
285.399	534
285.788	533.6
286.176	532.8
286.565	545.6
286.953	527.4
287.342	526.8
287.731	527.6
288.119	522
288.508	538.4
288.897	530.8
289.286	526.4
289.675	543.6
290.064	534
290.453	534
290.821	537.6
291.21	543.2
291.599	537.8
291.989	535
292.378	542.8
292.768	550
293.157	532.2
293.547	546.8
293.936	541.4
294.326	537.8
294.716	537.4
295.106	531.8
295.496	540.2
295.886	543.2
296.276	530.6
296.666	530.2
297.056	531
297.446	532.6
297.836	549.2
298.227	535.8
298.617	537.4
299.008	546.4
299.398	541
299.789	530
300.179	533.8
300.57	551.8
300.961	540
301.352	535.8
301.742	530.8
302.133	531.8
302.524	537.2
302.915	538.6
303.307	534.6
303.698	542.8
304.089	537.6
304.48	536.4
304.872	534.8
305.263	535.8
305.655	528.8
306.046	539.4
306.438	540
306.829	527.8
307.221	550
307.613	537
308.005	537.2
308.397	544.4
308.789	548.4
309.181	556.2
309.573	550
309.965	551.4
310.357	539.6
310.749	556
311.142	532
311.534	525
311.926	547.2
312.319	538.4
312.711	532.4
313.104	560.4
313.497	541.8
313.889	575.8
314.282	553
314.675	562.8
315.068	536.8
315.461	546.2
315.854	569.2
316.247	546.2
316.64	532.4
317.033	532.6
317.405	540.6
317.798	542.6
318.192	544.8
318.585	530.8
318.979	538.2
319.372	539.4
319.766	531.8
320.16	537.6
320.553	547.6
320.947	555
321.341	534
321.735	542.4
322.129	527.4
322.523	563.2
322.917	527.4
323.311	547.2
323.705	547
324.099	542
324.494	552.6
324.888	550.2
325.282	531.6
325.677	549
326.071	538.6
326.466	543.2
326.861	540
327.255	547.2
327.65	544.8
328.045	554.2
328.44	545.8
328.835	536.8
329.23	531.2
329.625	559.8
330.02	534.8
330.415	557.6
330.81	537.4
331.206	536.4
331.601	527.6
331.996	544.2
332.37	553.6
332.766	535.6
333.161	560.6
333.557	537.2
333.953	544.8
334.348	832.8
334.744	540.4
335.14	534.8
335.536	538.2
335.932	553.8
336.328	541.8
336.724	544.8
337.12	536.6
337.516	545.8
337.913	537
338.309	538
338.705	535.2
339.102	535
339.498	539.6
339.895	552.8
340.291	527.6
340.688	541.4
341.085	532.8
341.481	534.6
341.878	535.4
342.275	551.4
342.672	532.2
343.069	537.8
343.466	520.2
343.842	543.4
344.239	531.4
344.636	534.8
345.033	527.6
345.431	530.8
345.828	537.8
346.225	531.6
346.623	565.2
347.02	532
347.418	539.4
347.816	550
348.213	522.6
348.611	533.8
349.009	530.6
349.407	546.6
349.805	524.6
350.203	522
350.601	546
350.999	531.4
351.397	578.4
351.795	538
352.193	542.6
352.57	544
352.969	547.6
353.367	533.2
353.766	530.6
354.164	534.8
354.563	541.4
354.961	531.2
355.36	525.4
355.759	536.6
356.158	526.8
356.557	533.4
356.956	522.6
357.355	521.6
357.754	531.4
358.153	538.6
358.552	552.6
358.951	533.6
359.35	541
359.75	531.6
360.149	521.4
360.527	524
360.926	528.2
361.326	530
361.726	532
362.125	522.2
362.525	531.6
362.925	536.8
363.325	530.8
363.724	532
364.124	525.8
364.524	529.4
364.924	528.2
365.324	545
365.725	524.2
366.125	536.2
366.525	532.6
366.904	529.2
367.304	518
367.705	548.8
368.105	540.4
368.506	529.4
368.906	531.2
369.307	529.8
369.708	539.2
370.108	525.8
370.509	535.4
370.91	518.8
371.311	531.8
371.712	531
372.113	533.6
372.514	519.8
372.894	532.4
373.295	521.4
373.696	537.8
374.097	530
374.499	565.8
374.9	538.2
375.301	523.4
375.703	528.2
376.105	525
376.506	533
376.908	528.6
377.309	528.8
377.711	530.2
378.113	525.2
378.493	531.8
378.895	523.2
379.297	538
379.699	522.6
380.102	523.2
380.504	538
380.906	528
381.308	550.6
381.71	526.6
382.113	531
382.515	529.2
382.918	529.2
383.299	524.6
383.701	531.8
384.104	531.4
384.507	508
384.909	522.2
385.312	508.4
385.715	518.4
386.118	526.4
386.521	509.2
386.924	528.4
387.327	521.2
387.709	511.2
388.112	509.8
388.515	527.6
388.918	525
389.322	522.6
389.725	525.4
390.129	545
390.532	534.2
390.936	523
391.339	517.2
391.743	531
392.125	524.2
392.529	529.8
392.933	540.6
393.337	528.8
393.74	535.4
394.144	536.2
394.548	525.4
394.953	526.4
395.357	535.4
395.761	519.2
396.144	532.4
396.548	522.8
396.952	529.8
397.357	522
397.761	518.2
398.166	530.4
398.57	523.6
398.975	517.2
399.379	530.4
399.763	562
400.168	527.2
400.572	524
400.977	532
401.382	548
401.787	533.6
402.192	540.8
402.597	540.4
403.002	513.6
403.386	538.6
403.791	537
404.197	530
404.602	520
405.007	525.2
405.413	526.4
405.818	524.4
406.224	523
406.608	521.6
407.014	523.2
407.42	541.2
407.825	523.8
408.231	530.8
408.637	531.8
409.043	537.2
409.449	535.6
409.834	524
410.24	531
410.646	541.2
411.052	529.8
411.458	532.2
411.865	530.6
412.271	537.6
412.677	530.4
413.062	534.2
413.469	523
413.875	552.8
414.282	535.2
414.689	526.6
415.095	530.2
415.502	525
415.888	524.6
416.294	507
416.701	559.2
417.108	520.4
417.515	539.4
417.923	529.8
418.33	552.2
418.715	533.2
419.123	525
419.53	529.2
419.937	523.2
420.345	544.8
420.752	527.6
421.16	549.6
421.546	535.6
421.953	538.8
422.361	526.2
422.769	535.6
423.177	525.8
423.585	548.6
423.992	545.4
424.379	541.2
424.787	537.8
425.195	552.4
425.603	528.8
426.011	535.8
426.419	540
426.806	531.6
427.214	536.6
427.623	541.6
428.031	548.2
428.44	532.4
428.848	537.6
429.235	545.4
429.644	534
430.053	531
430.461	536.8
430.87	554
431.279	541.2
431.666	533.4
432.075	530.2
432.484	533.8
432.893	526.6
433.302	536.2
433.711	563.4
434.099	534.4
434.508	531.4
434.918	519
435.327	531.6
435.737	527.8
436.125	525
436.534	530.2
436.944	531
437.353	540.2
437.763	545.4
438.173	524.6
438.561	544
438.971	518.6
439.381	531.8
439.791	535.4
440.201	517
440.589	529.4
440.999	533.8
441.409	529.6
441.819	514.8
442.23	536.6
442.619	533.6
443.029	529
443.439	526.6
443.85	536.2
444.26	536
444.649	527.8
445.06	529.2
445.471	523.6
445.881	529.8
446.292	543.8
446.682	544.2
447.092	515.2
447.503	573
447.914	527
448.325	522
448.715	530
449.126	523.4
449.537	526.8
449.948	527.2
450.338	526.4
450.75	538.8
451.161	519.4
451.572	527.6
451.984	523.4
452.374	522.2
452.786	526.2
453.197	523.8
453.609	533
453.999	512.2
454.411	510.6
454.823	540.6
455.235	524
455.647	523.6
456.037	533.2
456.449	520.6
456.862	517.8
457.274	524.6
457.665	520.8
458.077	530.2
458.489	549.8
458.902	520
459.293	533.6
459.705	533.4
460.118	522.2
460.53	530.4
460.921	533.6
461.334	518
461.747	528
462.16	534.4
462.551	536.8
462.964	528.8
463.377	518.2
463.79	514.8
464.182	536.4
464.595	522.2
465.008	525
465.421	532
465.813	524.6
466.226	522.2
466.64	519
467.053	562.2
467.445	527.4
467.859	535.2
468.272	525.2
468.686	526.4
469.078	529
469.492	520.4
469.906	524.2
470.298	531.2
470.712	514.2
471.126	544
471.54	511
471.933	517.2
472.347	523.6
472.761	523.2
473.175	517.4
473.568	523.2
473.982	518.4
474.397	522.2
474.79	527.4
475.204	519.2
475.619	514.8
476.033	525.4
476.426	518.8
476.841	520
477.256	539.2
477.649	513.6
478.064	521.6
478.479	518.4
478.872	514.4
479.287	511.6
479.702	517
480.118	514.8
480.511	521.2
480.927	519
481.342	515.6
481.736	520.6
482.151	516.2
482.566	531.4
482.96	518.8
483.376	524.8
483.792	514.8
484.186	522.2
484.602	519.6
485.017	525.8
485.412	517.4
485.827	524.6
486.243	520.6
486.638	538.6
487.054	529.8
487.47	525.6
487.865	510.4
488.281	520.2
488.697	514.4
489.092	512.8
489.508	509.6
489.925	530.6
490.32	512.6
490.736	526.8
491.153	521.8
491.548	528.8
491.964	527
492.381	508.8
492.776	516.8
493.193	515.2
493.61	525.8
494.006	521.2
494.422	521
494.84	512
495.235	522
495.652	518.6
496.069	525.2
496.465	510.4
496.883	515.6
497.3	537.4
497.696	520.4
498.113	519.6
498.509	504.6
498.927	514.2
499.344	509
499.741	512.4
500.158	522.2
500.576	525.4
500.973	519.6
501.39	514.2
501.787	512
502.205	519.8
502.623	524
503.02	503
503.438	512.6
503.856	509.4
504.253	521.2
504.671	524.6
505.068	516.8
505.486	515.4
505.905	536.6
506.302	518
506.72	528.2
507.118	513
507.536	515.4
507.955	522.6
508.352	518.6
508.771	519.4
509.169	515
509.587	518.6
510.006	527.2
510.404	508.2
510.823	511
511.221	515.4
511.64	513.8
512.038	530.4
512.457	514
512.877	519.4
513.275	513.6
513.694	515.4
514.092	521.8
514.512	510.4
514.91	527.8
515.33	514.4
515.749	520.8
516.148	523.8
516.568	517.2
516.966	516.2
517.386	512.8
517.785	520.4
518.205	511
518.603	517.6
519.024	514.8
519.444	522
519.843	530.4
520.263	524.4
520.662	518.2
521.082	516.8
521.481	516
521.902	525.6
522.301	524.6
522.722	521.2
523.121	518.4
523.542	511.6
523.963	515.4
524.362	519.8
524.783	520.2
525.183	513.8
525.604	521.4
526.003	512.2
526.425	511.6
526.824	525.4
527.246	522.8
527.646	525.6
528.067	512.8
528.467	515.4
528.888	512
529.289	508.2
529.71	518.2
530.11	519.6
530.532	516.8
530.932	514.8
531.354	510.4
531.755	544.8
532.176	523.6
532.577	517
532.999	518.2
533.4	522.6
533.822	528.6
534.223	524.2
534.645	516.2
535.046	520.4
535.468	524.6
535.869	526
536.292	512.2
536.693	553
537.115	515.2
537.516	513
537.939	517.6
538.34	528.8
538.742	526.2
539.165	521.4
539.566	517.6
539.989	513.2
540.391	516.4
540.814	515.6
541.216	515.6
541.639	516
542.041	523.8
542.464	511.2
542.866	516.8
543.268	506.6
543.691	522
544.093	516.8
544.517	530.6
544.919	511
545.343	525.4
545.745	506
546.147	512
546.571	512.8
546.974	511.6
547.398	514.6
547.8	526.6
548.224	509.2
548.627	506.4
549.03	515
549.454	511.8
549.857	507.6
550.281	514.2
550.684	514.8
551.087	517
551.512	522.4
551.915	524.6
552.34	517.8
552.743	519.4
553.146	522.8
553.571	515
553.975	534.4
554.399	508.6
554.803	563
555.207	512.2
555.632	516.8
556.036	523.6
556.461	506.8
556.865	516
557.268	514
557.694	513
558.098	519.6
558.502	518.4
558.927	517.2
559.332	517.6
559.736	514.8
560.162	523.4
560.566	517
560.992	514.4
561.396	520
561.801	508
562.227	517.8
562.631	516.6
563.036	527.2
563.462	516.6
563.867	519.6
564.272	506.2
564.698	515.6
565.103	507
565.508	532.8
565.935	510.4
566.34	507
566.745	523.2
567.172	508
567.577	534.2
567.982	520.4
568.409	520.4
568.815	512
569.22	507.2
569.626	523.4
570.053	506.8
570.459	520.4
570.865	526.4
571.292	510.8
571.698	513.6
572.104	503.8
572.531	513
572.937	526
573.343	517
573.75	511.4
574.177	515
574.583	517
574.99	512.8
575.396	524.4
575.824	514.2
576.231	518.6
576.637	504
577.065	534.4
577.472	508.4
577.879	507.2
578.286	519.8
578.714	511
579.121	513
579.528	505.6
579.935	511.6
580.364	506.2
580.771	502.2
581.178	494.6
581.585	513.6
582.014	516.8
582.421	508.2
582.829	516.8
583.236	514.6
583.644	507.6
584.073	511.8
584.481	512.2
584.889	511.4
585.296	515.2
585.726	511.6
586.134	504
586.542	503.4
586.95	530.8
587.358	509.2
587.787	516.2
588.196	499.8
588.604	508.2
589.012	513.4
589.421	510.6
589.851	504.8
590.259	518.4
590.668	508.8
591.076	545.2
591.485	504.4
591.894	515.2
592.324	526.4
592.733	526.6
593.142	495.8
593.551	512.4
593.96	514.8
594.369	504.4
594.8	508
595.209	511.8
595.618	497.4
596.028	503
596.437	507.2
596.847	507.8
597.256	515.2
597.687	517.2
598.097	512.6
598.507	507.2
598.917	512.6
599.327	521.4
599.736	517.2
600.146	526.6
600.556	516.8
600.988	523.8
601.398	514.2
601.808	521.2
602.219	499.8
602.629	514
603.039	508
603.45	538.8
603.86	515.8
604.271	529
604.703	516.6
605.114	514.6
605.525	519.8
605.935	527.2
606.346	528.4
606.757	514.4
607.168	519
607.579	514
607.99	521.4
608.402	522
608.813	518
609.224	511.4
609.636	513.6
610.047	500.8
610.48	515.8
610.892	520.2
611.303	522.6
611.715	513.6
612.127	511.8
612.539	510.4
612.95	522
613.362	508.6
613.774	505.4
614.186	519.2
614.599	510
615.011	521.8
615.423	519.6
615.835	513.4
616.248	510.2
616.66	521.8
617.073	508.6
617.485	524.2
617.898	520
618.311	516.6
618.723	519.8
619.136	542
619.549	527.2
619.962	538.6
620.375	522.2
620.788	520.8
621.201	511.6
621.614	523.8
622.028	520.4
622.441	522.8
622.854	535.6
623.268	510.6
623.681	525.2
624.095	525.6
624.509	525.8
624.922	527.2
625.336	507.4
625.728	521.2
626.142	530.8
626.556	536.8
626.97	527
627.384	510.8
627.799	518
628.213	530.4
628.627	524.4
629.041	514.8
629.456	513.8
629.87	522
630.285	525.2
630.699	530.8
631.093	515
631.507	521
631.922	517
632.337	529
632.752	511.6
633.167	525
633.582	511.6
633.997	512.4
634.412	514.8
634.806	513.2
635.221	509.2
635.637	527.8
636.052	511.6
636.468	519.4
636.883	526.8
637.299	513.4
637.715	512.2
638.109	514
638.525	507.8
638.941	518.4
639.357	514.8
639.773	526.2
640.189	512
640.584	520.2
641	518.6
641.416	508.2
641.832	510
642.249	515.8
642.665	518.4
643.06	523
643.477	520.6
643.894	502.6
644.31	513.4
644.727	519
645.123	517.8
645.54	520.8
645.957	512.4
646.374	525
646.77	517.4
647.187	538
647.604	511.6
648.021	497.2
648.439	511.8
648.835	519.6
649.252	512.4
649.67	508.6
650.088	508.8
650.484	523.8
650.902	523.2
651.32	521.6
651.738	506
652.134	520
652.552	531
652.971	521.2
653.389	512.6
653.786	524.4
654.204	517.4
654.622	505.8
655.019	511.8
655.438	522.4
655.857	521
656.275	517.6
656.673	510
657.091	519.6
657.51	502
657.908	522
658.327	524.6
658.746	505.8
659.144	515.6
659.563	522.4
659.982	514.8
660.38	496.6
660.8	513
661.219	519
661.617	507.8
662.037	509.2
662.457	524.2
662.855	495.8
663.275	542.4
663.695	505.2
664.094	517
664.514	512.8
664.934	510.6
665.333	517.4
665.753	499.8
666.152	502.4
666.572	500.8
666.993	521.2
667.392	506
667.812	506.4
668.212	504.2
668.632	524.4
669.053	503.8
669.453	519.8
669.874	513.8
670.273	513.8
670.694	502.2
671.116	523.4
671.515	515
671.937	505.2
672.337	501
672.758	502
673.158	509.8
673.58	498
673.98	506.8
674.402	525.8
674.824	499.8
675.224	496.8
675.646	498.6
676.047	506
676.469	498
676.869	517.2
677.292	507.2
677.693	504.6
678.115	502
678.516	508.6
678.939	505.6
679.34	505
679.762	511
680.164	507
680.586	495.2
680.988	506.6
681.411	523.2
681.812	500.4
682.236	496
682.637	499.4
683.061	499
683.462	511.6
683.864	503.8
684.288	509.2
684.69	501.8
685.114	518.4
685.516	508.2
685.94	501.8
686.342	513
686.766	502.2
687.168	504.6
687.571	515.2
687.995	508.4
688.398	498.4
688.822	493
689.225	520.8
689.628	520.8
690.052	507.6
690.456	517
690.88	508
691.284	496
691.687	508.8
692.112	497.4
692.515	497.6
692.919	504.8
693.344	512.8
693.747	501.2
694.173	503.6
694.577	514.4
694.98	503.6
695.406	505.2
695.81	509.2
696.214	505.2
696.64	504.4
697.044	510.6
697.448	515.8
697.874	503
698.279	507
698.684	500
699.11	497.2
699.514	505.2
699.919	497.8
700.324	501.8
700.75	499.2
701.156	498
701.561	519.4
701.987	513.6
702.393	517.8
702.798	511.2
703.203	506
703.63	503.2
704.036	503.8
704.442	498
704.847	493.8
705.274	503.4
705.68	505.8
706.086	519.2
706.492	496
706.92	506
707.326	516.6
707.732	505
708.139	497.8
708.545	498
708.973	497
709.38	504.4
709.786	500
710.193	515.4
710.6	508.2
711.028	498.8
711.435	506
711.842	506
712.249	496.6
712.656	505.8
713.064	512.2
713.492	501.4
713.9	508.6
714.307	506
714.715	507.8
715.123	511.6
715.53	508.2
715.938	518.6
716.367	510.2
716.775	502.2
717.184	502
717.592	510
718	516.6
718.408	528.8
718.816	542
719.225	513.8
719.633	506
720.042	496.6
720.472	503
720.881	522.4
721.29	509
721.699	498.8
722.108	506.2
722.517	505.2
722.926	506
723.335	511.4
723.744	507.6
724.154	509.8
724.563	506
724.973	510.6
725.382	504.2
725.792	507.6
726.202	503.4
726.612	509.8
727.022	503.4
727.432	498.4
779.813	502.6
780.223	544.2
780.634	509.4
781.044	507.4
781.454	505
781.865	518
782.276	492.8
782.686	511.6
783.097	500.8
783.508	503.6
783.919	512.2
784.33	517.6
784.741	513.4
785.152	495
785.563	493.4
785.974	495.8
786.386	507.2
786.776	503.8
787.188	492.4
787.599	501.4
788.011	506.2
788.423	500.8
788.835	496.6
789.247	498.8
789.659	501
790.071	502.8
790.483	536.8
790.874	496.2
791.286	502.8
791.699	501.2
792.111	499.4
792.524	506.4
792.937	506
793.349	493.8
793.741	504.2
794.154	503.2
794.567	519.8
794.98	507.2
795.393	494.8
795.785	515.2
796.198	507.6
796.612	503.4
797.026	493.2
797.439	492.2
797.831	496
798.245	496.6
798.659	504.2
799.073	498.2
799.487	494.2
799.88	505.6
800.294	497
800.708	497.6
801.123	506.2
801.516	518.8
801.93	497.6
802.345	494.4
802.76	506
803.153	512.4
803.568	513.2
803.983	514
804.377	506.2
804.792	491
805.207	492
805.601	491.2
806.016	528.8
806.432	495.8
806.826	526.8
807.242	513.4
807.658	513.8
808.052	500.8
808.468	495.2
808.884	497.2
809.279	504.2
809.695	510.8
810.111	514.4
810.506	510.8
810.922	520.2
811.339	496.4
811.734	509.4
812.151	505
812.546	493.2
812.963	499.2
813.38	508.4
813.776	497
814.193	520.6
814.589	492.8
815.006	499.6
815.402	497
815.82	496.4
816.237	499.8
816.633	504.4
817.051	501.4
817.448	508
817.866	495.4
818.262	512
818.68	496.6
819.077	498.2
819.495	508.4
819.892	535.6
820.311	498.6
820.708	504.8
821.127	492.2
821.524	505.2
821.943	504.6
822.34	516.2
822.759	498
823.157	499.4
823.576	512.8
823.974	509
824.393	593.4
824.791	499
825.189	498.8
825.609	501.4
826.007	496.6
826.427	491.4
826.826	498.4
827.246	503.2
827.644	495.6
828.043	506.8
828.463	495
828.862	518.4
829.261	505.8
829.682	494.2
830.081	505.6
830.502	489.4
830.901	501.8
831.301	491.4
831.722	493.2
832.121	506.4
832.521	494.8
832.943	499
833.342	503.4
833.742	491.8
834.164	504
834.564	487.8
834.965	505.8
835.386	496.2
835.787	499.2
836.188	498.6
836.588	500
837.01	505
837.411	494
837.812	510.4
838.213	500
838.636	496
839.037	553
839.438	489.2
839.84	501.2
840.263	509
840.664	503.6
841.066	498.6
841.468	502
841.891	495.2
842.293	507.4
842.695	506.4
843.098	510.4
843.5	497.8
843.902	510.6
844.326	510.8
844.729	500.4
845.131	516.4
845.534	500.6
845.937	510.4
846.34	516
846.764	500.6
847.167	507
847.571	489.2
847.974	496.8
848.377	496.8
848.781	538.2
849.184	512.8
849.588	491.6
849.992	497.6
850.396	503.6
850.821	527.2
851.225	507.2
851.63	496.4
852.034	510.8
852.438	496.8
852.843	564.8
853.247	491.6
853.652	489.8
854.057	516.4
854.462	497.6
854.867	500.4
855.272	524
855.677	496.6
856.082	492.4
