#lambda/nm	C1
208.295	468.8
208.67	428.8
209.045	398.4
209.419	398.6
209.794	542
210.169	524.8
210.544	629
210.919	542.4
211.295	531.4
211.67	540
212.045	527.8
212.421	537.2
212.796	566.2
213.172	531.8
213.547	537.4
213.923	538.6
214.299	537.6
214.675	547
215.051	543.2
215.427	545
215.803	554
216.179	547.6
216.555	531
216.932	545.6
217.308	543.2
217.684	545.4
218.061	549
218.438	541
218.814	534.2
219.191	543.6
219.568	528.6
219.945	530
220.322	545.2
220.699	536.4
221.076	538.6
221.453	539.4
221.83	524.2
222.208	533.8
222.585	535.8
222.962	541.2
223.34	542
223.717	534.6
224.095	538
224.473	532.8
224.851	531.2
225.229	531.4
225.607	547.2
225.985	530.2
226.363	536.2
226.741	539.2
227.119	537.6
227.497	544.8
227.876	528.2
228.254	544.8
228.633	537.8
229.011	539
229.39	551.2
229.769	541.4
230.148	543.6
230.527	560.6
230.905	540.8
231.284	537
231.664	533.8
232.043	551
232.422	544.2
232.801	534
233.181	540.2
233.56	543
233.94	547
234.319	529.4
234.699	539.2
235.079	570.8
235.458	567.4
235.838	554.6
236.218	535.4
236.598	529.8
236.978	530.2
237.358	529.6
237.738	529.2
238.119	538
238.499	528.6
238.88	523
239.26	548
239.641	523.2
240.021	532
240.402	532.2
240.783	538.8
241.163	535.4
241.544	546.8
241.925	546.4
242.306	547.4
242.687	531.2
243.069	535.4
243.45	542.2
243.831	527.4
244.212	540
244.594	559.4
244.975	538.4
245.357	540.8
245.739	538.2
246.12	535.4
246.502	553.4
246.884	544
247.266	540.6
247.648	536
248.03	548
248.412	543.6
248.794	544.6
249.176	540.2
249.559	547
249.941	535.6
250.323	525.6
250.706	531.6
251.089	542.6
251.471	547.8
251.854	539.6
252.237	530.8
252.62	546
253.002	541.4
253.385	538.4
253.769	542
254.152	541.8
254.535	539.6
254.918	537.8
255.301	531.4
255.685	538
256.068	533
256.452	554.6
256.835	551.6
257.219	550.2
257.603	553.2
257.986	528.8
258.37	535.4
258.754	532
259.138	540.6
259.522	540.4
259.906	530.6
260.29	542.4
260.675	533.6
261.059	542
261.443	535.6
261.828	547.2
262.212	541
262.597	533.6
262.981	544.8
263.366	543.2
263.751	537.6
264.136	531
264.521	535.6
264.906	534.4
265.291	541.6
265.676	534.6
266.061	545.2
266.446	548.4
266.831	537.8
267.217	555
267.602	540
267.987	541.6
268.373	536.4
268.759	536.6
269.144	544.8
269.53	537.6
269.916	535.8
270.302	531.8
270.688	540
271.074	536.2
271.46	547.2
271.846	571.4
272.232	541.8
272.618	534
273.004	538.8
273.391	551.4
273.777	539.8
274.164	536.8
274.55	543.2
274.937	539.2
275.324	531.2
275.71	549
276.097	543.4
276.484	528
276.871	538.2
277.258	540
277.645	523
278.032	528.2
278.419	530
278.807	543.2
279.194	525.6
279.581	524.4
279.969	543
280.356	533.8
280.744	527
281.131	556.4
281.519	547.2
281.907	538
282.295	542.4
282.682	546.6
283.07	543
283.458	547.8
283.846	541.8
284.235	546
284.623	542.6
285.011	531.2
285.399	539.4
285.788	534.8
286.176	522
286.565	544.6
286.953	529
287.342	532.2
287.731	536
288.119	528.2
288.508	535.2
288.897	533.8
289.286	527
289.675	538.6
290.064	542.6
290.453	535.2
290.821	534
291.21	551.4
291.599	534.2
291.989	535.4
292.378	546
292.768	555.8
293.157	543.4
293.547	549.4
293.936	541
294.326	531.6
294.716	537
295.106	534.4
295.496	537.6
295.886	534
296.276	530.4
296.666	526
297.056	528.6
297.446	528.4
297.836	544.2
298.227	527.2
298.617	542.6
299.008	540.6
299.398	525.8
299.789	538.8
300.179	541.4
300.57	541.2
300.961	535
301.352	534.6
301.742	542
302.133	545.6
302.524	531.8
302.915	542
303.307	525
303.698	544.6
304.089	547.6
304.48	540.8
304.872	542.2
305.263	539.2
305.655	535.4
306.046	547.4
306.438	545.4
306.829	540
307.221	546.8
307.613	536.8
308.005	549.4
308.397	545.6
308.789	546.4
309.181	562.8
309.573	560.2
309.965	550.6
310.357	535.8
310.749	547.4
311.142	531.2
311.534	529.2
311.926	557.4
312.319	541.8
312.711	536.2
313.104	552
313.497	532.8
313.889	566.2
314.282	555.6
314.675	561.4
315.068	536.2
315.461	544.2
315.854	564.2
316.247	545.2
316.64	534.6
317.033	543.2
317.405	540
317.798	538.2
318.192	535.6
318.585	528.6
318.979	537.2
319.372	528.2
319.766	536.4
320.16	540.2
320.553	543.4
320.947	544.8
321.341	533.4
321.735	543
322.129	526.8
322.523	553.8
322.917	529.6
323.311	558.4
323.705	542.8
324.099	535.4
324.494	550.8
324.888	543.2
325.282	533.4
325.677	540.8
326.071	547.2
326.466	549.4
326.861	543
327.255	547.6
327.65	556.6
328.045	552.4
328.44	538.6
328.835	544
329.23	531.8
329.625	559.8
330.02	534.2
330.415	555.2
330.81	544.8
331.206	537.4
331.601	541.2
331.996	539.4
332.37	552.4
332.766	529.4
333.161	557.8
333.557	530.4
333.953	537
334.348	810
334.744	547
335.14	529
335.536	530.6
335.932	547
336.328	541
336.724	550.4
337.12	540.6
337.516	540.2
337.913	535.6
338.309	538.2
338.705	533.6
339.102	545
339.498	530
339.895	549
340.291	535.2
340.688	541.2
341.085	527.2
341.481	532.6
341.878	535
342.275	545.6
342.672	530.8
343.069	530.4
343.466	526.4
343.842	550
344.239	534
344.636	535.6
345.033	528.8
345.431	530
345.828	539.2
346.225	536
346.623	562
347.02	539.6
347.418	543
347.816	553.8
348.213	526.4
348.611	548.4
349.009	536.2
349.407	547
349.805	533.8
350.203	520.4
350.601	541.2
350.999	533.2
351.397	569.4
351.795	537
352.193	541.8
352.57	541.2
352.969	540.2
353.367	532.2
353.766	528.4
354.164	530
354.563	546.6
354.961	536.6
355.36	529.4
355.759	532.6
356.158	526.8
356.557	532.2
356.956	528.6
357.355	516
357.754	533.4
358.153	526
358.552	550.6
358.951	535.6
359.35	542.4
359.75	527
360.149	531
360.527	519.8
360.926	527.6
361.326	529.4
361.726	536.4
362.125	527.4
362.525	537.2
362.925	530.8
363.325	539.6
363.724	533.4
364.124	536
364.524	522.4
364.924	535.6
365.324	539.6
365.725	523.2
366.125	535.8
366.525	528
366.904	533.6
367.304	521.8
367.705	545.6
368.105	544.4
368.506	530
368.906	530.4
369.307	528.6
369.708	543.8
370.108	519.8
370.509	537.2
370.91	530.4
371.311	539.2
371.712	530.2
372.113	527.6
372.514	523.2
372.894	529.4
373.295	518.4
373.696	530.8
374.097	536.6
374.499	561
374.9	526
375.301	520.2
375.703	534.2
376.105	526.2
376.506	532.4
376.908	528.2
377.309	526.2
377.711	527
378.113	521
378.493	524.8
378.895	523.8
379.297	538.8
379.699	516.4
380.102	522.2
380.504	518.2
380.906	521.8
381.308	550.4
381.71	524
382.113	529.6
382.515	524.2
382.918	530.8
383.299	528.8
383.701	532
384.104	526.4
384.507	513.8
384.909	525.8
385.312	517.4
385.715	525
386.118	528.4
386.521	516.8
386.924	538
387.327	524
387.709	517.8
388.112	516.6
388.515	524.2
388.918	527.2
389.322	531.8
389.725	522.4
390.129	541.2
390.532	534.2
390.936	523.4
391.339	530.4
391.743	527
392.125	510.8
392.529	520.8
392.933	538.6
393.337	531.4
393.74	530.8
394.144	523.2
394.548	517.2
394.953	531
395.357	526
395.761	520
396.144	523.4
396.548	533.2
396.952	527.2
397.357	527.2
397.761	521
398.166	525.4
398.57	530.2
398.975	520.4
399.379	527.2
399.763	574
400.168	525.6
400.572	524
400.977	528
401.382	540
401.787	531.6
402.192	546.2
402.597	546.2
403.002	520.2
403.386	533.2
403.791	542
404.197	526.4
404.602	534.4
405.007	527.8
405.413	526
405.818	527.4
406.224	525.8
406.608	534.8
407.014	529
407.42	543.8
407.825	528.2
408.231	533.6
408.637	529.6
409.043	538
409.449	527.4
409.834	525.8
410.24	531
410.646	534.4
411.052	535
411.458	534.6
411.865	531.6
412.271	531
412.677	538.8
413.062	532.8
413.469	522.8
413.875	547.8
414.282	537.6
414.689	536.6
415.095	533.2
415.502	522.2
415.888	521.4
416.294	516.2
416.701	562.2
417.108	523.6
417.515	536.6
417.923	529.4
418.33	541.8
418.715	535.2
419.123	520.6
419.53	520.2
419.937	528.6
420.345	538.2
420.752	523
421.16	535.8
421.546	531.8
421.953	538.4
422.361	525.6
422.769	534.8
423.177	522
423.585	548.4
423.992	547.2
424.379	540.8
424.787	542.2
425.195	545.2
425.603	534
426.011	541.6
426.419	543.4
426.806	533.4
427.214	537.8
427.623	542.8
428.031	540.6
428.44	532.4
428.848	538.4
429.235	541
429.644	531
430.053	535
430.461	538.4
430.87	554.4
431.279	544.2
431.666	527
432.075	537.8
432.484	533.8
432.893	530.6
433.302	553.6
433.711	565.2
434.099	536.2
434.508	524.6
434.918	512.2
435.327	523.2
435.737	527.6
436.125	525.4
436.534	528.6
436.944	526
437.353	538.2
437.763	543.6
438.173	521.2
438.561	534.2
438.971	517.6
439.381	531.4
439.791	526.2
440.201	511.4
440.589	529
440.999	530.6
441.409	530.8
441.819	524.8
442.23	527.8
442.619	539
443.029	528
443.439	527.6
443.85	536.4
444.26	543.6
444.649	538.4
445.06	526.4
445.471	522.8
445.881	523.8
446.292	545.8
446.682	549.4
447.092	519.6
447.503	561.6
447.914	529.6
448.325	533.4
448.715	527.2
449.126	525
449.537	526
449.948	522.4
450.338	531.6
450.75	538.2
451.161	529
451.572	537.4
451.984	527.2
452.374	515
452.786	530
453.197	533.8
453.609	529
453.999	517
454.411	520.6
454.823	532.4
455.235	524.4
455.647	522.6
456.037	518.8
456.449	510.6
456.862	525.6
457.274	523.8
457.665	522.8
458.077	528.8
458.489	546
458.902	529.8
459.293	525.8
459.705	522.2
460.118	519.8
460.53	523.6
460.921	528.4
461.334	532.2
461.747	524.6
462.16	537.4
462.551	534.4
462.964	529.6
463.377	522.4
463.79	525.8
464.182	533
464.595	520
465.008	528.8
465.421	522.4
465.813	523.8
466.226	527.8
466.64	526.8
467.053	569
467.445	529.2
467.859	531.6
468.272	525
468.686	535.4
469.078	520
469.492	514
469.906	524.2
470.298	519.6
470.712	519.2
471.126	542.6
471.54	501.4
471.933	510.8
472.347	523.4
472.761	508.4
473.175	509
473.568	512.2
473.982	513.2
474.397	517.8
474.79	527.2
475.204	523.2
475.619	513.8
476.033	523.2
476.426	518.8
476.841	519.2
477.256	538.8
477.649	515.8
478.064	510
478.479	515.4
478.872	507.8
479.287	502.4
479.702	506.4
480.118	515
480.511	516.4
480.927	519.2
481.342	518.4
481.736	520
482.151	521.2
482.566	527
482.96	523
483.376	520.4
483.792	522
484.186	515.6
484.602	517.2
485.017	518.4
485.412	516.8
485.827	519.2
486.243	519.8
486.638	539
487.054	524.4
487.47	538.2
487.865	523
488.281	524.6
488.697	515
489.092	523.4
489.508	515.2
489.925	524.8
490.32	515.6
490.736	526.6
491.153	525.2
491.548	519.4
491.964	521.8
492.381	516.6
492.776	517.2
493.193	520.2
493.61	523.4
494.006	526
494.422	528
494.84	516.8
495.235	519
495.652	524.4
496.069	522.2
496.465	514.6
496.883	516.6
497.3	536
497.696	524.6
498.113	523
498.509	516
498.927	508.6
499.344	517.4
499.741	516.2
500.158	524.2
500.576	526.2
500.973	537.2
501.39	514.2
501.787	516.6
502.205	524.6
502.623	517.6
503.02	508.6
503.438	517.2
503.856	519.8
504.253	516
504.671	520.8
505.068	515.4
505.486	523.8
505.905	529.6
506.302	515.8
506.72	523.2
507.118	505.2
507.536	513.8
507.955	519
508.352	525.2
508.771	513.8
509.169	525.4
509.587	513.6
510.006	520.2
510.404	507.2
510.823	512.6
511.221	510
511.64	512.8
512.038	522.2
512.457	514.6
512.877	518.4
513.275	514
513.694	520.2
514.092	512.8
514.512	517.2
514.91	519.2
515.33	510
515.749	519.8
516.148	522.6
516.568	521.8
516.966	519.2
517.386	516.8
517.785	516.8
518.205	510.8
518.603	514
519.024	521.2
519.444	522.6
519.843	524.2
520.263	524.4
520.662	516
521.082	515
521.481	513.6
521.902	517
522.301	523.4
522.722	513.4
523.121	516.6
523.542	516.8
523.963	514.4
524.362	513.6
524.783	518.2
525.183	519
525.604	516.2
526.003	512.8
526.425	509.2
526.824	525.2
527.246	525.2
527.646	523.4
528.067	513
528.467	520.8
528.888	524.2
529.289	516.8
529.71	521
530.11	512.8
530.532	520.4
530.932	504.8
531.354	504.6
531.755	539
532.176	523.4
532.577	512.4
532.999	513.2
533.4	511.6
533.822	520.4
534.223	517
534.645	518.4
535.046	511.4
535.468	508.6
535.869	528.8
536.292	514.6
536.693	548.6
537.115	517.2
537.516	512.8
537.939	516.4
538.34	529.4
538.742	530.8
539.165	508
539.566	511
539.989	511.6
540.391	516.4
540.814	519.6
541.216	523.2
541.639	515.6
542.041	525.6
542.464	513.6
542.866	509.8
543.268	513
543.691	516.6
544.093	522
544.517	533.8
544.919	509
545.343	529.6
545.745	511.4
546.147	519
546.571	520.4
546.974	504.4
547.398	510.4
547.8	535.6
548.224	517.2
548.627	512.2
549.03	522.6
549.454	507.8
549.857	507.6
550.281	504.4
550.684	511.2
551.087	530
551.512	521
551.915	522.2
552.34	517
552.743	508.2
553.146	518
553.571	513.4
553.975	528.4
554.399	511.2
554.803	555
555.207	510.8
555.632	505
556.036	521.4
556.461	507.4
556.865	516.8
557.268	504.6
557.694	510
558.098	519.6
558.502	513.2
558.927	507
559.332	518
559.736	514.4
560.162	515.2
560.566	517.8
560.992	522.4
561.396	515.2
561.801	514.4
562.227	511.2
562.631	510.2
563.036	514.6
563.462	521
563.867	509.8
564.272	504.6
564.698	520.8
565.103	507.6
565.508	523.4
565.935	511
566.34	506.6
566.745	524.4
567.172	511.8
567.577	526.6
567.982	519
568.409	511.4
568.815	505.8
569.22	509.2
569.626	518.6
570.053	491.8
570.459	505.6
570.865	522.4
571.292	524.6
571.698	519
572.104	504.4
572.531	509.4
572.937	516.8
573.343	504
573.75	509
574.177	513.4
574.583	519.4
574.99	508
575.396	514.6
575.824	508.8
576.231	510.8
576.637	516.2
577.065	530.2
577.472	506.6
577.879	511.8
578.286	519.8
578.714	511.6
579.121	512.2
579.528	517.2
579.935	520.8
580.364	510.6
580.771	498.2
581.178	504.2
581.585	510.2
582.014	513
582.421	507.6
582.829	512.6
583.236	517.4
583.644	513.4
584.073	512.4
584.481	513
584.889	511
585.296	516.2
585.726	518.6
586.134	517
586.542	512
586.95	526.6
587.358	504.4
587.787	503.4
588.196	503
588.604	503.8
589.012	507.2
589.421	503.2
589.851	507.6
590.259	504.4
590.668	513.2
591.076	539.8
591.485	504
591.894	511.6
592.324	522
592.733	523.8
593.142	499.8
593.551	507.8
593.96	511.6
594.369	501.8
594.8	508.6
595.209	510.2
595.618	498.4
596.028	509.4
596.437	505.8
596.847	509.4
597.256	519.6
597.687	511.6
598.097	513
598.507	509.8
598.917	514
599.327	513.2
599.736	507.2
600.146	520
600.556	520.8
600.988	522.6
601.398	513.2
601.808	516.2
602.219	503.6
602.629	508
603.039	522.2
603.45	543.4
603.86	509.8
604.271	522.2
604.703	515
605.114	509.6
605.525	518
605.935	523
606.346	531.6
606.757	518.4
607.168	520.2
607.579	514.2
607.99	517.2
608.402	517.2
608.813	509
609.224	508.2
609.636	504.6
610.047	509.8
610.48	516.8
610.892	520
611.303	517.8
611.715	508.4
612.127	500.6
612.539	508.2
612.95	514.2
613.362	497.6
613.774	498.8
614.186	500.8
614.599	509.2
615.011	524.6
615.423	514.2
615.835	513
616.248	511
616.66	512.2
617.073	499.2
617.485	516.4
617.898	518.2
618.311	520
618.723	515.2
619.136	538.6
619.549	525.2
619.962	535.2
620.375	511.4
620.788	520
621.201	514.2
621.614	511.4
622.028	514.2
622.441	522.6
622.854	529.8
623.268	503
623.681	520.4
624.095	515.4
624.509	524.2
624.922	522.4
625.336	500.4
625.728	521.4
626.142	520.6
626.556	535
626.97	524.2
627.384	511.4
627.799	510.2
628.213	526.4
628.627	522.8
629.041	519.4
629.456	512
629.87	512.4
630.285	520
630.699	521.6
631.093	522.6
631.507	524.4
631.922	519.4
632.337	522.6
632.752	513.8
633.167	518.2
633.582	510.8
633.997	508.4
634.412	507
634.806	515.6
635.221	503.6
635.637	521.2
636.052	504.6
636.468	519.6
636.883	530.2
637.299	511.8
637.715	498.6
638.109	511
638.525	510.2
638.941	522.2
639.357	515.6
639.773	526.4
640.189	504.8
640.584	508.6
641	520
641.416	507.6
641.832	510.8
642.249	520.6
642.665	512
643.06	526
643.477	519.6
643.894	501.4
644.31	518.2
644.727	512.8
645.123	517.2
645.54	503
645.957	514
646.374	529.2
646.77	515.2
647.187	536.8
647.604	512.2
648.021	499.6
648.439	509.4
648.835	507.6
649.252	516
649.67	513.6
650.088	511.2
650.484	511.4
650.902	518
651.32	512.6
651.738	511.2
652.134	510.2
652.552	532.4
652.971	518.8
653.389	521.2
653.786	528.4
654.204	520.2
654.622	502.2
655.019	507.8
655.438	525.8
655.857	518
656.275	515.8
656.673	497.8
657.091	514
657.51	507.2
657.908	523
658.327	516.2
658.746	504.8
659.144	516
659.563	520.4
659.982	512
660.38	508.4
660.8	512.4
661.219	519.8
661.617	516.8
662.037	510
662.457	518.2
662.855	499.2
663.275	534.2
663.695	505.2
664.094	504.4
664.514	510
664.934	501.8
665.333	516
665.753	494.2
666.152	502.6
666.572	496.8
666.993	511.6
667.392	502.4
667.812	505
668.212	501.6
668.632	515.6
669.053	510.2
669.453	506.2
669.874	508.2
670.273	511.8
670.694	502.6
671.116	514.2
671.515	506
671.937	502.8
672.337	503
672.758	511.8
673.158	518
673.58	498.4
673.98	506.8
674.402	515.2
674.824	505.8
675.224	497.2
675.646	501.2
676.047	496.6
676.469	507
676.869	512.4
677.292	512.2
677.693	507.4
678.115	503.8
678.516	512.6
678.939	519
679.34	508.8
679.762	519.8
680.164	509.8
680.586	501.8
680.988	512.2
681.411	523.8
681.812	510.8
682.236	502.8
682.637	500.2
683.061	503.6
683.462	514.6
683.864	505.8
684.288	509.8
684.69	495
685.114	519
685.516	507.6
685.94	497.8
686.342	511.2
686.766	500.8
687.168	500.4
687.571	518.6
687.995	505
688.398	497.6
688.822	508
689.225	518.6
689.628	517.2
690.052	500.6
690.456	515
690.88	500.6
691.284	498.8
691.687	505
692.112	497.6
692.515	502.2
692.919	504.8
693.344	514.4
693.747	501.8
694.173	505
694.577	514.6
694.98	509.6
695.406	503.2
695.81	507.2
696.214	511.2
696.64	509.6
697.044	510.2
697.448	520.6
697.874	517
698.279	513.8
698.684	503.6
699.11	508.4
699.514	504.2
699.919	500.8
700.324	498.4
700.75	507.2
701.156	506
701.561	507.8
701.987	510.2
702.393	511.6
702.798	518.2
703.203	503.2
703.63	505.8
704.036	501.6
704.442	504
704.847	497.4
705.274	502.6
705.68	501.8
706.086	512
706.492	499.4
706.92	504.4
707.326	510
707.732	501.6
708.139	497
708.545	498
708.973	503.6
709.38	508.8
709.786	495.8
710.193	510.4
710.6	501.8
711.028	498.2
711.435	505.8
711.842	502
712.249	504.6
712.656	505.6
713.064	516.6
713.492	503.2
713.9	503
714.307	511
714.715	507.4
715.123	509.8
715.53	515.2
715.938	514.4
716.367	495.6
716.775	499.6
717.184	500.6
717.592	504.6
718	513.6
718.408	531.8
718.816	543.2
719.225	508.4
719.633	506.6
720.042	498.2
720.472	494.2
720.881	522.8
721.29	509
721.699	495.6
722.108	500.8
722.517	502.8
722.926	498.6
723.335	512.8
723.744	507.4
724.154	503.4
724.563	505.8
724.973	505.2
725.382	505.4
725.792	507.2
726.202	495.6
726.612	518
727.022	502
727.432	497.4
779.813	506.6
780.223	537.8
780.634	498
781.044	492
781.454	501
781.865	515.6
782.276	502
782.686	519.4
783.097	501.4
783.508	501.6
783.919	509.8
784.33	512
784.741	515.2
785.152	499.2
785.563	494.6
785.974	499.8
786.386	512.6
786.776	508.4
787.188	507
787.599	504.6
788.011	516.8
788.423	507.8
788.835	500.4
789.247	495.4
789.659	499.8
790.071	502.2
790.483	531
790.874	499.4
791.286	506.6
791.699	496
792.111	504.4
792.524	506.8
792.937	498.8
793.349	495.8
793.741	493.4
794.154	496.8
794.567	510.8
794.98	498.4
795.393	500.2
795.785	512.6
796.198	493.6
796.612	506.8
797.026	508
797.439	485
797.831	498.4
798.245	492.6
798.659	497.6
799.073	494
799.487	491.8
799.88	503.8
800.294	509.4
800.708	504
801.123	512.2
801.516	514.4
801.93	496.4
802.345	486.8
802.76	502.8
803.153	510.8
803.568	503
803.983	504.2
804.377	509
804.792	492.6
805.207	491.6
805.601	501.4
806.016	531
806.432	492.4
806.826	524
807.242	519.4
807.658	507.8
808.052	496.4
808.468	495.8
808.884	506.4
809.279	507.8
809.695	516
810.111	517.2
810.506	499
810.922	515
811.339	496.2
811.734	499.8
812.151	497.4
812.546	503.8
812.963	495
813.38	503.2
813.776	505.2
814.193	514.2
814.589	494.6
815.006	496.6
815.402	493
815.82	498.4
816.237	501.4
816.633	501
817.051	494.4
817.448	498.2
817.866	490.4
818.262	511.2
818.68	502.6
819.077	498.8
819.495	500.2
819.892	534.8
820.311	491.6
820.708	496
821.127	491
821.524	508
821.943	508.4
822.34	511.4
822.759	503.4
823.157	501
823.576	519.4
823.974	507.8
824.393	584.2
824.791	495
825.189	493.6
825.609	504.4
826.007	496.6
826.427	490
826.826	502.8
827.246	501.6
827.644	490.4
828.043	513.6
828.463	494
828.862	510.6
829.261	514.2
829.682	487.4
830.081	508.2
830.502	498.4
830.901	505.4
831.301	497.4
831.722	494
832.121	502
832.521	501
832.943	505.8
833.342	500.6
833.742	495.8
834.164	502
834.564	484.6
834.965	500.6
835.386	495.2
835.787	500.8
836.188	499.8
836.588	501.6
837.01	497.8
837.411	499
837.812	502.4
838.213	504.8
838.636	501.8
839.037	552
839.438	506.2
839.84	509.6
840.263	505
840.664	508
841.066	498.2
841.468	506.4
841.891	494.8
842.293	507.6
842.695	500.8
843.098	511
843.5	503.2
843.902	504.8
844.326	500
844.729	498.6
845.131	508
845.534	504.6
845.937	512.6
846.34	514.8
846.764	497
847.167	501.6
847.571	495
847.974	502.4
848.377	497
848.781	550.8
849.184	506.6
849.588	493.6
849.992	489.4
850.396	506.2
850.821	513.4
851.225	499.8
851.63	504.2
852.034	516.4
852.438	496.8
852.843	566
853.247	492.2
853.652	497.6
854.057	511
854.462	499.8
854.867	498.8
855.272	526.8
855.677	505.2
856.082	495.4
856.487	495
856.893	499.4
857.298	493.8
857.704	495
