#lambda/nm	C1
208.295	465.8
208.67	434.6
209.045	396.4
209.419	399.4
209.794	543.4
210.169	524.4
210.544	626.6
210.919	539.4
211.295	525.4
211.67	540
212.045	531.4
212.421	532
212.796	560.4
213.172	536.2
213.547	533.8
213.923	532.2
214.299	530.8
214.675	542.4
215.051	537
215.427	537.4
215.803	551.6
216.179	546.2
216.555	524.2
216.932	546.4
217.308	527
217.684	532.2
218.061	543
218.438	535
218.814	535.4
219.191	538.6
219.568	519.6
219.945	534.4
220.322	543.8
220.699	532.2
221.076	542.4
221.453	543.2
221.83	532
222.208	530.8
222.585	536.2
222.962	537.2
223.34	545.2
223.717	529.2
224.095	527.2
224.473	537.2
224.851	530.6
225.229	523.4
225.607	553.4
225.985	529.4
226.363	530.8
226.741	531.6
227.119	529.8
227.497	545.2
227.876	518.4
228.254	538
228.633	536.6
229.011	540.6
229.39	540.4
229.769	544
230.148	536.2
230.527	559.4
230.905	533.4
231.284	536.8
231.664	533
232.043	546.8
232.422	537
232.801	535.6
233.181	536.4
233.56	533
233.94	531.8
234.319	521.2
234.699	531.8
235.079	570.2
235.458	566.4
235.838	547.4
236.218	525
236.598	530.8
236.978	533.2
237.358	528.8
237.738	527.6
238.119	537
238.499	523
238.88	530.2
239.26	549.6
239.641	522
240.021	525.6
240.402	533.6
240.783	534.4
241.163	533.2
241.544	540.8
241.925	531
242.306	539.6
242.687	537
243.069	536.6
243.45	544.8
243.831	530.6
244.212	531
244.594	561.8
244.975	541.4
245.357	543.8
245.739	532.6
246.12	540.8
246.502	549.2
246.884	540.4
247.266	538
247.648	533.6
248.03	553.6
248.412	538.2
248.794	540
249.176	526.8
249.559	546.8
249.941	533.4
250.323	524.6
250.706	528.8
251.089	535.8
251.471	534.6
251.854	535.4
252.237	539
252.62	549
253.002	535
253.385	528.4
253.769	540.4
254.152	536
254.535	545.4
254.918	528
255.301	536.4
255.685	529.6
256.068	530
256.452	564.6
256.835	546.8
257.219	543.2
257.603	546.4
257.986	525.6
258.37	533
258.754	525.6
259.138	537.2
259.522	551.6
259.906	535.4
260.29	541.4
260.675	538.8
261.059	534.4
261.443	531.8
261.828	538.8
262.212	541.2
262.597	536.8
262.981	533.4
263.366	541
263.751	528.4
264.136	528.4
264.521	537
264.906	522.8
265.291	553.6
265.676	531
266.061	533.8
266.446	549.2
266.831	532.2
267.217	551.6
267.602	540
267.987	539
268.373	525.4
268.759	548.8
269.144	536
269.53	537.2
269.916	529.6
270.302	531.8
270.688	540.2
271.074	539.8
271.46	548.4
271.846	555.2
272.232	542.6
272.618	533.2
273.004	537.2
273.391	545.2
273.777	539.8
274.164	536.4
274.55	543.8
274.937	531.4
275.324	529.4
275.71	538.8
276.097	536.8
276.484	525.6
276.871	534.2
277.258	538.2
277.645	529.6
278.032	534.6
278.419	540.2
278.807	546
279.194	528.8
279.581	526.2
279.969	535
280.356	539.8
280.744	535.4
281.131	563.2
281.519	537.2
281.907	533.4
282.295	528.4
282.682	542.2
283.07	543.4
283.458	546.6
283.846	547
284.235	551.2
284.623	543
285.011	526.6
285.399	549.6
285.788	536
286.176	523.6
286.565	553.2
286.953	527
287.342	530.8
287.731	525.2
288.119	531.4
288.508	531.2
288.897	535.2
289.286	519.8
289.675	530.4
290.064	547.6
290.453	525
290.821	537
291.21	548
291.599	530.8
291.989	532.2
292.378	543.2
292.768	556.6
293.157	539.4
293.547	539.6
293.936	535.2
294.326	535.4
294.716	541
295.106	534.8
295.496	547.8
295.886	549.4
296.276	536.6
296.666	531.4
297.056	533.4
297.446	532.4
297.836	542.8
298.227	529.8
298.617	540.4
299.008	547.6
299.398	537.2
299.789	539.8
300.179	541.4
300.57	544.6
300.961	534.8
301.352	532.2
301.742	543.4
302.133	541.8
302.524	542.8
302.915	543.4
303.307	533.8
303.698	545.6
304.089	539.8
304.48	537.8
304.872	538.8
305.263	537.2
305.655	530.8
306.046	545
306.438	542.6
306.829	523.2
307.221	549.6
307.613	538.6
308.005	545
308.397	552.2
308.789	555
309.181	554.4
309.573	556
309.965	541.8
310.357	539.2
310.749	546.2
311.142	529.6
311.534	527.4
311.926	540.8
312.319	537.4
312.711	533.6
313.104	548
313.497	535.4
313.889	561
314.282	550.6
314.675	554.8
315.068	531
315.461	541.4
315.854	556.8
316.247	537.8
316.64	536.2
317.033	538.2
317.405	540.4
317.798	537.2
318.192	542.8
318.585	530.4
318.979	531.6
319.372	529.6
319.766	534.4
320.16	544
320.553	544.2
320.947	560.2
321.341	530.4
321.735	536.4
322.129	526
322.523	562.2
322.917	520.8
323.311	552
323.705	531.8
324.099	538.6
324.494	553.4
324.888	540
325.282	536.8
325.677	549
326.071	544.2
326.466	537.2
326.861	526.8
327.255	544.6
327.65	541.6
328.045	546.8
328.44	532.8
328.835	530.8
329.23	533.8
329.625	553.8
330.02	534.6
330.415	544.8
330.81	540.2
331.206	538.6
331.601	526.2
331.996	540.4
332.37	546.8
332.766	527
333.161	556.4
333.557	523.4
333.953	531.2
334.348	832
334.744	535.4
335.14	530.6
335.536	533.2
335.932	543.8
336.328	530.4
336.724	543.4
337.12	538.6
337.516	540.4
337.913	530.4
338.309	545.6
338.705	532.2
339.102	541.4
339.498	536.2
339.895	542.2
340.291	526.6
340.688	543
341.085	517.6
341.481	534
341.878	534.6
342.275	551.2
342.672	520.6
343.069	531.8
343.466	522.4
343.842	541
344.239	526
344.636	539.2
345.033	530.2
345.431	521.4
345.828	536.4
346.225	534.4
346.623	561.4
347.02	532.8
347.418	542.6
347.816	543
348.213	522
348.611	534.8
349.009	530
349.407	533
349.805	523.2
350.203	527.2
350.601	542.4
350.999	521.6
351.397	578
351.795	527.2
352.193	534
352.57	538.2
352.969	546.2
353.367	518
353.766	526.2
354.164	527.4
354.563	538.8
354.961	532
355.36	529
355.759	531.8
356.158	527
356.557	528
356.956	528.8
357.355	516.6
357.754	534.2
358.153	528.8
358.552	546.4
358.951	533
359.35	540.8
359.75	525.6
360.149	526
360.527	519.4
360.926	521.8
361.326	532.6
361.726	528.8
362.125	525
362.525	533
362.925	530.8
363.325	523.2
363.724	523.8
364.124	520.2
364.524	518.2
364.924	521.2
365.324	538.4
365.725	521
366.125	531
366.525	531.6
366.904	527.8
367.304	508.8
367.705	540.8
368.105	539.2
368.506	519
368.906	522.4
369.307	533
369.708	537.6
370.108	521.2
370.509	536.2
370.91	526.2
371.311	524.8
371.712	526.6
372.113	520.4
372.514	514.6
372.894	528
373.295	523
373.696	531.4
374.097	533.4
374.499	554.2
374.9	525.4
375.301	520.4
375.703	530.6
376.105	526.4
376.506	530.6
376.908	526.8
377.309	532.8
377.711	532.8
378.113	522.6
378.493	532.8
378.895	533.6
379.297	538.8
379.699	522.6
380.102	522.8
380.504	529.2
380.906	524.2
381.308	547.4
381.71	527.4
382.113	537.6
382.515	526
382.918	523.4
383.299	521.8
383.701	540.6
384.104	522.8
384.507	511.8
384.909	526
385.312	515.4
385.715	527.2
386.118	527.4
386.521	519
386.924	529.8
387.327	523.2
387.709	518
388.112	513.8
388.515	530.2
388.918	527.2
389.322	531.4
389.725	517.6
390.129	541.8
390.532	533.4
390.936	522.6
391.339	512.4
391.743	533.8
392.125	521.8
392.529	539.8
392.933	534.6
393.337	532.8
393.74	524.2
394.144	531.6
394.548	519.2
394.953	526
395.357	532.8
395.761	527.6
396.144	531
396.548	530.8
396.952	529.6
397.357	521
397.761	524.6
398.166	519.8
398.57	522.4
398.975	532.4
399.379	522.8
399.763	570.8
400.168	526.6
400.572	529.8
400.977	526.8
401.382	544
401.787	531.2
402.192	546.6
402.597	536.6
403.002	519.2
403.386	539.6
403.791	542.4
404.197	519.2
404.602	527.2
405.007	523
405.413	529
405.818	536.2
406.224	528.8
406.608	527.6
407.014	528.6
407.42	537
407.825	518.8
408.231	531.6
408.637	535.2
409.043	535.2
409.449	530.4
409.834	523
410.24	523.8
410.646	530.4
411.052	534
411.458	529
411.865	532.2
412.271	528.4
412.677	523.8
413.062	532.6
413.469	522
413.875	546.4
414.282	537
414.689	530.4
415.095	538
415.502	522.2
415.888	522.4
416.294	512.4
416.701	562.2
417.108	518.8
417.515	528.2
417.923	523.8
418.33	537.4
418.715	536.4
419.123	524.4
419.53	522.2
419.937	523.8
420.345	541.8
420.752	535.2
421.16	541.2
421.546	530.6
421.953	529.8
422.361	519.6
422.769	530
423.177	518.2
423.585	542.4
423.992	539
424.379	533.6
424.787	530.6
425.195	543.8
425.603	532
426.011	532.2
426.419	535
426.806	526.4
427.214	529.2
427.623	542.2
428.031	544.6
428.44	529.4
428.848	534
429.235	536.6
429.644	525.2
430.053	524
430.461	534.8
430.87	546.6
431.279	528.6
431.666	523.8
432.075	531.4
432.484	529.4
432.893	524.6
433.302	533.2
433.711	560.4
434.099	536
434.508	523.4
434.918	520
435.327	534.6
435.737	526.6
436.125	530.2
436.534	527.8
436.944	526
437.353	531
437.763	546
438.173	517
438.561	540.8
438.971	509.8
439.381	531.8
439.791	525.6
440.201	514.8
440.589	522.8
440.999	528.6
441.409	530.6
441.819	522
442.23	533.2
442.619	529.2
443.029	532.2
443.439	526.4
443.85	533.6
444.26	528.8
444.649	524.4
445.06	528
445.471	520.2
445.881	532.2
446.292	541.6
446.682	538
447.092	518.8
447.503	563.4
447.914	522.8
448.325	531
448.715	521
449.126	515.6
449.537	530.6
449.948	527
450.338	525.4
450.75	531
451.161	526
451.572	530.4
451.984	514.8
452.374	512.2
452.786	523.4
453.197	524.4
453.609	526.4
453.999	516
454.411	520
454.823	534.8
455.235	525.2
455.647	522.6
456.037	529.4
456.449	517
456.862	530
457.274	522.6
457.665	519.6
458.077	522.4
458.489	547.6
458.902	517.8
459.293	529
459.705	522.6
460.118	514.4
460.53	525.6
460.921	523
461.334	522
461.747	519
462.16	538.2
462.551	530.4
462.964	525.6
463.377	514.8
463.79	514.6
464.182	528.2
464.595	514.6
465.008	524.6
465.421	534.4
465.813	516
466.226	529.8
466.64	517.4
467.053	559.2
467.445	531.4
467.859	532.8
468.272	531
468.686	531.2
469.078	524.6
469.492	519
469.906	521.2
470.298	521
470.712	515.2
471.126	535.6
471.54	507.8
471.933	508.8
472.347	516.4
472.761	527
473.175	508.6
473.568	521.2
473.982	508.6
474.397	523.8
474.79	510.4
475.204	524
475.619	512.6
476.033	519.8
476.426	517.6
476.841	518.2
477.256	541.6
477.649	519
478.064	514.4
478.479	519.8
478.872	521.2
479.287	505.4
479.702	510.8
480.118	523
480.511	519.2
480.927	522.6
481.342	518.8
481.736	519.6
482.151	516.2
482.566	524.8
482.96	518.8
483.376	524.4
483.792	515.4
484.186	520.8
484.602	517.8
485.017	517.4
485.412	514.8
485.827	522.6
486.243	516
486.638	531.8
487.054	532.6
487.47	526
487.865	516.2
488.281	514.8
488.697	514.4
489.092	523.4
489.508	511.4
489.925	525
490.32	515.2
490.736	526.4
491.153	522.8
491.548	528
491.964	527
492.381	506.6
492.776	529.2
493.193	519.4
493.61	523.8
494.006	522
494.422	522.6
494.84	513.4
495.235	525.4
495.652	517
496.069	515.6
496.465	515.2
496.883	523.2
497.3	532
497.696	512.6
498.113	519.2
498.509	512.2
498.927	512.6
499.344	511.4
499.741	505.4
500.158	518.6
500.576	524.2
500.973	521.6
501.39	513.8
501.787	509
502.205	520.6
502.623	511.2
503.02	507.8
503.438	516.6
503.856	519.4
504.253	517.2
504.671	526
505.068	523
505.486	517.6
505.905	528.4
506.302	513.8
506.72	524.4
507.118	507.2
507.536	518.6
507.955	518.4
508.352	519.4
508.771	518.6
509.169	517.8
509.587	516.6
510.006	521.8
510.404	512.2
510.823	504.8
511.221	507.8
511.64	512.4
512.038	519.8
512.457	515.8
512.877	514.2
513.275	516.6
513.694	513.2
514.092	513.2
514.512	519.6
514.91	524.8
515.33	524.4
515.749	513.8
516.148	517.4
516.568	517.6
516.966	516.2
517.386	512.2
517.785	517.6
518.205	509
518.603	506
519.024	506.6
519.444	518
519.843	525.8
520.263	515.8
520.662	517.4
521.082	512.6
521.481	511.4
521.902	512.6
522.301	511.4
522.722	520
523.121	517
523.542	510
523.963	516.6
524.362	510.6
524.783	520.6
525.183	516.6
525.604	515.2
526.003	511.4
526.425	505.6
526.824	518.8
527.246	511.4
527.646	524.2
528.067	522.6
528.467	518.4
528.888	516.8
529.289	509.4
529.71	510.4
530.11	516.2
530.532	508.4
530.932	504.8
531.354	503.4
531.755	533.8
532.176	512.4
532.577	517.2
532.999	507.8
533.4	510
533.822	519.8
534.223	513.6
534.645	513.4
535.046	509.6
535.468	514.2
535.869	529.8
536.292	508
536.693	543.6
537.115	512.8
537.516	514.2
537.939	514.4
538.34	527.8
538.742	520
539.165	510.4
539.566	510.4
539.989	508.8
540.391	512.6
540.814	515.2
541.216	524
541.639	512.4
542.041	516.8
542.464	517.2
542.866	515.8
543.268	498.2
543.691	514.4
544.093	518
544.517	532.8
544.919	510.8
545.343	532.4
545.745	512
546.147	517.6
546.571	513.2
546.974	505
547.398	514.2
547.8	528.4
548.224	515.6
548.627	507
549.03	517.2
549.454	509.2
549.857	510.2
550.281	513.2
550.684	514.6
551.087	517.6
551.512	515.8
551.915	513
552.34	514.8
552.743	515
553.146	511.2
553.571	513
553.975	529.8
554.399	504.8
554.803	546.6
555.207	507.8
555.632	505.2
556.036	515
556.461	505.4
556.865	517.6
557.268	503.8
557.694	511.8
558.098	517.6
558.502	516.8
558.927	508.8
559.332	517.2
559.736	517
560.162	510.6
560.566	504.4
560.992	517.4
561.396	509.8
561.801	514
562.227	513.6
562.631	509.2
563.036	512.8
563.462	518
563.867	515
564.272	503.8
564.698	511.4
565.103	503
565.508	524.8
565.935	515.4
566.34	513.8
566.745	520.6
567.172	508.8
567.577	529.4
567.982	517.6
568.409	509.4
568.815	509.8
569.22	507.4
569.626	518
570.053	504.4
570.459	507
570.865	514.2
571.292	514.4
571.698	510.6
572.104	500.6
572.531	510
572.937	524
573.343	508.6
573.75	506.6
574.177	511.4
574.583	526.2
574.99	504.2
575.396	523
575.824	511.8
576.231	519
576.637	504.6
577.065	538.8
577.472	507.4
577.879	522.4
578.286	529.8
578.714	503.6
579.121	508.6
579.528	511.4
579.935	524
580.364	508.2
580.771	503.6
581.178	505
581.585	513.8
582.014	515.2
582.421	507
582.829	511
583.236	519
583.644	498.6
584.073	512.4
584.481	514.6
584.889	503.2
585.296	519
585.726	521.2
586.134	501.6
586.542	513.6
586.95	529.8
587.358	499.6
587.787	520
588.196	508.6
588.604	504
589.012	514.8
589.421	513.2
589.851	505.6
590.259	530
590.668	509.4
591.076	552.4
591.485	503
591.894	507.4
592.324	524.2
592.733	516.4
593.142	506
593.551	516
593.96	519.6
594.369	507.2
594.8	509.2
595.209	519.8
595.618	498.4
596.028	515.6
596.437	510.6
596.847	515.8
597.256	512.2
597.687	518.8
598.097	515.8
598.507	508.8
598.917	523.8
599.327	523.2
599.736	527.2
600.146	528
600.556	519.8
600.988	527
601.398	519.4
601.808	536.6
602.219	510.8
602.629	539.6
603.039	521.8
603.45	550.6
603.86	524.6
604.271	539.6
604.703	533.2
605.114	526.6
605.525	531.2
605.935	541.6
606.346	558
606.757	529.6
607.168	539.6
607.579	539.4
607.99	555.6
608.402	537.4
608.813	542.8
609.224	543.2
609.636	534.6
610.047	542.6
610.48	549
610.892	556.2
611.303	558.8
611.715	565
612.127	547.6
612.539	555.4
612.95	571
613.362	553.2
613.774	553
614.186	548.8
614.599	561.6
615.011	558
615.423	559.8
615.835	562.8
616.248	556.4
616.66	581.2
617.073	566.8
617.485	566.8
617.898	580.6
618.311	584.8
618.723	578
619.136	597
619.549	587
619.962	589.8
620.375	574.8
620.788	585.6
621.201	575.8
621.614	595
622.028	577.4
622.441	590.4
622.854	595
623.268	578
623.681	593.2
624.095	588.2
624.509	591
624.922	586.4
625.336	576.8
625.728	581.2
626.142	592
626.556	606.2
626.97	590.2
627.384	586.2
627.799	587.6
628.213	595.8
628.627	581.4
629.041	580.4
629.456	582
629.87	589.6
630.285	597.4
630.699	591.4
631.093	576.2
631.507	584
631.922	588.8
632.337	591.4
632.752	571.6
633.167	580.2
633.582	583
633.997	577.8
634.412	575.6
634.806	579.6
635.221	564
635.637	588.2
636.052	564.2
636.468	573
636.883	586.2
637.299	572.8
637.715	555.8
638.109	572.4
638.525	566.2
638.941	578.6
639.357	578.2
639.773	577.8
640.189	567.4
640.584	578
641	570.2
641.416	560.2
641.832	554.4
642.249	558.2
642.665	555.2
643.06	569
643.477	566.8
643.894	548.4
644.31	558.4
644.727	555.6
645.123	548.2
645.54	544.2
645.957	555
646.374	572
646.77	553.4
647.187	576.2
647.604	547.6
648.021	542.4
648.439	538.4
648.835	532.2
649.252	545.4
649.67	548.4
650.088	543
650.484	550.6
650.902	552.4
651.32	543.2
651.738	546.2
652.134	542.6
652.552	552.4
652.971	534.8
653.389	533.2
653.786	547.4
654.204	540.2
654.622	527.4
655.019	536.2
655.438	529.4
655.857	534.6
656.275	539.6
656.673	522.6
657.091	534.4
657.51	524
657.908	536.4
658.327	542.8
658.746	515.4
659.144	528.2
659.563	535
659.982	530.4
660.38	526.4
660.8	519.2
661.219	537.4
661.617	531
662.037	523
662.457	538.2
662.855	515.6
663.275	547.4
663.695	525.8
664.094	525.6
664.514	524.6
664.934	515
665.333	530
665.753	519.8
666.152	514.2
666.572	520
666.993	523.6
667.392	510.2
667.812	518.6
668.212	514.8
668.632	527.8
669.053	511.6
669.453	528
669.874	516.6
670.273	522.6
670.694	511.2
671.116	525.4
671.515	521.4
671.937	507.8
672.337	518
672.758	514.8
673.158	519.4
673.58	508
673.98	513.8
674.402	520.2
674.824	511.2
675.224	507.6
675.646	507.4
676.047	503.8
676.469	515.6
676.869	521.4
677.292	523.4
677.693	513.6
678.115	515.8
678.516	514.8
678.939	506.8
679.34	508.6
679.762	523.2
680.164	519.2
680.586	509.8
680.988	512.4
681.411	526
681.812	509.6
682.236	507.2
682.637	500.4
683.061	503.4
683.462	513.4
683.864	506.2
684.288	510.6
684.69	503.8
685.114	519.6
685.516	522.4
685.94	498.4
686.342	525.8
686.766	506.8
687.168	516.2
687.571	525.2
687.995	509.2
688.398	506.6
688.822	500.8
689.225	520
689.628	521.6
690.052	506.2
690.456	515.4
690.88	512.6
691.284	501.2
691.687	517.4
692.112	502
692.515	504.4
692.919	510
693.344	506.8
693.747	510
694.173	501.8
694.577	510.2
694.98	505.4
695.406	503.2
695.81	508.6
696.214	511.8
696.64	510.8
697.044	508.8
697.448	515.2
697.874	506.8
698.279	505.8
698.684	496.4
699.11	497.4
699.514	503.6
699.919	505.8
700.324	504
700.75	502.6
701.156	511.8
701.561	509
701.987	504
702.393	511
702.798	513.8
703.203	504.4
703.63	491
704.036	502.4
704.442	504.2
704.847	499.2
705.274	492.8
705.68	503.4
706.086	509.2
706.492	493.4
706.92	501
707.326	516
707.732	503.6
708.139	498.6
708.545	504.6
708.973	501.6
709.38	510
709.786	488.8
710.193	515.2
710.6	508.8
711.028	495.2
711.435	500.4
711.842	508.2
712.249	506
712.656	508
713.064	507.2
713.492	492.8
713.9	491.2
714.307	510.8
714.715	505.6
715.123	504.6
715.53	500.8
715.938	511.2
716.367	502.8
716.775	501.4
717.184	494.2
717.592	499.6
718	511.8
718.408	531.4
718.816	540.8
719.225	506
719.633	500.4
720.042	494.2
720.472	495.4
720.881	516.2
721.29	506.4
721.699	494.4
722.108	513.8
722.517	504.4
722.926	497.4
723.335	507.6
723.744	501.8
724.154	513.8
724.563	503.8
724.973	504
725.382	500.2
725.792	504
726.202	492.8
726.612	511.2
727.022	502.4
727.432	489
779.813	499.4
780.223	537
780.634	501.6
781.044	497
781.454	497.8
781.865	506.6
782.276	495
782.686	506.6
783.097	492.2
783.508	500.4
783.919	501.8
784.33	512.8
784.741	513.4
785.152	498
785.563	494.8
785.974	499.2
786.386	523.4
786.776	499.6
787.188	508.4
787.599	491.4
788.011	508.6
788.423	503.4
788.835	496
789.247	508.4
789.659	505.8
790.071	499.4
790.483	539.4
790.874	500.2
791.286	509.8
791.699	495.4
792.111	498.4
792.524	508.2
792.937	497.4
793.349	494.4
793.741	495.6
794.154	499.2
794.567	515
794.98	506.8
795.393	491
795.785	515
796.198	500
796.612	502.4
797.026	499.4
797.439	489
797.831	494.4
798.245	499.4
798.659	494.2
799.073	498.2
799.487	501.4
799.88	505.6
800.294	501.6
800.708	501.4
801.123	496
801.516	517.8
801.93	485.6
802.345	490.8
802.76	501.8
803.153	511.6
803.568	507
803.983	499.8
804.377	497.4
804.792	487.6
805.207	490.4
805.601	499.8
806.016	528.6
806.432	489.4
806.826	529
807.242	517
807.658	507.2
808.052	499.4
808.468	502.8
808.884	499.2
809.279	501.4
809.695	513.4
810.111	514.4
810.506	508
810.922	511.6
811.339	500.2
811.734	500.8
812.151	502.8
812.546	501.6
812.963	496.4
813.38	499.2
813.776	497.6
814.193	520.6
814.589	488.8
815.006	492.4
815.402	495.2
815.82	496
816.237	500.8
816.633	500.4
817.051	492.8
817.448	500
817.866	491
818.262	516.8
818.68	495.4
819.077	493.4
819.495	499.8
819.892	525
820.311	490
820.708	500
821.127	499
821.524	509
821.943	507.6
822.34	512.4
822.759	503.6
823.157	504
823.576	507.2
823.974	501
824.393	558.4
824.791	498
825.189	495.8
825.609	506
826.007	502.6
826.427	494.2
826.826	496.8
827.246	505.2
827.644	484
828.043	508.6
828.463	491
828.862	501.8
829.261	504.6
829.682	496.4
830.081	496.4
830.502	494.6
830.901	497.6
831.301	495.2
831.722	488.2
832.121	506
832.521	492.6
832.943	498
833.342	505.2
833.742	486.8
834.164	485.8
834.564	494.2
834.965	500.6
835.386	491.8
835.787	498.8
836.188	502
836.588	502.6
837.01	497.6
837.411	495.2
837.812	501.6
838.213	506.8
838.636	497
839.037	550.8
839.438	500
839.84	500.4
840.263	502.2
840.664	506.4
841.066	495.2
841.468	506
841.891	492.8
842.293	510.6
842.695	505.2
843.098	502.2
843.5	497.2
843.902	507
844.326	504.2
844.729	505
845.131	511.6
845.534	496.2
845.937	507.2
846.34	511.6
846.764	496.6
847.167	503
847.571	489.2
847.974	494.8
848.377	489.2
848.781	539.4
849.184	518
849.588	497
849.992	492.6
850.396	495.8
850.821	504.8
851.225	502.2
851.63	494
852.034	507
852.438	497
852.843	525.4
853.247	488.6
853.652	490.8
854.057	514.4
854.462	494
854.867	497.8
855.272	521.8
855.677	504
856.082	495.8
