#lambda/nm	C1
208.295	465.6
208.67	432.6
209.045	395.4
209.419	402.6
209.794	540
210.169	527.6
210.544	627.4
210.919	537.6
211.295	531.2
211.67	533.2
212.045	530.2
212.421	539.2
212.796	559.4
213.172	535.8
213.547	534.2
213.923	535.6
214.299	533.8
214.675	544
215.051	543.2
215.427	544.2
215.803	550.2
216.179	534.2
216.555	531.2
216.932	542.6
217.308	537.2
217.684	543
218.061	550.4
218.438	543.2
218.814	530
219.191	545
219.568	531.6
219.945	533
220.322	537
220.699	543
221.076	547
221.453	541.6
221.83	523.2
222.208	534.2
222.585	532
222.962	540
223.34	538
223.717	537.4
224.095	526
224.473	534.2
224.851	530
225.229	523
225.607	554
225.985	534.8
226.363	529.8
226.741	540.2
227.119	541.4
227.497	542.2
227.876	529
228.254	542.8
228.633	537.8
229.011	546.2
229.39	544.2
229.769	541.6
230.148	549
230.527	557
230.905	538
231.284	546.2
231.664	540.8
232.043	551.2
232.422	550.4
232.801	527.6
233.181	534.8
233.56	539.8
233.94	532
234.319	532
234.699	539
235.079	562.8
235.458	569.4
235.838	552.2
236.218	529.4
236.598	532.8
236.978	538.4
237.358	527.8
237.738	535
238.119	540
238.499	531.6
238.88	539.8
239.26	547
239.641	531
240.021	539
240.402	538.8
240.783	532.8
241.163	539.6
241.544	547.2
241.925	542.6
242.306	558.4
242.687	533.8
243.069	537.2
243.45	550.8
243.831	531.2
244.212	531.2
244.594	567.6
244.975	552
245.357	533.6
245.739	524.6
246.12	535.4
246.502	548.8
246.884	536.8
247.266	534.6
247.648	531.6
248.03	549.6
248.412	536
248.794	533.2
249.176	526.6
249.559	540.2
249.941	523.2
250.323	523
250.706	533.6
251.089	532.4
251.471	538
251.854	536.2
252.237	536.2
252.62	545.8
253.002	537.2
253.385	536.8
253.769	546.4
254.152	535.4
254.535	544.8
254.918	531
255.301	533.2
255.685	532
256.068	532.6
256.452	547.6
256.835	537
257.219	539
257.603	549.2
257.986	526.2
258.37	524.4
258.754	531.4
259.138	548.2
259.522	541.8
259.906	532.2
260.29	532.6
260.675	528.6
261.059	530.2
261.443	519.2
261.828	538.4
262.212	534
262.597	529.8
262.981	537.6
263.366	542.8
263.751	538.6
264.136	536
264.521	531.6
264.906	526.6
265.291	547.4
265.676	532
266.061	543.2
266.446	561
266.831	534.4
267.217	552.2
267.602	540.4
267.987	532
268.373	533.4
268.759	543.2
269.144	545.8
269.53	543.4
269.916	529.6
270.302	536.6
270.688	542.8
271.074	540.6
271.46	543
271.846	561.4
272.232	537.2
272.618	535
273.004	535.2
273.391	542.8
273.777	546.4
274.164	535.6
274.55	553.4
274.937	531.6
275.324	540
275.71	544.6
276.097	535
276.484	528.4
276.871	537
277.258	536.8
277.645	525.2
278.032	538.4
278.419	530.2
278.807	539.4
279.194	532.2
279.581	538.8
279.969	535.8
280.356	537
280.744	540.8
281.131	549.8
281.519	550.4
281.907	532.4
282.295	531.4
282.682	547.8
283.07	547.6
283.458	542.4
283.846	537.4
284.235	544.8
284.623	550.4
285.011	529.4
285.399	544.8
285.788	531.4
286.176	527.8
286.565	545.2
286.953	528.4
287.342	535.4
287.731	534.6
288.119	532
288.508	539.2
288.897	536.4
289.286	527.6
289.675	539.4
290.064	551
290.453	533.8
290.821	543.4
291.21	549
291.599	540.8
291.989	539.6
292.378	542.8
292.768	549
293.157	540
293.547	545.2
293.936	530
294.326	535.8
294.716	528.6
295.106	534.6
295.496	541
295.886	540.8
296.276	535
296.666	533.6
297.056	525.6
297.446	521.2
297.836	550
298.227	535.2
298.617	540.6
299.008	548.6
299.398	538.6
299.789	533.6
300.179	544.4
300.57	544.6
300.961	530.8
301.352	534
301.742	540.8
302.133	543.4
302.524	539.6
302.915	534.8
303.307	531.8
303.698	548.6
304.089	544.8
304.48	532.6
304.872	543.8
305.263	542
305.655	540
306.046	543.8
306.438	532.8
306.829	529.2
307.221	553.8
307.613	543.2
308.005	549
308.397	549.2
308.789	554.2
309.181	555
309.573	547.8
309.965	553.2
310.357	535.4
310.749	546.8
311.142	531.2
311.534	531.8
311.926	546.4
312.319	538.6
312.711	538.6
313.104	551.2
313.497	533
313.889	575.4
314.282	558.4
314.675	559.6
315.068	537.8
315.461	553
315.854	558.2
316.247	546.8
316.64	536.8
317.033	538.6
317.405	545.2
317.798	541.4
318.192	539.6
318.585	539
318.979	546
319.372	531.2
319.766	532.4
320.16	554.8
320.553	556
320.947	555
321.341	534.6
321.735	531.2
322.129	533.2
322.523	556.2
322.917	534.2
323.311	546.6
323.705	538
324.099	548.8
324.494	549.8
324.888	546.6
325.282	536.8
325.677	550.4
326.071	548.8
326.466	551
326.861	533.8
327.255	548.4
327.65	551.8
328.045	546.8
328.44	538.4
328.835	536.6
329.23	531.2
329.625	556.6
330.02	533.2
330.415	554.8
330.81	536.2
331.206	537.6
331.601	536
331.996	545.2
332.37	561
332.766	529
333.161	558.8
333.557	529.2
333.953	535
334.348	763.2
334.744	536
335.14	532.4
335.536	529.8
335.932	546.4
336.328	541
336.724	551.6
337.12	548
337.516	541
337.913	537.4
338.309	544.8
338.705	542
339.102	552.6
339.498	529.4
339.895	544
340.291	533
340.688	539.4
341.085	528.6
341.481	535.6
341.878	534.8
342.275	549.4
342.672	521.6
343.069	529.8
343.466	524.2
343.842	544.4
344.239	527.6
344.636	534
345.033	529
345.431	529.4
345.828	536.2
346.225	523.4
346.623	563.4
347.02	534.4
347.418	540.4
347.816	547
348.213	523.6
348.611	536
349.009	528.8
349.407	540.6
349.805	523.6
350.203	516
350.601	543
350.999	523
351.397	568.2
351.795	537.8
352.193	535.8
352.57	532.4
352.969	538
353.367	522.2
353.766	522.8
354.164	532.4
354.563	536.6
354.961	535.2
355.36	521.6
355.759	531.2
356.158	525
356.557	521.6
356.956	527
357.355	519.8
357.754	527.6
358.153	536
358.552	554.6
358.951	528
359.35	539.2
359.75	526.6
360.149	523.4
360.527	516.4
360.926	521.8
361.326	531
361.726	533.4
362.125	524
362.525	537.4
362.925	533.4
363.325	531.8
363.724	536.6
364.124	531.4
364.524	523.6
364.924	529.8
365.324	548
365.725	511.4
366.125	534.4
366.525	536.2
366.904	522.4
367.304	520.2
367.705	543
368.105	540.8
368.506	529.6
368.906	525.6
369.307	532.8
369.708	531.8
370.108	521.2
370.509	544.6
370.91	526.6
371.311	531.8
371.712	526.2
372.113	526.6
372.514	521.4
372.894	531.2
373.295	521.8
373.696	539
374.097	539.2
374.499	551.2
374.9	533.4
375.301	516.2
375.703	530.4
376.105	520.8
376.506	540.6
376.908	539.8
377.309	529.4
377.711	531.6
378.113	519
378.493	530
378.895	532.2
379.297	540.6
379.699	514.6
380.102	535.8
380.504	530
380.906	523
381.308	549.6
381.71	526.2
382.113	532.4
382.515	529
382.918	537.8
383.299	533.2
383.701	537
384.104	539.4
384.507	515.4
384.909	527.4
385.312	519.2
385.715	532.6
386.118	523.8
386.521	517.2
386.924	540.2
387.327	528.8
387.709	525
388.112	517
388.515	526.4
388.918	525.8
389.322	529.6
389.725	525.6
390.129	537.6
390.532	527.2
390.936	522.4
391.339	522.4
391.743	528.4
392.125	523.6
392.529	527
392.933	538
393.337	525.6
393.74	526.2
394.144	527.6
394.548	521.4
394.953	524.6
395.357	528.2
395.761	523
396.144	528.4
396.548	526
396.952	525
397.357	527
397.761	520.6
398.166	526.8
398.57	523.8
398.975	519.6
399.379	528.8
399.763	566.8
400.168	529.6
400.572	526.2
400.977	527.4
401.382	540.4
401.787	528.4
402.192	537.2
402.597	536.4
403.002	515.2
403.386	538.2
403.791	548.4
404.197	516
404.602	527.8
405.007	518.6
405.413	528.2
405.818	525.2
406.224	524.6
406.608	525.2
407.014	522.8
407.42	544.4
407.825	532.4
408.231	527.2
408.637	530
409.043	537.2
409.449	523.8
409.834	523.8
410.24	528.8
410.646	544.4
411.052	533.8
411.458	532.8
411.865	534.8
412.271	534.4
412.677	528.6
413.062	536.2
413.469	517
413.875	544.8
414.282	542.8
414.689	535.6
415.095	534.8
415.502	525.6
415.888	533.2
416.294	521
416.701	567.4
417.108	527
417.515	534.8
417.923	527
418.33	547.8
418.715	538.4
419.123	524.6
419.53	525.2
419.937	525
420.345	547
420.752	517.4
421.16	539.6
421.546	535.4
421.953	540.8
422.361	521.2
422.769	526.8
423.177	525.6
423.585	547.6
423.992	549.8
424.379	541.2
424.787	538.8
425.195	538
425.603	530.8
426.011	548.8
426.419	542.6
426.806	528.4
427.214	530.8
427.623	541.2
428.031	542.6
428.44	536.6
428.848	540.8
429.235	541.8
429.644	533
430.053	533.4
430.461	540
430.87	552.2
431.279	534
431.666	531
432.075	535.2
432.484	530.4
432.893	529.2
433.302	540.8
433.711	565.4
434.099	536.8
434.508	527.4
434.918	525.2
435.327	540.8
435.737	531.4
436.125	539.8
436.534	526.4
436.944	527.8
437.353	536
437.763	549.6
438.173	520.8
438.561	526.2
438.971	512.6
439.381	528.4
439.791	528.8
440.201	516.8
440.589	521.4
440.999	533.4
441.409	528
441.819	515
442.23	536.6
442.619	539.8
443.029	518.6
443.439	521.4
443.85	529.8
444.26	536.4
444.649	525.2
445.06	525
445.471	522.6
445.881	527
446.292	539.6
446.682	539.2
447.092	508.2
447.503	561
447.914	526
448.325	528.2
448.715	532.2
449.126	515.6
449.537	518.2
449.948	528.6
450.338	530.8
450.75	532.4
451.161	522.2
451.572	530.6
451.984	525.2
452.374	516.2
452.786	526.8
453.197	523.4
453.609	524
453.999	515.4
454.411	521.4
454.823	528
455.235	525.8
455.647	519.4
456.037	528.6
456.449	512.6
456.862	521.6
457.274	525.2
457.665	513.6
458.077	530.2
458.489	541.6
458.902	518.6
459.293	530
459.705	522.6
460.118	521.2
460.53	523.8
460.921	521.4
461.334	527.8
461.747	524.4
462.16	537.6
462.551	532.8
462.964	534
463.377	512
463.79	521
464.182	530.8
464.595	524.8
465.008	527.2
465.421	527.8
465.813	521
466.226	525.8
466.64	525.4
467.053	554.8
467.445	537.2
467.859	540.4
468.272	525.6
468.686	530.6
469.078	518.4
469.492	515.4
469.906	517.8
470.298	528.8
470.712	515.6
471.126	545
471.54	508.6
471.933	510.6
472.347	522.8
472.761	514.2
473.175	510.6
473.568	518
473.982	517.8
474.397	527.8
474.79	519.2
475.204	527.6
475.619	520.6
476.033	528
476.426	525.8
476.841	522
477.256	540.6
477.649	513.6
478.064	511.2
478.479	519.2
478.872	516.2
479.287	504.4
479.702	519
480.118	524
480.511	516.4
480.927	525.2
481.342	522.4
481.736	523
482.151	517.4
482.566	527.6
482.96	514.6
483.376	530
483.792	516.8
484.186	524.4
484.602	519.6
485.017	522.6
485.412	514.4
485.827	516
486.243	517.2
486.638	540.2
487.054	528.2
487.47	536
487.865	521
488.281	513.4
488.697	514.4
489.092	509.6
489.508	507.6
489.925	524.6
490.32	509.4
490.736	526.8
491.153	517.2
491.548	523.8
491.964	527
492.381	509.4
492.776	523.8
493.193	518.2
493.61	524.6
494.006	517
494.422	526.6
494.84	517.6
495.235	530.4
495.652	517.2
496.069	521.8
496.465	511.6
496.883	515.8
497.3	540.4
497.696	519.4
498.113	526.2
498.509	507.2
498.927	509.6
499.344	509.6
499.741	503.2
500.158	522.2
500.576	528
500.973	529
501.39	517.8
501.787	516.2
502.205	518.8
502.623	509.6
503.02	511.6
503.438	505.4
503.856	523.2
504.253	522
504.671	524.2
505.068	508.6
505.486	519.2
505.905	530.2
506.302	513.2
506.72	525.2
507.118	512.4
507.536	520.4
507.955	514.4
508.352	516.2
508.771	526
509.169	519.6
509.587	507.8
510.006	514.6
510.404	513.4
510.823	516.2
511.221	521.4
511.64	510.4
512.038	535
512.457	511.8
512.877	513.6
513.275	524.4
513.694	508
514.092	517.4
514.512	515.6
514.91	520.4
515.33	517.4
515.749	521.6
516.148	520.8
516.568	521.6
516.966	518.8
517.386	515.8
517.785	514.4
518.205	513.2
518.603	517.8
519.024	516
519.444	526
519.843	524
520.263	531
520.662	522.8
521.082	518.6
521.481	525.6
521.902	514.8
522.301	522.2
522.722	521
523.121	511.6
523.542	510
523.963	515.2
524.362	521
524.783	515
525.183	514.4
525.604	518.2
526.003	510.8
526.425	517.2
526.824	510.6
527.246	524.2
527.646	524.2
528.067	513
528.467	519
528.888	514.4
529.289	513.2
529.71	512.4
530.11	507.4
530.532	516.2
530.932	512.4
531.354	513
531.755	554.4
532.176	519.8
532.577	512.8
532.999	508.4
533.4	512.8
533.822	522.2
534.223	520.6
534.645	512.8
535.046	510
535.468	515.8
535.869	522.2
536.292	507.4
536.693	540.4
537.115	518.8
537.516	514.6
537.939	509.8
538.34	519.8
538.742	517.6
539.165	516.4
539.566	511
539.989	502.8
540.391	510.6
540.814	504.4
541.216	512.4
541.639	514.2
542.041	512.8
542.464	506.4
542.866	512.4
543.268	501.2
543.691	517.8
544.093	514
544.517	520.8
544.919	509.4
545.343	531.4
545.745	501.6
546.147	515
546.571	505.2
546.974	506.4
547.398	514.6
547.8	527.6
548.224	515.6
548.627	510.8
549.03	518.8
549.454	510.4
549.857	499.2
550.281	511.4
550.684	507.4
551.087	514.6
551.512	509
551.915	521.6
552.34	511.2
552.743	511.6
553.146	512.4
553.571	517.8
553.975	533
554.399	517.6
554.803	555.2
555.207	511.4
555.632	514.6
556.036	515.4
556.461	504.6
556.865	512.6
557.268	512.8
557.694	508.2
558.098	512.6
558.502	515
558.927	510.4
559.332	509.4
559.736	515.8
560.162	512.2
560.566	513.2
560.992	524.2
561.396	518.2
561.801	507.6
562.227	517
562.631	515
563.036	517.2
563.462	516.8
563.867	515.2
564.272	497.8
564.698	523
565.103	505.2
565.508	525
565.935	514.6
566.34	512.6
566.745	525
567.172	507.8
567.577	531
567.982	522.4
568.409	511.6
568.815	507
569.22	515.2
569.626	517
570.053	509.2
570.459	522.4
570.865	522
571.292	523.2
571.698	520.2
572.104	510.8
572.531	520.8
572.937	511.2
573.343	511.6
573.75	516.6
574.177	525
574.583	515.8
574.99	516
575.396	522.4
575.824	512.2
576.231	516.6
576.637	506.8
577.065	533.8
577.472	509
577.879	509.2
578.286	524.4
578.714	509.6
579.121	506.8
579.528	512.4
579.935	517.4
580.364	510.4
580.771	497.8
581.178	503.4
581.585	516.2
582.014	517.6
582.421	504
582.829	507.6
583.236	524.2
583.644	504
584.073	508
584.481	515.2
584.889	506.2
585.296	512.8
585.726	519.8
586.134	504
586.542	506
586.95	528
587.358	504.6
587.787	514.2
588.196	493.4
588.604	509.2
589.012	509.2
589.421	511
589.851	509.4
590.259	518.2
590.668	503.8
591.076	539.6
591.485	505
591.894	514.8
592.324	517.4
592.733	517.2
593.142	494
593.551	500.2
593.96	513.2
594.369	507.8
594.8	510.6
595.209	510.2
595.618	494.2
596.028	511.2
596.437	505
596.847	516.8
597.256	513.8
597.687	515.8
598.097	514
598.507	511.6
598.917	513
599.327	511.2
599.736	516.6
600.146	515.8
600.556	511.4
600.988	526.8
601.398	510
601.808	520.4
602.219	505.4
602.629	516.8
603.039	519.4
603.45	541
603.86	512.6
604.271	517.2
604.703	524.2
605.114	516.8
605.525	523
605.935	524.6
606.346	539
606.757	521.2
607.168	519.8
607.579	514.6
607.99	525.2
608.402	518.4
608.813	518.8
609.224	512.4
609.636	515.4
610.047	515.4
610.48	520.4
610.892	527.4
611.303	525.8
611.715	526.6
612.127	520.4
612.539	519.4
612.95	524.4
613.362	513.8
613.774	517
614.186	516.2
614.599	522
615.011	532.2
615.423	534
615.835	526.6
616.248	518.8
616.66	526.6
617.073	513.6
617.485	522
617.898	534.4
618.311	526.8
618.723	537.8
619.136	555.2
619.549	549.6
619.962	553.6
620.375	530.8
620.788	535.6
621.201	521.6
621.614	540.8
622.028	533.2
622.441	539.4
622.854	544.8
623.268	531
623.681	533.4
624.095	536.6
624.509	548.2
624.922	542.6
625.336	529
625.728	547.4
626.142	548.6
626.556	552.6
626.97	541.2
627.384	538.8
627.799	543.2
628.213	549.6
628.627	541.4
629.041	537.4
629.456	541.2
629.87	537.4
630.285	540
630.699	549.2
631.093	541.8
631.507	551
631.922	539.4
632.337	548
632.752	533.6
633.167	545.6
633.582	538.6
633.997	536.2
634.412	529.6
634.806	541.2
635.221	535.2
635.637	544.6
636.052	534.6
636.468	537.6
636.883	562.6
637.299	529.2
637.715	532
638.109	536.4
638.525	529.4
638.941	541.4
639.357	536
639.773	544.6
640.189	528.6
640.584	533
641	537.2
641.416	529.2
641.832	532.8
642.249	530.6
642.665	537.8
643.06	539.8
643.477	547
643.894	522.8
644.31	527.8
644.727	532.8
645.123	532.4
645.54	525.8
645.957	526.4
646.374	542.6
646.77	528.8
647.187	552.4
647.604	530.2
648.021	518.2
648.439	519.6
648.835	532.6
649.252	528.4
649.67	522.2
650.088	527.6
650.484	525.8
650.902	531.6
651.32	526
651.738	519
652.134	529.6
652.552	546.6
652.971	528.6
653.389	527.4
653.786	525.6
654.204	530.8
654.622	518.8
655.019	529
655.438	525.8
655.857	530.8
656.275	525.6
656.673	521.6
657.091	536.8
657.51	526.2
657.908	531.4
658.327	533.6
658.746	508.6
659.144	519
659.563	526.8
659.982	523.8
660.38	512.2
660.8	525.6
661.219	528
661.617	517.6
662.037	519.4
662.457	528.6
662.855	503.2
663.275	539
663.695	513.6
664.094	512.4
664.514	520
664.934	506
665.333	532
665.753	510.4
666.152	509.6
666.572	510.2
666.993	526.8
667.392	511.8
667.812	513.8
668.212	519.4
668.632	520.8
669.053	517.4
669.453	523.6
669.874	512.2
670.273	517.6
670.694	512.6
671.116	520.8
671.515	517.8
671.937	515.6
672.337	511.2
672.758	502
673.158	510.6
673.58	506
673.98	519.6
674.402	517.8
674.824	517.4
675.224	512
675.646	506.6
676.047	511.6
676.469	515
676.869	519
677.292	514.8
677.693	510.4
678.115	518
678.516	510.2
678.939	511.4
679.34	510.6
679.762	529
680.164	517.2
680.586	506.2
680.988	516.4
681.411	532
681.812	505.6
682.236	505.6
682.637	503.8
683.061	496.6
683.462	515.4
683.864	508.2
684.288	507.6
684.69	501.6
685.114	515
685.516	515
685.94	500.6
686.342	518.6
686.766	508.6
687.168	503
687.571	520
687.995	496
688.398	507.2
688.822	499.6
689.225	529
689.628	531.6
690.052	514.2
690.456	510.8
690.88	504.8
691.284	509.2
691.687	513.8
692.112	503.2
692.515	505.2
692.919	503
693.344	504.2
693.747	503
694.173	510.4
694.577	513.4
694.98	509.2
695.406	511.8
695.81	502.6
696.214	509
696.64	510.8
697.044	514.4
697.448	518.8
697.874	510.2
698.279	521.6
698.684	493
699.11	502.2
699.514	508.4
699.919	511.6
700.324	498.8
700.75	504.2
701.156	501
701.561	519
701.987	508
702.393	513.4
702.798	520
703.203	502.2
703.63	506.8
704.036	501.4
704.442	506.6
704.847	495.4
705.274	502.6
705.68	513.2
706.086	515
706.492	504.8
706.92	512.2
707.326	515
707.732	505.6
708.139	498.2
708.545	502.4
708.973	499
709.38	507.4
709.786	500.6
710.193	517.8
710.6	511.4
711.028	501.6
711.435	502.2
711.842	513.2
712.249	502.6
712.656	513
713.064	514.2
713.492	499.8
713.9	497.8
714.307	506.6
714.715	502.2
715.123	504.6
715.53	510.2
715.938	519.2
716.367	508
716.775	510
717.184	500
717.592	498.4
718	514.6
718.408	533.6
718.816	540.8
719.225	510
719.633	507.6
720.042	500.8
720.472	508.4
720.881	525.6
721.29	516.8
721.699	493.4
722.108	512
722.517	505.8
722.926	498.2
723.335	522.2
723.744	506.6
724.154	503
724.563	513.8
724.973	508
725.382	500.8
725.792	509.4
726.202	502.4
726.612	517.2
727.022	503.2
727.432	497.8
779.813	498.4
780.223	541.8
780.634	498.2
781.044	506.8
781.454	507.2
781.865	515.6
782.276	497
782.686	515.6
783.097	504.6
783.508	496
783.919	506.6
784.33	504.6
784.741	512.6
785.152	498.4
785.563	493.6
785.974	496.2
786.386	505.2
786.776	498.4
787.188	493.2
787.599	497
788.011	513.4
788.423	502.4
788.835	506.8
789.247	495.6
789.659	499.6
790.071	496.2
790.483	537.8
790.874	503.8
791.286	505.2
791.699	497.4
792.111	504.2
792.524	507.2
792.937	502.6
793.349	499.4
793.741	490
794.154	491.4
794.567	517.6
794.98	496.8
795.393	490.4
795.785	516.6
796.198	500.6
796.612	501
797.026	497.4
797.439	489.2
797.831	498
798.245	490
798.659	502.2
799.073	498
799.487	494.2
799.88	507.8
800.294	506
800.708	511.8
801.123	503.2
801.516	514.4
801.93	491.4
802.345	494.4
802.76	499.4
803.153	514.2
803.568	512.6
803.983	506.2
804.377	508.4
804.792	493.2
805.207	500.2
805.601	499.6
806.016	527.2
806.432	499.2
806.826	520.6
807.242	518
807.658	505.6
808.052	495.4
808.468	501.2
808.884	498.4
809.279	497.6
809.695	508.4
810.111	511.6
810.506	501.8
810.922	515.4
811.339	498.4
811.734	506.6
812.151	496.8
812.546	500.8
812.963	492
813.38	502.4
813.776	502
814.193	517.4
814.589	497.2
815.006	500.4
815.402	502.4
815.82	505.2
816.237	494.8
816.633	505.8
817.051	504
817.448	498.4
817.866	501.4
818.262	519.8
818.68	496
819.077	498.6
819.495	504.8
819.892	536.8
820.311	500.8
820.708	501.4
821.127	493
821.524	506.6
821.943	504.8
822.34	515
822.759	497.8
823.157	497.2
823.576	517.4
823.974	510.4
824.393	563.2
824.791	498.4
825.189	499.2
825.609	498.2
826.007	505
826.427	494.4
826.826	500.2
827.246	500.4
827.644	491.4
828.043	509.2
828.463	501.6
828.862	504.8
829.261	498.8
829.682	490.6
830.081	511.4
830.502	490.8
830.901	506
831.301	499
831.722	498.6
832.121	497
832.521	496.4
832.943	498.8
833.342	504.2
833.742	488.2
834.164	496.8
834.564	494.8
834.965	500.8
835.386	497.2
835.787	496.8
836.188	497.4
836.588	501.2
837.01	505.4
837.411	499.2
837.812	509
838.213	505.8
838.636	502.4
839.037	558.6
839.438	499.2
839.84	496.2
840.263	509.8
840.664	500.8
841.066	496.2
841.468	504
841.891	500.8
842.293	510.6
842.695	509.6
843.098	510.4
843.5	500.6
843.902	511.8
844.326	506.8
844.729	515.2
845.131	512.6
845.534	500.6
845.937	514
846.34	514
846.764	499.2
847.167	495.2
847.571	495
847.974	496.6
848.377	500.2
848.781	543.4
849.184	513.8
849.588	500.6
849.992	497.6
850.396	501.2
850.821	521.4
851.225	505.6
851.63	509.8
852.034	515.4
852.438	502
852.843	562.8
853.247	497.6
853.652	490.4
854.057	516.2
854.462	505.8
854.867	496.4
855.272	524
855.677	504.2
856.082	499.4
