#lambda/nm	C1
208.295	463
208.67	430
209.045	398.2
209.419	399.8
209.794	529.8
210.169	518.4
210.544	623.2
210.919	536.2
211.295	531.4
211.67	533
212.045	531.4
212.421	532.4
212.796	557.8
213.172	523.2
213.547	525.8
213.923	524.6
214.299	532.6
214.675	532.2
215.051	534
215.427	538.8
215.803	540
216.179	543.6
216.555	529.6
216.932	540.6
217.308	535.2
217.684	534.8
218.061	540.6
218.438	530.6
218.814	532
219.191	541.4
219.568	530.2
219.945	530.4
220.322	547
220.699	535.6
221.076	542
221.453	537.6
221.83	532.6
222.208	528.2
222.585	533.2
222.962	538.4
223.34	538.4
223.717	534.2
224.095	532.8
224.473	531.4
224.851	525.2
225.229	527.8
225.607	549
225.985	527
226.363	537.4
226.741	530.4
227.119	529
227.497	538.8
227.876	520.8
228.254	538.4
228.633	543
229.011	536
229.39	537.4
229.769	542.4
230.148	536.8
230.527	552.2
230.905	542.8
231.284	540.6
231.664	536.2
232.043	547.8
232.422	539.6
232.801	535
233.181	539.6
233.56	527.8
233.94	534.8
234.319	522.6
234.699	531.2
235.079	575.4
235.458	576.2
235.838	547.2
236.218	520.8
236.598	530
236.978	532.2
237.358	534.6
237.738	534.8
238.119	540.4
238.499	520.4
238.88	532.2
239.26	545.2
239.641	521.4
240.021	529.6
240.402	530.8
240.783	531.6
241.163	537.8
241.544	539
241.925	533.6
242.306	549.4
242.687	533
243.069	535.8
243.45	541.4
243.831	532.6
244.212	540.6
244.594	564.2
244.975	541.2
245.357	536.2
245.739	529.8
246.12	529.2
246.502	543
246.884	531.6
247.266	524.2
247.648	539.6
248.03	548
248.412	533.4
248.794	536.4
249.176	534.2
249.559	543.4
249.941	519.6
250.323	514
250.706	523.4
251.089	530.8
251.471	533.8
251.854	535.2
252.237	521.2
252.62	532
253.002	530
253.385	535.4
253.769	546.8
254.152	538.2
254.535	540.8
254.918	529.2
255.301	522.4
255.685	532.4
256.068	531.8
256.452	550.6
256.835	541.2
257.219	540.4
257.603	549.4
257.986	539.8
258.37	547.2
258.754	526.6
259.138	540.6
259.522	535
259.906	537.8
260.29	536.6
260.675	527
261.059	536.8
261.443	521.6
261.828	536.2
262.212	538.2
262.597	521.8
262.981	528
263.366	536.4
263.751	531.4
264.136	532.4
264.521	539.2
264.906	530.4
265.291	539
265.676	529.6
266.061	540.4
266.446	553.8
266.831	529.4
267.217	542
267.602	539.8
267.987	532.4
268.373	529.8
268.759	535
269.144	538.2
269.53	536.6
269.916	532.6
270.302	536.4
270.688	542
271.074	542.2
271.46	548.2
271.846	562.6
272.232	532
272.618	532.2
273.004	541
273.391	541
273.777	548.6
274.164	531.6
274.55	546.4
274.937	533.8
275.324	530
275.71	545
276.097	536.8
276.484	532.6
276.871	529.2
277.258	539.6
277.645	529.4
278.032	535.4
278.419	535.6
278.807	533.6
279.194	524.6
279.581	524.2
279.969	538
280.356	534.8
280.744	545
281.131	553.2
281.519	542.6
281.907	531
282.295	531.8
282.682	541.6
283.07	534.6
283.458	548
283.846	547.6
284.235	546.2
284.623	541.8
285.011	528.2
285.399	538.6
285.788	535.2
286.176	531.4
286.565	542.2
286.953	533.2
287.342	537
287.731	528.6
288.119	530.6
288.508	530
288.897	532.2
289.286	526.4
289.675	535.4
290.064	538.4
290.453	526.8
290.821	535.4
291.21	546.6
291.599	523.6
291.989	528
292.378	535.8
292.768	547.6
293.157	534.8
293.547	534.6
293.936	527.8
294.326	534.6
294.716	530.4
295.106	526.8
295.496	539.4
295.886	541.8
296.276	536.8
296.666	532.2
297.056	534.2
297.446	520.6
297.836	549
298.227	530.2
298.617	537.6
299.008	546
299.398	531
299.789	528.6
300.179	536.4
300.57	551
300.961	535.2
301.352	536.2
301.742	547.4
302.133	529.4
302.524	533.8
302.915	535.8
303.307	528
303.698	548
304.089	536.4
304.48	531.8
304.872	538.2
305.263	534.6
305.655	526.2
306.046	544.6
306.438	535
306.829	536.6
307.221	544.2
307.613	532.6
308.005	534.2
308.397	545
308.789	546
309.181	550.2
309.573	550
309.965	541.4
310.357	531.2
310.749	542.6
311.142	531.6
311.534	523.8
311.926	534.6
312.319	527.4
312.711	521.4
313.104	548.6
313.497	526.8
313.889	555
314.282	540
314.675	554.6
315.068	532.8
315.461	538.6
315.854	555.6
316.247	537.6
316.64	535.2
317.033	529
317.405	538.6
317.798	538.8
318.192	535.2
318.585	531.8
318.979	528.4
319.372	530.6
319.766	530.6
320.16	535
320.553	538.6
320.947	542
321.341	529.4
321.735	528.2
322.129	521.6
322.523	561.8
322.917	524.6
323.311	543.8
323.705	532.6
324.099	541.6
324.494	549
324.888	540.2
325.282	536.4
325.677	547.4
326.071	543.8
326.466	544.6
326.861	537
327.255	544.4
327.65	547.2
328.045	546.2
328.44	529.6
328.835	533
329.23	533.8
329.625	559.6
330.02	533.8
330.415	552
330.81	532.2
331.206	544.8
331.601	531.2
331.996	541
332.37	550.8
332.766	521.2
333.161	551.8
333.557	536.2
333.953	539
334.348	803.6
334.744	537.6
335.14	524.2
335.536	533
335.932	545.2
336.328	530.6
336.724	542.6
337.12	541.2
337.516	540.8
337.913	538
338.309	551.2
338.705	529.2
339.102	532.4
339.498	531.4
339.895	544.2
340.291	527.8
340.688	538.6
341.085	528.6
341.481	528.2
341.878	532.8
342.275	551
342.672	524.6
343.069	525.6
343.466	520.4
343.842	533.6
344.239	521.8
344.636	524.6
345.033	531.6
345.431	525
345.828	531
346.225	520.2
346.623	558.8
347.02	532.8
347.418	536.6
347.816	541.8
348.213	523
348.611	527.6
349.009	528.8
349.407	544.6
349.805	518.6
350.203	522
350.601	530
350.999	531.8
351.397	584.8
351.795	527
352.193	532.6
352.57	545.4
352.969	541.4
353.367	527.8
353.766	528.4
354.164	530.4
354.563	541.6
354.961	529.6
355.36	522.6
355.759	530.2
356.158	521.6
356.557	523.4
356.956	529
357.355	517.8
357.754	535.4
358.153	539
358.552	542.4
358.951	523
359.35	541.6
359.75	517.8
360.149	523.4
360.527	514.6
360.926	520.8
361.326	534.8
361.726	532.2
362.125	530.4
362.525	536.4
362.925	531.4
363.325	521.8
363.724	534.2
364.124	524.2
364.524	523.6
364.924	533.4
365.324	543
365.725	518.4
366.125	527.8
366.525	521.8
366.904	528.6
367.304	517.8
367.705	547.4
368.105	538.6
368.506	523.6
368.906	527.6
369.307	527.2
369.708	537
370.108	520.6
370.509	533.2
370.91	526
371.311	531
371.712	532
372.113	526.6
372.514	519.4
372.894	526.4
373.295	520.4
373.696	536.8
374.097	543.4
374.499	550.8
374.9	528
375.301	529
375.703	528.2
376.105	520.4
376.506	531.2
376.908	525
377.309	522.6
377.711	532.6
378.113	529.2
378.493	522.8
378.895	529.8
379.297	535.4
379.699	524.2
380.102	535.6
380.504	524.8
380.906	519.6
381.308	552.2
381.71	527.4
382.113	532.8
382.515	524.8
382.918	523.8
383.299	523
383.701	532.4
384.104	529
384.507	513
384.909	524.6
385.312	518.2
385.715	513.8
386.118	522.4
386.521	514.4
386.924	531
387.327	525.8
387.709	519.2
388.112	514.8
388.515	525.6
388.918	515.6
389.322	535.6
389.725	521
390.129	539.4
390.532	522.4
390.936	519.4
391.339	518.2
391.743	530.6
392.125	511
392.529	535.4
392.933	531.8
393.337	523.4
393.74	522
394.144	529.8
394.548	522.8
394.953	523.8
395.357	527.4
395.761	516.2
396.144	531.4
396.548	525.4
396.952	527.4
397.357	528
397.761	520.4
398.166	518.4
398.57	527
398.975	521.6
399.379	525
399.763	566.6
400.168	526.6
400.572	527.8
400.977	522.6
401.382	539.8
401.787	532.2
402.192	546
402.597	542.4
403.002	514.2
403.386	535
403.791	544.4
404.197	527.4
404.602	524.2
405.007	531
405.413	523.8
405.818	531.6
406.224	519.6
406.608	522.2
407.014	519.4
407.42	530.6
407.825	519.2
408.231	523.4
408.637	527.6
409.043	532.4
409.449	522.6
409.834	520
410.24	530.6
410.646	521.4
411.052	528.4
411.458	526.8
411.865	526.6
412.271	531
412.677	526
413.062	524
413.469	515.4
413.875	545.6
414.282	533.6
414.689	524
415.095	532.4
415.502	518.6
415.888	530.8
416.294	516.8
416.701	563
417.108	522.6
417.515	531.6
417.923	524.8
418.33	551.4
418.715	537.6
419.123	516
419.53	519.4
419.937	526.4
420.345	540.4
420.752	525.6
421.16	539
421.546	521.4
421.953	532.2
422.361	520
422.769	531.2
423.177	522.4
423.585	548.4
423.992	546.2
424.379	535.2
424.787	535.2
425.195	541.6
425.603	528.8
426.011	535.6
426.419	542.6
426.806	528.2
427.214	537.4
427.623	536
428.031	542.4
428.44	527.2
428.848	540.8
429.235	545.8
429.644	523.6
430.053	523.6
430.461	549.2
430.87	544.2
431.279	540.4
431.666	527
432.075	529.2
432.484	531.6
432.893	521.4
433.302	532.4
433.711	566.8
434.099	530.2
434.508	534.8
434.918	521.2
435.327	538.4
435.737	531.4
436.125	526
436.534	528.4
436.944	535
437.353	525.4
437.763	537.8
438.173	515.4
438.561	528.8
438.971	512.6
439.381	521.8
439.791	522
440.201	510.8
440.589	522.2
440.999	524.8
441.409	526.4
441.819	513.6
442.23	520.4
442.619	531.8
443.029	516.8
443.439	524.2
443.85	537.8
444.26	537.8
444.649	535.2
445.06	519.6
445.471	515.8
445.881	524.4
446.292	533
446.682	541
447.092	506.2
447.503	558.6
447.914	525
448.325	524.6
448.715	526.8
449.126	515.8
449.537	527
449.948	523.6
450.338	522
450.75	531.2
451.161	525.2
451.572	526.6
451.984	520.4
452.374	514.6
452.786	522.2
453.197	519.8
453.609	529.2
453.999	517.8
454.411	519.2
454.823	526
455.235	525.2
455.647	526.6
456.037	523.4
456.449	518.4
456.862	522.6
457.274	531
457.665	520.8
458.077	521.4
458.489	546.8
458.902	519.8
459.293	529
459.705	526.2
460.118	519.2
460.53	528.6
460.921	524
461.334	525.4
461.747	523.6
462.16	532.2
462.551	531.4
462.964	525.2
463.377	504.6
463.79	521.8
464.182	527.2
464.595	516.6
465.008	532.4
465.421	529
465.813	520.6
466.226	529.4
466.64	517.2
467.053	562.8
467.445	529.4
467.859	533.2
468.272	523.4
468.686	534.8
469.078	527.4
469.492	518.2
469.906	521.4
470.298	529.4
470.712	513.8
471.126	554.2
471.54	516.6
471.933	517
472.347	526.2
472.761	522.4
473.175	512.8
473.568	516.4
473.982	513.2
474.397	522.2
474.79	517.8
475.204	523.2
475.619	519.8
476.033	521.6
476.426	516.4
476.841	519
477.256	541.6
477.649	511.4
478.064	520.2
478.479	515.4
478.872	521.2
479.287	514.6
479.702	508.6
480.118	516.6
480.511	526
480.927	521.2
481.342	520.6
481.736	517.4
482.151	512.2
482.566	528
482.96	527.6
483.376	534
483.792	513.8
484.186	526.2
484.602	515.4
485.017	523.4
485.412	513.2
485.827	517.6
486.243	517.4
486.638	536.8
487.054	519
487.47	528.4
487.865	515.6
488.281	509.6
488.697	511.8
489.092	517
489.508	515.8
489.925	527
490.32	506.6
490.736	520.8
491.153	521.2
491.548	520.2
491.964	515.8
492.381	507.8
492.776	518.8
493.193	515.6
493.61	532.6
494.006	521.4
494.422	516.6
494.84	508.4
495.235	523.6
495.652	522.6
496.069	518.6
496.465	509.6
496.883	512
497.3	530
497.696	518.4
498.113	522.4
498.509	512.8
498.927	517
499.344	514.4
499.741	508.6
500.158	519.4
500.576	527.2
500.973	514.4
501.39	506.6
501.787	510.4
502.205	518.8
502.623	510.2
503.02	506.8
503.438	510.8
503.856	512
504.253	508.8
504.671	516.8
505.068	510.2
505.486	499.6
505.905	532.2
506.302	513.4
506.72	515.6
507.118	496.6
507.536	511
507.955	513.2
508.352	508
508.771	515
509.169	517
509.587	506.6
510.006	519.2
510.404	502.2
510.823	494.4
511.221	511.2
511.64	509.8
512.038	519
512.457	517.6
512.877	509
513.275	515.4
513.694	510.6
514.092	513.6
514.512	513.6
514.91	511.2
515.33	514.2
515.749	511.2
516.148	522.6
516.568	526
516.966	518.8
517.386	516.4
517.785	513.4
518.205	508.8
518.603	512.4
519.024	510.4
519.444	508.2
519.843	517.8
520.263	519.6
520.662	514.6
521.082	522.6
521.481	514.8
521.902	516.8
522.301	516
522.722	520
523.121	518.8
523.542	507.2
523.963	510.2
524.362	512
524.783	516.8
525.183	519.8
525.604	520.8
526.003	511.2
526.425	512.2
526.824	521
527.246	520.6
527.646	521.2
528.067	516.8
528.467	507.8
528.888	525
529.289	517.4
529.71	516.6
530.11	512.2
530.532	514.8
530.932	510.6
531.354	505.6
531.755	541.4
532.176	517.2
532.577	511
532.999	518
533.4	508.4
533.822	525.4
534.223	505
534.645	510.2
535.046	507.6
535.468	516.6
535.869	523.2
536.292	504.2
536.693	542.4
537.115	519
537.516	508
537.939	507.8
538.34	530.2
538.742	531
539.165	519
539.566	511.4
539.989	508.8
540.391	510.8
540.814	511.2
541.216	519.4
541.639	516.4
542.041	520.8
542.464	507.4
542.866	508.2
543.268	506
543.691	517
544.093	516.4
544.517	526.2
544.919	508.8
545.343	535
545.745	505.6
546.147	513.8
546.571	511.2
546.974	503.2
547.398	515.2
547.8	523
548.224	511.2
548.627	504.6
549.03	513
549.454	512
549.857	501.8
550.281	511.2
550.684	513.6
551.087	522.4
551.512	519.2
551.915	518.4
552.34	513
552.743	510.4
553.146	509.4
553.571	508.8
553.975	524.2
554.399	509
554.803	554.2
555.207	518.6
555.632	502
556.036	516.4
556.461	500.6
556.865	517.6
557.268	503
557.694	509.2
558.098	517.6
558.502	517.6
558.927	506.6
559.332	513
559.736	513
560.162	514.2
560.566	513
560.992	516.2
561.396	518.2
561.801	511.2
562.227	505.4
562.631	505.4
563.036	519.6
563.462	515.6
563.867	518.6
564.272	498
564.698	521.8
565.103	508.6
565.508	517.4
565.935	521
566.34	518.8
566.745	519.2
567.172	508.4
567.577	525
567.982	522.8
568.409	521.8
568.815	514.4
569.22	508.2
569.626	521.4
570.053	501.8
570.459	517.4
570.865	523.6
571.292	525.6
571.698	507.4
572.104	499
572.531	509.2
572.937	520.6
573.343	513.8
573.75	509.6
574.177	513.8
574.583	518
574.99	516.4
575.396	509
575.824	522.2
576.231	518.2
576.637	510.4
577.065	529.6
577.472	511.2
577.879	510.8
578.286	525.8
578.714	513.6
579.121	512.4
579.528	512.2
579.935	514
580.364	508.6
580.771	501.2
581.178	506.4
581.585	510
582.014	516
582.421	506.6
582.829	511.6
583.236	512.6
583.644	506.2
584.073	500.8
584.481	501.8
584.889	507
585.296	516.2
585.726	516.6
586.134	504.2
586.542	509.4
586.95	517.8
587.358	499
587.787	513.2
588.196	496.4
588.604	504.4
589.012	511.8
589.421	507.2
589.851	506.8
590.259	518.6
590.668	500.8
591.076	541.2
591.485	510.6
591.894	511.4
592.324	521
592.733	509.2
593.142	500.6
593.551	507.8
593.96	540
594.369	506
594.8	503
595.209	507
595.618	495.8
596.028	510.2
596.437	501.2
596.847	509.4
597.256	512.6
597.687	508.8
598.097	512.8
598.507	500.8
598.917	506
599.327	512.4
599.736	506
600.146	516
600.556	507.6
600.988	516.2
601.398	511.2
601.808	519.4
602.219	501
602.629	506.8
603.039	503
603.45	533.2
603.86	506
604.271	518
604.703	512
605.114	504.8
605.525	501.8
605.935	506.6
606.346	522.8
606.757	514.8
607.168	508.6
607.579	506.4
607.99	519.8
608.402	505
608.813	504.4
609.224	503.2
609.636	512.4
610.047	502.6
610.48	511.2
610.892	521.2
611.303	510.8
611.715	511.4
612.127	501.2
612.539	508.6
612.95	508.4
613.362	506
613.774	500.2
614.186	508.8
614.599	501
615.011	523
615.423	511.2
615.835	512.8
616.248	509.4
616.66	515.4
617.073	507
617.485	515
617.898	514.6
618.311	514.6
618.723	516.4
619.136	527.6
619.549	523.6
619.962	529.4
620.375	516
620.788	518.6
621.201	508
621.614	526.6
622.028	511.4
622.441	513.4
622.854	522
623.268	511.4
623.681	525.6
624.095	511.4
624.509	529.6
624.922	520.2
625.336	503.4
625.728	513.4
626.142	514.4
626.556	528.8
626.97	518.2
627.384	513.8
627.799	520.2
628.213	528.4
628.627	512.6
629.041	516.4
629.456	516.4
629.87	508
630.285	516.2
630.699	523.8
631.093	519.2
631.507	508.8
631.922	519.4
632.337	520.6
632.752	503
633.167	508.6
633.582	508
633.997	507.6
634.412	514.4
634.806	510.8
635.221	511.6
635.637	517.4
636.052	501.6
636.468	513.6
636.883	531.2
637.299	509.8
637.715	498.4
638.109	502.2
638.525	496
638.941	522.8
639.357	510.4
639.773	520.2
640.189	496.6
640.584	504.8
641	512.2
641.416	502
641.832	517
642.249	510.6
642.665	509.4
643.06	511.6
643.477	517.4
643.894	497.6
644.31	510.6
644.727	508
645.123	509.6
645.54	501.8
645.957	506.2
646.374	517
646.77	503.6
647.187	537.6
647.604	510.6
648.021	499
648.439	507.2
648.835	507
649.252	510.8
649.67	505.6
650.088	502.2
650.484	514
650.902	515.8
651.32	511.4
651.738	500.8
652.134	509.2
652.552	524.2
652.971	513.2
653.389	505.8
653.786	519.4
654.204	513.4
654.622	502
655.019	515.6
655.438	511.4
655.857	511.4
656.275	509.2
656.673	505.6
657.091	511.8
657.51	505.8
657.908	514.2
658.327	519.2
658.746	500.4
659.144	508.8
659.563	518.8
659.982	507.8
660.38	501
660.8	504.4
661.219	514.2
661.617	511.8
662.037	505
662.457	518.6
662.855	499.6
663.275	538.4
663.695	514.4
664.094	513.2
664.514	503.6
664.934	504.6
665.333	512.4
665.753	497.6
666.152	504.8
666.572	504.4
666.993	514.2
667.392	498
667.812	508.2
668.212	503.4
668.632	517.6
669.053	502.4
669.453	511.6
669.874	504.2
670.273	509.8
670.694	499.4
671.116	513.6
671.515	517.4
671.937	514.2
672.337	499.8
672.758	509.4
673.158	507.4
673.58	502.2
673.98	508.6
674.402	510
674.824	514.8
675.224	501.4
675.646	495.6
676.047	501.6
676.469	505
676.869	512
677.292	514.4
677.693	498.2
678.115	502.8
678.516	506.8
678.939	506.2
679.34	504.4
679.762	510
680.164	510.2
680.586	503.4
680.988	508.6
681.411	524.8
681.812	499
682.236	498.6
682.637	499.8
683.061	499.2
683.462	507.2
683.864	499.2
684.288	503
684.69	503.2
685.114	511.4
685.516	507.6
685.94	494.2
686.342	511.8
686.766	501.2
687.168	504.2
687.571	525.6
687.995	508.4
688.398	500.8
688.822	501.2
689.225	516.8
689.628	523
690.052	509.2
690.456	510.6
690.88	500.4
691.284	493.2
691.687	506.6
692.112	495.8
692.515	496
692.919	498.6
693.344	511.6
693.747	505.4
694.173	499.8
694.577	507.8
694.98	506.2
695.406	494.6
695.81	508.6
696.214	503.2
696.64	508.8
697.044	510
697.448	514.2
697.874	499.4
698.279	494.2
698.684	495
699.11	501.2
699.514	499.4
699.919	493
700.324	497.4
700.75	498.2
701.156	492.8
701.561	506.2
701.987	500
702.393	513
702.798	498
703.203	498.2
703.63	498.2
704.036	504.2
704.442	499
704.847	494.2
705.274	501.4
705.68	502.2
706.086	513
706.492	489.2
706.92	504.8
707.326	507.2
707.732	503.6
708.139	497.6
708.545	496.6
708.973	507.2
709.38	503.6
709.786	485.2
710.193	507.4
710.6	504.2
711.028	497.8
711.435	498.8
711.842	508.8
712.249	499.4
712.656	500.8
713.064	510.2
713.492	501
713.9	500.8
714.307	506.2
714.715	509
715.123	504
715.53	508
715.938	500.4
716.367	507
716.775	494.6
717.184	502.6
717.592	505.6
718	503.4
718.408	536.8
718.816	544.4
719.225	502.6
719.633	504.4
720.042	497.4
720.472	502.6
720.881	525.6
721.29	511.8
721.699	492
722.108	515.8
722.517	503
722.926	494.2
723.335	504.6
723.744	501.2
724.154	509.4
724.563	501.4
724.973	505
725.382	502.8
725.792	507
726.202	497
726.612	510.2
727.022	499.8
727.432	496.6
779.813	504.2
780.223	536.6
780.634	500
781.044	496.4
781.454	500
781.865	511.8
782.276	491.8
782.686	510.2
783.097	503.6
783.508	496.2
783.919	498.8
784.33	504.6
784.741	509.4
785.152	496.8
785.563	489
785.974	503
786.386	510.2
786.776	498.6
787.188	501.6
787.599	491.4
788.011	511.8
788.423	502
788.835	497.4
789.247	497.2
789.659	487.4
790.071	496.4
790.483	529.4
790.874	490.8
791.286	502.4
791.699	498.6
792.111	495.6
792.524	500.8
792.937	499.8
793.349	487.2
793.741	496.8
794.154	499.2
794.567	521.4
794.98	502
795.393	494.6
795.785	506.6
796.198	491.4
796.612	503
797.026	500
797.439	488.6
797.831	493.8
798.245	491.2
798.659	500.4
799.073	493.2
799.487	491.6
799.88	498
800.294	497.2
800.708	510.2
801.123	501.2
801.516	511.6
801.93	495.8
802.345	493.8
802.76	501.8
803.153	516
803.568	511
803.983	506.6
804.377	507.6
804.792	496.6
805.207	488.2
805.601	502.8
806.016	528.8
806.432	498.8
806.826	527.2
807.242	513.8
807.658	509
808.052	495.8
808.468	488.2
808.884	499
809.279	501.6
809.695	510.4
810.111	514.6
810.506	506.2
810.922	519.8
811.339	495.4
811.734	508
812.151	498.8
812.546	499
812.963	497
813.38	504.6
813.776	503.4
814.193	525.4
814.589	494.4
815.006	492.4
815.402	500.2
815.82	493.2
816.237	502.8
816.633	504
817.051	492.4
817.448	501.2
817.866	492.2
818.262	521.2
818.68	490.2
819.077	498.4
819.495	490.8
819.892	531.2
820.311	494.2
820.708	500.2
821.127	491.2
821.524	513
821.943	502.2
822.34	515.4
822.759	503.4
823.157	508.6
823.576	511.4
823.974	510.2
824.393	582.6
824.791	490.4
825.189	492.8
825.609	501.6
826.007	496.6
826.427	486.6
826.826	495.8
827.246	500.2
827.644	486.2
828.043	512
828.463	493.8
828.862	501.8
829.261	497.6
829.682	488.2
830.081	503
830.502	491.6
830.901	502
831.301	490.6
831.722	488.4
832.121	497.6
832.521	492.4
832.943	499.4
833.342	498.4
833.742	495.4
834.164	499.4
834.564	491.8
834.965	495
835.386	501.8
835.787	497.8
836.188	494.2
836.588	500
837.01	490
837.411	493.2
837.812	500.6
838.213	507
838.636	495.8
839.037	558.8
839.438	495.2
839.84	497.2
840.263	502.4
840.664	507.8
841.066	488.8
841.468	495.2
841.891	497.4
842.293	507.8
842.695	503.2
843.098	509.2
843.5	492.6
843.902	497
844.326	496.2
844.729	498.2
845.131	501.4
845.534	494.4
845.937	505.6
846.34	498
846.764	490
847.167	495.2
847.571	490.2
847.974	491.2
848.377	495.6
848.781	524.2
849.184	505.2
849.588	492.2
849.992	495.6
850.396	488.4
850.821	512.4
851.225	501.8
851.63	493.8
852.034	504
852.438	489.4
852.843	516.8
853.247	490.8
853.652	496.4
854.057	506.2
854.462	499.2
854.867	502
