#lambda/nm	C1
208.295	465.8
208.67	433
209.045	393.4
209.419	402.6
209.794	546
210.169	523
210.544	632
210.919	543.4
211.295	533.4
211.67	545.4
212.045	536.6
212.421	535.4
212.796	563
213.172	526.8
213.547	531.6
213.923	534
214.299	533.8
214.675	545.4
215.051	540
215.427	539.2
215.803	548.8
216.179	545.6
216.555	538.4
216.932	554.2
217.308	544
217.684	542.2
218.061	549
218.438	547.2
218.814	523.4
219.191	531.6
219.568	529.8
219.945	535.2
220.322	540.8
220.699	536.4
221.076	540.2
221.453	540.8
221.83	529.8
222.208	523.4
222.585	537
222.962	544.2
223.34	536.2
223.717	542
224.095	537.8
224.473	530.4
224.851	535.8
225.229	521
225.607	541
225.985	526.8
226.363	538.6
226.741	534.6
227.119	521.6
227.497	544
227.876	523.4
228.254	536.4
228.633	543.8
229.011	538.6
229.39	536
229.769	534.8
230.148	539.8
230.527	553.4
230.905	539.4
231.284	539.2
231.664	528.2
232.043	543.8
232.422	540.4
232.801	540
233.181	549
233.56	539.8
233.94	536.2
234.319	521.8
234.699	537.6
235.079	571.6
235.458	569.6
235.838	551.6
236.218	536.8
236.598	533.2
236.978	529.4
237.358	532.4
237.738	536.2
238.119	546.8
238.499	527.6
238.88	537
239.26	555.2
239.641	529
240.021	533
240.402	532
240.783	535.4
241.163	543.6
241.544	533.8
241.925	542.4
242.306	554.6
242.687	526
243.069	542.2
243.45	539.4
243.831	531.4
244.212	536.8
244.594	567.4
244.975	550.2
245.357	534
245.739	533.4
246.12	541
246.502	550.2
246.884	537.4
247.266	535.6
247.648	540.8
248.03	552.6
248.412	548
248.794	542
249.176	527
249.559	537.6
249.941	530.4
250.323	532.2
250.706	529.6
251.089	544.6
251.471	537.8
251.854	547.2
252.237	538.6
252.62	543.2
253.002	538.8
253.385	535.8
253.769	547.8
254.152	542
254.535	552.8
254.918	534.2
255.301	536.2
255.685	538.6
256.068	528.8
256.452	554.8
256.835	543.6
257.219	543.8
257.603	548.2
257.986	532
258.37	549.8
258.754	528.8
259.138	541.2
259.522	547.4
259.906	535.6
260.29	543.4
260.675	528.6
261.059	544
261.443	528.2
261.828	544.4
262.212	539.4
262.597	530
262.981	531.8
263.366	544.8
263.751	545.2
264.136	535
264.521	535.2
264.906	534.8
265.291	539.2
265.676	539.2
266.061	540
266.446	550.6
266.831	535.6
267.217	550.8
267.602	543.6
267.987	530.8
268.373	534.4
268.759	545.8
269.144	542.6
269.53	538.2
269.916	529.2
270.302	532
270.688	545.4
271.074	540.6
271.46	548.4
271.846	561.2
272.232	539.2
272.618	530
273.004	538.2
273.391	552.6
273.777	547.2
274.164	545.2
274.55	543.4
274.937	537.4
275.324	537.4
275.71	538.2
276.097	543.8
276.484	532.8
276.871	540.8
277.258	541.2
277.645	532.8
278.032	538.2
278.419	535.4
278.807	535.4
279.194	530
279.581	542
279.969	539.4
280.356	541
280.744	536.8
281.131	553.2
281.519	550
281.907	536.8
282.295	543.4
282.682	542.6
283.07	539.6
283.458	542.2
283.846	543.2
284.235	547
284.623	542
285.011	524.8
285.399	551.2
285.788	537.4
286.176	540.4
286.565	544.2
286.953	536.8
287.342	539.2
287.731	532.2
288.119	525.2
288.508	533.4
288.897	538
289.286	525.4
289.675	535.4
290.064	548.8
290.453	533.6
290.821	533.4
291.21	536.4
291.599	528
291.989	536.2
292.378	539
292.768	556.8
293.157	546.4
293.547	540.4
293.936	541
294.326	532.6
294.716	541.2
295.106	536
295.496	541.6
295.886	550.8
296.276	534
296.666	532.6
297.056	537
297.446	537.8
297.836	548.6
298.227	533.8
298.617	533
299.008	547.4
299.398	541.4
299.789	531.4
300.179	540.6
300.57	544.6
300.961	540.4
301.352	536.8
301.742	542.6
302.133	536.8
302.524	535.6
302.915	534
303.307	534.2
303.698	549.4
304.089	547.2
304.48	537.2
304.872	545.4
305.263	539.2
305.655	536
306.046	538.8
306.438	537.6
306.829	531.2
307.221	552
307.613	551
308.005	538.2
308.397	551.2
308.789	551.8
309.181	552
309.573	551.2
309.965	550
310.357	537
310.749	544
311.142	540
311.534	530.2
311.926	542.2
312.319	536.8
312.711	528.6
313.104	555.2
313.497	533.2
313.889	570.4
314.282	553
314.675	562.2
315.068	535.2
315.461	538.4
315.854	560
316.247	552.2
316.64	539.2
317.033	539.8
317.405	543.4
317.798	534
318.192	537
318.585	534
318.979	534
319.372	526.6
319.766	536.2
320.16	545.4
320.553	548
320.947	556.6
321.341	532.4
321.735	533.2
322.129	527
322.523	554.8
322.917	532.6
323.311	552.6
323.705	537.8
324.099	541.4
324.494	542.6
324.888	548.6
325.282	530.6
325.677	541.2
326.071	533.6
326.466	545.2
326.861	539.6
327.255	544.2
327.65	549
328.045	547.2
328.44	539
328.835	535.6
329.23	529
329.625	552.2
330.02	533.2
330.415	553
330.81	541.4
331.206	543.2
331.601	530
331.996	543.4
332.37	559.6
332.766	529
333.161	554
333.557	533
333.953	540.2
334.348	876.6
334.744	534.8
335.14	532
335.536	526.2
335.932	540.8
336.328	540
336.724	543.2
337.12	539.4
337.516	536.6
337.913	539.2
338.309	547
338.705	541.2
339.102	544.6
339.498	532.6
339.895	550.6
340.291	531.8
340.688	545
341.085	535.6
341.481	535.8
341.878	527.4
342.275	558.4
342.672	537
343.069	533
343.466	527
343.842	549.8
344.239	527.6
344.636	535.6
345.033	530
345.431	534.8
345.828	535.4
346.225	529.6
346.623	564.6
347.02	532.4
347.418	543.4
347.816	557.4
348.213	527.2
348.611	544.4
349.009	536.4
349.407	553.6
349.805	535.4
350.203	521
350.601	545.8
350.999	537.8
351.397	589
351.795	529.2
352.193	544.4
352.57	541.6
352.969	546.8
353.367	529.2
353.766	531.8
354.164	539
354.563	547
354.961	538.2
355.36	533.6
355.759	528.8
356.158	521.8
356.557	526
356.956	526.4
357.355	532.4
357.754	536.6
358.153	537.6
358.552	558.8
358.951	535.6
359.35	541.2
359.75	528
360.149	526.4
360.527	518.6
360.926	524.8
361.326	535.8
361.726	530.8
362.125	519.4
362.525	533.8
362.925	529.2
363.325	540
363.724	529.8
364.124	535
364.524	528
364.924	524.6
365.324	539
365.725	517.2
366.125	536.2
366.525	528.8
366.904	529
367.304	515.6
367.705	539.4
368.105	540.6
368.506	526.6
368.906	530.2
369.307	528
369.708	532.4
370.108	516.6
370.509	534.6
370.91	525.8
371.311	524.8
371.712	532
372.113	526.2
372.514	519.4
372.894	530
373.295	519.4
373.696	540.4
374.097	532.2
374.499	557.2
374.9	539.6
375.301	529.2
375.703	533.6
376.105	524.6
376.506	535
376.908	538.6
377.309	537
377.711	545
378.113	527.8
378.493	531.8
378.895	524.4
379.297	538.4
379.699	523.8
380.102	532.6
380.504	533.2
380.906	529.6
381.308	548.6
381.71	531.2
382.113	530.8
382.515	527.6
382.918	533.4
383.299	522.6
383.701	534
384.104	535.6
384.507	514.6
384.909	521
385.312	519.4
385.715	522.4
386.118	526.6
386.521	516
386.924	531.8
387.327	520.2
387.709	524.2
388.112	514.8
388.515	522.6
388.918	521.6
389.322	533.2
389.725	524
390.129	551.4
390.532	529.8
390.936	530.6
391.339	517.8
391.743	527
392.125	524.6
392.529	536.8
392.933	540.8
393.337	535.6
393.74	530
394.144	532.2
394.548	522.4
394.953	530.6
395.357	535
395.761	528.8
396.144	530.4
396.548	533
396.952	525
397.357	530.2
397.761	522.4
398.166	522.8
398.57	526
398.975	519.6
399.379	535.4
399.763	580.6
400.168	527.6
400.572	520.4
400.977	525.8
401.382	546.2
401.787	540.6
402.192	535.2
402.597	540.2
403.002	525.8
403.386	541.6
403.791	546.8
404.197	526.8
404.602	525.8
405.007	529.8
405.413	517
405.818	529.8
406.224	529.2
406.608	526.8
407.014	516.6
407.42	539.8
407.825	534
408.231	534.8
408.637	534.6
409.043	545.2
409.449	522.6
409.834	519.8
410.24	525.4
410.646	535.2
411.052	536.4
411.458	529.8
411.865	533
412.271	534.8
412.677	534
413.062	533.4
413.469	522.4
413.875	543.4
414.282	540.2
414.689	531.6
415.095	530.8
415.502	523.8
415.888	534.6
416.294	523.8
416.701	567.4
417.108	521.6
417.515	532.6
417.923	527.6
418.33	532.4
418.715	534
419.123	524.6
419.53	521.8
419.937	518.4
420.345	541.6
420.752	523.8
421.16	544.2
421.546	525.2
421.953	530.8
422.361	512.4
422.769	522.8
423.177	519.8
423.585	547.8
423.992	549.8
424.379	536.6
424.787	532.2
425.195	542.2
425.603	535.6
426.011	543.8
426.419	537.8
426.806	531.8
427.214	532.8
427.623	542.4
428.031	547.6
428.44	536.2
428.848	543.6
429.235	537.6
429.644	535.2
430.053	533
430.461	549
430.87	555.8
431.279	541
431.666	523.4
432.075	531.4
432.484	534.2
432.893	530.2
433.302	538
433.711	564.4
434.099	530
434.508	527
434.918	521.4
435.327	537.2
435.737	523.8
436.125	526.8
436.534	531.6
436.944	533.6
437.353	537
437.763	539.2
438.173	529
438.561	541.6
438.971	521.6
439.381	525
439.791	538.4
440.201	510.8
440.589	530.6
440.999	540.2
441.409	525.8
441.819	524.8
442.23	528.2
442.619	525
443.029	536.2
443.439	534.4
443.85	539.4
444.26	539.4
444.649	540.4
445.06	523.2
445.471	528.6
445.881	530
446.292	539.2
446.682	547
447.092	519.8
447.503	569.4
447.914	532.2
448.325	527.2
448.715	525.2
449.126	526.6
449.537	527
449.948	522.8
450.338	538
450.75	538.8
451.161	521.8
451.572	530.6
451.984	521.2
452.374	519
452.786	533.4
453.197	534.8
453.609	539.6
453.999	522.4
454.411	523
454.823	538.2
455.235	531
455.647	535
456.037	533
456.449	510.4
456.862	531.4
457.274	528.8
457.665	528.6
458.077	531.4
458.489	554
458.902	532.8
459.293	527.4
459.705	521.8
460.118	524
460.53	526.8
460.921	523.2
461.334	525.6
461.747	522.2
462.16	537.2
462.551	534
462.964	529
463.377	519.8
463.79	518.2
464.182	532.6
464.595	515.6
465.008	523.8
465.421	533.4
465.813	518
466.226	528.6
466.64	510.2
467.053	559.4
467.445	528.6
467.859	533.6
468.272	523.4
468.686	533.2
469.078	524.4
469.492	518.4
469.906	519
470.298	525.2
470.712	520.2
471.126	543.4
471.54	514.4
471.933	517.4
472.347	516.6
472.761	525.6
473.175	524.8
473.568	518
473.982	515.2
474.397	519.8
474.79	527.2
475.204	524.4
475.619	520
476.033	521.8
476.426	524.4
476.841	512.2
477.256	542.4
477.649	509
478.064	512.8
478.479	520.2
478.872	513.2
479.287	503
479.702	520
480.118	525.2
480.511	521.2
480.927	523.2
481.342	517
481.736	519.4
482.151	512.6
482.566	525.6
482.96	519
483.376	523.8
483.792	516.2
484.186	529
484.602	512.2
485.017	522.2
485.412	520.6
485.827	529.8
486.243	523.6
486.638	538
487.054	529.6
487.47	530.6
487.865	516.4
488.281	515.2
488.697	527
489.092	519.2
489.508	509.6
489.925	537.4
490.32	522.4
490.736	527.8
491.153	524.2
491.548	519.2
491.964	532.8
492.381	510.4
492.776	516.4
493.193	518.2
493.61	529.8
494.006	523.2
494.422	527
494.84	512.2
495.235	530.4
495.652	520.6
496.069	519.8
496.465	513.4
496.883	526
497.3	542.8
497.696	516.2
498.113	520.4
498.509	520.6
498.927	512
499.344	514.6
499.741	511
500.158	518.4
500.576	526.2
500.973	522
501.39	507.8
501.787	508
502.205	524.8
502.623	516.8
503.02	510
503.438	512
503.856	519.6
504.253	520.6
504.671	518.6
505.068	515.2
505.486	509.8
505.905	536.8
506.302	516
506.72	525.8
507.118	518.2
507.536	520.4
507.955	514.4
508.352	524.6
508.771	522.2
509.169	522.2
509.587	513.6
510.006	522.6
510.404	510.6
510.823	516.2
511.221	514
511.64	518.6
512.038	526.6
512.457	509.6
512.877	516.4
513.275	514.8
513.694	513
514.092	521.6
514.512	521
514.91	522
515.33	514
515.749	518
516.148	519.6
516.568	518.2
516.966	515.6
517.386	511
517.785	515.6
518.205	510.2
518.603	511.6
519.024	511.6
519.444	515
519.843	529.8
520.263	528.6
520.662	518.6
521.082	513.8
521.481	517.2
521.902	508.8
522.301	519
522.722	520
523.121	516.8
523.542	510
523.963	516.2
524.362	522.4
524.783	520.2
525.183	517.6
525.604	520.2
526.003	505.8
526.425	507.8
526.824	521.2
527.246	525.6
527.646	522.2
528.067	523.2
528.467	524
528.888	520.8
529.289	515.4
529.71	515.6
530.11	512.8
530.532	516.2
530.932	511
531.354	514
531.755	546.6
532.176	521
532.577	516.8
532.999	512
533.4	522.8
533.822	526.6
534.223	523.4
534.645	516.4
535.046	516
535.468	517.4
535.869	537.6
536.292	508.8
536.693	552.6
537.115	518
537.516	513.8
537.939	510.6
538.34	529
538.742	528.2
539.165	528.2
539.566	520.6
539.989	514.8
540.391	511.6
540.814	529.2
541.216	521.6
541.639	521.6
542.041	523
542.464	517.4
542.866	516.6
543.268	509
543.691	521
544.093	522.4
544.517	535
544.919	507
545.343	536.8
545.745	510.4
546.147	516.2
546.571	518.2
546.974	500.2
547.398	525.8
547.8	523.6
548.224	524
548.627	516.2
549.03	526.4
549.454	512.8
549.857	511
550.281	511.4
550.684	521.2
551.087	529.8
551.512	518.4
551.915	523.4
552.34	512.8
552.743	511.4
553.146	521.8
553.571	516
553.975	532
554.399	513.6
554.803	558.2
555.207	508
555.632	521.6
556.036	518.4
556.461	517.4
556.865	521.6
557.268	512.2
557.694	511.2
558.098	520.6
558.502	517.6
558.927	508
559.332	516.8
559.736	516.4
560.162	517.2
560.566	518.2
560.992	520.4
561.396	510.8
561.801	516.8
562.227	518.6
562.631	508
563.036	514.2
563.462	524.4
563.867	514
564.272	500.2
564.698	513.6
565.103	508
565.508	526.8
565.935	502
566.34	509
566.745	525.6
567.172	509
567.577	532.2
567.982	524.8
568.409	519
568.815	506.6
569.22	517.6
569.626	514.8
570.053	503.6
570.459	513
570.865	524.2
571.292	511.2
571.698	515.6
572.104	500.6
572.531	507.2
572.937	517.4
573.343	511.2
573.75	515.6
574.177	510.8
574.583	513.6
574.99	513.6
575.396	519.4
575.824	516.8
576.231	521.2
576.637	510.8
577.065	529.8
577.472	510.8
577.879	512.6
578.286	525.4
578.714	507.8
579.121	510.4
579.528	518.2
579.935	519.6
580.364	511.6
580.771	508.2
581.178	504.4
581.585	514.2
582.014	514.8
582.421	508.6
582.829	510.6
583.236	514.8
583.644	502.4
584.073	509.4
584.481	507
584.889	509
585.296	513.4
585.726	513.4
586.134	502.4
586.542	504.2
586.95	529
587.358	506
587.787	513
588.196	509.6
588.604	512
589.012	510.8
589.421	507.8
589.851	513.2
590.259	517.6
590.668	512.4
591.076	540.8
591.485	507.8
591.894	510.4
592.324	521
592.733	521.8
593.142	505.4
593.551	506.2
593.96	548
594.369	508.6
594.8	504.4
595.209	515.6
595.618	500.8
596.028	514
596.437	508
596.847	517
597.256	514.2
597.687	514
598.097	508.4
598.507	510.8
598.917	518
599.327	514.2
599.736	516.6
600.146	518
600.556	515.8
600.988	526.6
601.398	509.8
601.808	522.4
602.219	499.2
602.629	516.6
603.039	506
603.45	539.6
603.86	514.8
604.271	519.2
604.703	508.4
605.114	511.2
605.525	513.4
605.935	519.2
606.346	526.8
606.757	523
607.168	521.4
607.579	511.8
607.99	519.2
608.402	506.2
608.813	524.2
609.224	513.8
609.636	509.8
610.047	502.4
610.48	512.8
610.892	523
611.303	520.8
611.715	509.8
612.127	510.2
612.539	502.4
612.95	518
613.362	502.8
613.774	503.2
614.186	507.8
614.599	508.2
615.011	521.8
615.423	513.6
615.835	508
616.248	510.4
616.66	515.8
617.073	500.4
617.485	508.8
617.898	516.4
618.311	508
618.723	502.2
619.136	536.8
619.549	531.4
619.962	531.4
620.375	504.2
620.788	516.2
621.201	509.6
621.614	519
622.028	513.2
622.441	513.6
622.854	532
623.268	507.2
623.681	515.8
624.095	520.2
624.509	518.8
624.922	521.6
625.336	509
625.728	516.4
626.142	520.4
626.556	526.2
626.97	517
627.384	517
627.799	517.6
628.213	528.6
628.627	501.6
629.041	515.6
629.456	508.4
629.87	513.8
630.285	528.2
630.699	527.8
631.093	519.8
631.507	518.2
631.922	521.2
632.337	533
632.752	517.8
633.167	518
633.582	517.6
633.997	513.4
634.412	505
634.806	512.8
635.221	506.8
635.637	519.6
636.052	499.4
636.468	512
636.883	532.2
637.299	517.4
637.715	507
638.109	511.8
638.525	503.4
638.941	520.6
639.357	518
639.773	524.2
640.189	516.8
640.584	514.8
641	515.4
641.416	509
641.832	506.8
642.249	507.2
642.665	515.8
643.06	516
643.477	515.4
643.894	509.6
644.31	515.6
644.727	515.6
645.123	516.6
645.54	510.8
645.957	517.6
646.374	527
646.77	512.2
647.187	530.2
647.604	513.4
648.021	497.8
648.439	503.8
648.835	514.8
649.252	515.4
649.67	516.2
650.088	517.6
650.484	510.4
650.902	519.8
651.32	516
651.738	512.4
652.134	513.2
652.552	526.8
652.971	518.2
653.389	518
653.786	523.6
654.204	512.8
654.622	505.2
655.019	511
655.438	513
655.857	509.6
656.275	512.6
656.673	505.6
657.091	511.2
657.51	512.2
657.908	512.4
658.327	523.4
658.746	500.2
659.144	513.2
659.563	520.6
659.982	504.4
660.38	500.2
660.8	507.2
661.219	517.8
661.617	516.8
662.037	508.2
662.457	521.2
662.855	504
663.275	532.6
663.695	503.2
664.094	511.8
664.514	520
664.934	502.8
665.333	517.2
665.753	497
666.152	498.6
666.572	504.4
666.993	517.4
667.392	503.6
667.812	507.8
668.212	509.8
668.632	517.4
669.053	503.2
669.453	513.4
669.874	506.8
670.273	515.2
670.694	504
671.116	513.8
671.515	513.2
671.937	508.2
672.337	503.8
672.758	505.2
673.158	513.8
673.58	497.2
673.98	511
674.402	521.6
674.824	505.8
675.224	506
675.646	503
676.047	501
676.469	508.4
676.869	503.8
677.292	507.2
677.693	497.8
678.115	508.2
678.516	504.4
678.939	507.6
679.34	505.8
679.762	518.2
680.164	506.4
680.586	499.4
680.988	503.4
681.411	528.6
681.812	508.6
682.236	503.2
682.637	499.2
683.061	494.4
683.462	506.6
683.864	498.2
684.288	516.4
684.69	497.8
685.114	517
685.516	517.6
685.94	508.6
686.342	514.4
686.766	510.6
687.168	504
687.571	523.6
687.995	504.8
688.398	505
688.822	506.6
689.225	516.8
689.628	523.4
690.052	504
690.456	515.2
690.88	516.8
691.284	501.2
691.687	515.2
692.112	503.6
692.515	501.6
692.919	508
693.344	505.8
693.747	505
694.173	501.8
694.577	515.2
694.98	504.2
695.406	504.2
695.81	505.2
696.214	511.4
696.64	511.4
697.044	509.4
697.448	511
697.874	507.8
698.279	503.4
698.684	498
699.11	510.4
699.514	513.8
699.919	511.4
700.324	503.4
700.75	520
701.156	508.6
701.561	513.2
701.987	513.8
702.393	518.2
702.798	516.4
703.203	505.2
703.63	505.8
704.036	503.2
704.442	505.8
704.847	509.4
705.274	503.8
705.68	508.6
706.086	512.2
706.492	495.6
706.92	499
707.326	513
707.732	500.4
708.139	504
708.545	505.4
708.973	500.4
709.38	501.4
709.786	496.8
710.193	516
710.6	513.2
711.028	501.2
711.435	509.6
711.842	511.6
712.249	502.8
712.656	505.6
713.064	504.2
713.492	492.2
713.9	496.8
714.307	506.8
714.715	502.8
715.123	507.2
715.53	507.4
715.938	507
716.367	505
716.775	505.4
717.184	495
717.592	501.2
718	517.6
718.408	532.2
718.816	534.2
719.225	511
719.633	507.8
720.042	495.6
720.472	498.4
720.881	516.6
721.29	511.2
721.699	497.6
722.108	515.2
722.517	508.4
722.926	498.2
723.335	517.6
723.744	505.2
724.154	501
724.563	502
724.973	506.4
725.382	502.4
725.792	493.8
726.202	490
726.612	509.6
727.022	505.6
727.432	508.4
779.813	499.6
780.223	539.8
780.634	504
781.044	499.2
781.454	504.2
781.865	518.4
782.276	500
782.686	513.4
783.097	503.2
783.508	505.6
783.919	505
784.33	512.8
784.741	510.8
785.152	500.6
785.563	494.8
785.974	500.8
786.386	515.2
786.776	510.2
787.188	495.8
787.599	501.6
788.011	509.8
788.423	517.8
788.835	507.6
789.247	501.8
789.659	501.8
790.071	495.4
790.483	536.2
790.874	502.2
791.286	508
791.699	499.6
792.111	505.4
792.524	502.8
792.937	501.2
793.349	498.4
793.741	504.2
794.154	504.6
794.567	514.4
794.98	505.6
795.393	496
795.785	518.8
796.198	500
796.612	507.8
797.026	491.4
797.439	493.4
797.831	505
798.245	491.6
798.659	503.4
799.073	500
799.487	502.2
799.88	507.4
800.294	508
800.708	501.4
801.123	511.8
801.516	519.2
801.93	490.4
802.345	490.4
802.76	504.8
803.153	516
803.568	516.8
803.983	514.2
804.377	514
804.792	490.6
805.207	490.2
805.601	504.4
806.016	530.2
806.432	495.4
806.826	527
807.242	516.4
807.658	499.8
808.052	495.8
808.468	500
808.884	490.2
809.279	504.6
809.695	501.2
810.111	519.8
810.506	497.4
810.922	516.6
811.339	499
811.734	502.8
812.151	497
812.546	498.8
812.963	491.2
813.38	506.2
813.776	504.4
814.193	515.8
814.589	494.8
815.006	501.4
815.402	498.6
815.82	501
816.237	507
816.633	506.4
817.051	497.4
817.448	503.4
817.866	500
818.262	512.4
818.68	496.6
819.077	493.8
819.495	511.2
819.892	537.2
820.311	501.6
820.708	499.4
821.127	501.4
821.524	505.6
821.943	506.8
822.34	512.8
822.759	504.4
823.157	506.4
823.576	511.6
823.974	513
824.393	557.2
824.791	496.2
825.189	492.4
825.609	502
826.007	496.6
826.427	489.4
826.826	490.2
827.246	509.2
827.644	494.4
828.043	517.4
828.463	494.2
828.862	512.6
829.261	508
829.682	491.6
830.081	508.6
830.502	495.2
830.901	506.4
831.301	497.8
831.722	489.6
832.121	496.4
832.521	498.4
832.943	496.6
833.342	494
833.742	497.8
834.164	498.8
834.564	489.6
834.965	500
835.386	492
835.787	494.4
836.188	498.8
836.588	507.2
837.01	499
837.411	498
837.812	507
838.213	505.2
838.636	497
839.037	555.2
839.438	505.8
839.84	507.8
840.263	503.2
840.664	505.6
841.066	500.6
841.468	512.4
841.891	501.8
842.293	506.6
842.695	503.2
843.098	510.2
843.5	504.6
843.902	503.6
844.326	506.8
844.729	504.8
845.131	507.6
845.534	500.4
845.937	502
846.34	512.2
846.764	496.8
847.167	506.4
847.571	500.6
847.974	498.8
848.377	495.2
848.781	539.2
849.184	507
849.588	505.8
849.992	501.4
850.396	502
850.821	515.2
851.225	504.4
851.63	503.2
852.034	505.6
852.438	505.8
852.843	569.6
853.247	498.2
853.652	495.6
854.057	519.8
854.462	495
854.867	502.6
855.272	514
855.677	500.6
856.082	496.2
856.487	492.2
