#lambda/nm	C1
208.295	468
208.67	438.6
209.045	394.4
209.419	402.6
209.794	541.8
210.169	530
210.544	628.2
210.919	534.6
211.295	523.2
211.67	535.2
212.045	529.2
212.421	538
212.796	562.6
213.172	535
213.547	528.8
213.923	533.4
214.299	534
214.675	548
215.051	538.8
215.427	541.2
215.803	552.2
216.179	540.2
216.555	536.4
216.932	544.6
217.308	531.6
217.684	539.6
218.061	540.4
218.438	538.6
218.814	535
219.191	547.6
219.568	530.6
219.945	532.8
220.322	541
220.699	538.2
221.076	536
221.453	542
221.83	533
222.208	528.8
222.585	536.6
222.962	536.6
223.34	541
223.717	540.4
224.095	533.4
224.473	537
224.851	533.2
225.229	529
225.607	551.2
225.985	536.4
226.363	530.8
226.741	536.8
227.119	533.8
227.497	540
227.876	529
228.254	535.6
228.633	542
229.011	534.6
229.39	534
229.769	530
230.148	535.8
230.527	548.4
230.905	532.2
231.284	530.8
231.664	525.6
232.043	545.2
232.422	539.8
232.801	531.6
233.181	540.8
233.56	536
233.94	537.2
234.319	528.4
234.699	531
235.079	564.2
235.458	573.2
235.838	552.6
236.218	535
236.598	522.8
236.978	530.6
237.358	542
237.738	534.6
238.119	537.4
238.499	528.8
238.88	539
239.26	549.8
239.641	522.8
240.021	536.8
240.402	528.8
240.783	535.8
241.163	531.8
241.544	538.4
241.925	533.8
242.306	554.4
242.687	532
243.069	544
243.45	550.8
243.831	536.8
244.212	528.8
244.594	570.8
244.975	540.6
245.357	543.2
245.739	534.2
246.12	535.6
246.502	551.4
246.884	533.8
247.266	535.8
247.648	547.2
248.03	545.6
248.412	531
248.794	540
249.176	528.2
249.559	544
249.941	535
250.323	532.6
250.706	535.4
251.089	538.8
251.471	531.2
251.854	542.6
252.237	529.2
252.62	539.8
253.002	534.6
253.385	528.8
253.769	543
254.152	532.6
254.535	536.8
254.918	528.6
255.301	529.2
255.685	534.6
256.068	528.6
256.452	547.2
256.835	542.6
257.219	538.6
257.603	542.2
257.986	527.8
258.37	544.2
258.754	512.6
259.138	539.2
259.522	540.8
259.906	534.8
260.29	540.6
260.675	535.2
261.059	541.4
261.443	533
261.828	540.6
262.212	543.2
262.597	526.6
262.981	535
263.366	542.4
263.751	534.2
264.136	537
264.521	535.2
264.906	527
265.291	540
265.676	537.8
266.061	546.4
266.446	545
266.831	535.6
267.217	550.4
267.602	541.6
267.987	540
268.373	535.8
268.759	547.6
269.144	542.6
269.53	533.6
269.916	533
270.302	536.6
270.688	532
271.074	534.6
271.46	543.6
271.846	556.8
272.232	532.6
272.618	526.4
273.004	525
273.391	539
273.777	539.4
274.164	528
274.55	533.2
274.937	537.2
275.324	530
275.71	542.6
276.097	541.8
276.484	529.8
276.871	526.4
277.258	534.6
277.645	525.4
278.032	538.2
278.419	526.6
278.807	540.6
279.194	534.6
279.581	531.4
279.969	546.4
280.356	537.4
280.744	537.4
281.131	565
281.519	545.4
281.907	526.2
282.295	539.8
282.682	536.2
283.07	535.8
283.458	549
283.846	547.4
284.235	548.2
284.623	544.2
285.011	533
285.399	543.6
285.788	538.2
286.176	530.6
286.565	544.2
286.953	541
287.342	531.4
287.731	537.2
288.119	526.8
288.508	528.8
288.897	539.6
289.286	520.8
289.675	542
290.064	540
290.453	533.6
290.821	542.8
291.21	541.6
291.599	528.2
291.989	532.2
292.378	538.6
292.768	550.8
293.157	544.4
293.547	545.4
293.936	531.6
294.326	533.4
294.716	545.2
295.106	528.6
295.496	547.6
295.886	542.2
296.276	542
296.666	530.4
297.056	531.2
297.446	528.6
297.836	554.6
298.227	536.8
298.617	536.2
299.008	548.6
299.398	525.6
299.789	533.6
300.179	537.2
300.57	553
300.961	536
301.352	539
301.742	539.4
302.133	538.8
302.524	534.4
302.915	544
303.307	528.6
303.698	542.8
304.089	544
304.48	537.4
304.872	540.2
305.263	538.8
305.655	526.2
306.046	530.8
306.438	539
306.829	536.6
307.221	543.4
307.613	542.2
308.005	543
308.397	537.8
308.789	555
309.181	562.4
309.573	549.6
309.965	551
310.357	538
310.749	553.2
311.142	536.6
311.534	535.6
311.926	545.4
312.319	535.2
312.711	534.4
313.104	548.2
313.497	534
313.889	569.8
314.282	554.4
314.675	561.6
315.068	540.4
315.461	544
315.854	563.4
316.247	543.6
316.64	539
317.033	532.4
317.405	550.8
317.798	535.8
318.192	535.4
318.585	529.6
318.979	542.4
319.372	533.8
319.766	534.2
320.16	543
320.553	558
320.947	552.6
321.341	532
321.735	534.6
322.129	520.2
322.523	564
322.917	530
323.311	542.2
323.705	539.4
324.099	550
324.494	545.6
324.888	559
325.282	538.4
325.677	540.2
326.071	542.2
326.466	539
326.861	534.4
327.255	544.4
327.65	545
328.045	551.6
328.44	535.4
328.835	534.6
329.23	525.8
329.625	562.2
330.02	529.6
330.415	546
330.81	531
331.206	535.4
331.601	525.6
331.996	543.8
332.37	549.4
332.766	535.6
333.161	551
333.557	535.6
333.953	537.4
334.348	810
334.744	534
335.14	537.8
335.536	531.4
335.932	545.8
336.328	537.8
336.724	545
337.12	537.6
337.516	538.4
337.913	536.2
338.309	547.6
338.705	539.4
339.102	547.4
339.498	529.8
339.895	543.6
340.291	536.6
340.688	538.2
341.085	535.2
341.481	536.8
341.878	531.4
342.275	545.6
342.672	537.6
343.069	532
343.466	523.8
343.842	549
344.239	534.4
344.636	535.4
345.033	529.8
345.431	529.8
345.828	539.2
346.225	530
346.623	562.8
347.02	536.8
347.418	539
347.816	537
348.213	523.2
348.611	532.6
349.009	527.6
349.407	539.6
349.805	522.6
350.203	523.2
350.601	544.6
350.999	530
351.397	586.8
351.795	524.6
352.193	527.8
352.57	538.8
352.969	537
353.367	523.6
353.766	519.6
354.164	531.2
354.563	536.2
354.961	529.8
355.36	532.6
355.759	524.4
356.158	528.8
356.557	528.2
356.956	521.6
357.355	526.6
357.754	540.4
358.153	535.4
358.552	548.2
358.951	536.8
359.35	544.4
359.75	529.8
360.149	524.4
360.527	523.2
360.926	520
361.326	534.2
361.726	530.8
362.125	534.2
362.525	536.4
362.925	531
363.325	539
363.724	534.4
364.124	528.8
364.524	527.6
364.924	533.8
365.324	546.4
365.725	517.8
366.125	532.6
366.525	532.6
366.904	523.2
367.304	523.8
367.705	545.2
368.105	543.4
368.506	530.8
368.906	529.8
369.307	524.4
369.708	525.2
370.108	514.8
370.509	532
370.91	516
371.311	539.6
371.712	526.8
372.113	530
372.514	514.2
372.894	525.2
373.295	519.4
373.696	524.6
374.097	530.4
374.499	541.8
374.9	525.2
375.301	522.6
375.703	529.4
376.105	524.4
376.506	535.2
376.908	530.8
377.309	531.4
377.711	527.2
378.113	521
378.493	520.6
378.895	527.2
379.297	540.2
379.699	516.6
380.102	527
380.504	528.8
380.906	520.2
381.308	549.8
381.71	524.2
382.113	528.6
382.515	528.4
382.918	527.8
383.299	529.6
383.701	543
384.104	528.6
384.507	520.2
384.909	523.4
385.312	522.4
385.715	522.2
386.118	533.2
386.521	526
386.924	538.6
387.327	522.6
387.709	519
388.112	505.2
388.515	522
388.918	522.2
389.322	535
389.725	521.8
390.129	538.4
390.532	526.6
390.936	519.2
391.339	519.8
391.743	525
392.125	518.2
392.529	537.4
392.933	538.4
393.337	527.2
393.74	525.2
394.144	530.4
394.548	523.4
394.953	525.8
395.357	530
395.761	517.2
396.144	527.4
396.548	520.8
396.952	522
397.357	524.2
397.761	523.6
398.166	528.6
398.57	525.6
398.975	524.6
399.379	531.2
399.763	576.4
400.168	527.2
400.572	526.6
400.977	526.6
401.382	541.4
401.787	533.6
402.192	543.2
402.597	543.2
403.002	515
403.386	538.6
403.791	532
404.197	525.4
404.602	525.2
405.007	527.2
405.413	518.8
405.818	530.4
406.224	524.4
406.608	525.8
407.014	518.2
407.42	541.2
407.825	520.2
408.231	536.2
408.637	530.6
409.043	540.2
409.449	525
409.834	518.6
410.24	527.4
410.646	536.2
411.052	542.2
411.458	532.4
411.865	527.2
412.271	541.2
412.677	531
413.062	537.6
413.469	524.8
413.875	550.8
414.282	539
414.689	528
415.095	529
415.502	521
415.888	530
416.294	511.8
416.701	560.4
417.108	524.4
417.515	537.4
417.923	529
418.33	543.6
418.715	530.8
419.123	526
419.53	524.2
419.937	532
420.345	541.8
420.752	525
421.16	539.4
421.546	529
421.953	540.2
422.361	519
422.769	527.4
423.177	522.6
423.585	546
423.992	541.4
424.379	540.4
424.787	539.8
425.195	540
425.603	530.6
426.011	531.4
426.419	541.2
426.806	527.8
427.214	532.8
427.623	537.4
428.031	534.2
428.44	529
428.848	540.6
429.235	541.2
429.644	529
430.053	523
430.461	547.8
430.87	544.4
431.279	540.6
431.666	528.4
432.075	530
432.484	534.6
432.893	526
433.302	533
433.711	566.6
434.099	533
434.508	530.8
434.918	523.4
435.327	529.4
435.737	530.2
436.125	533.6
436.534	536.4
436.944	520.8
437.353	527.2
437.763	541.6
438.173	524.6
438.561	537.4
438.971	525.2
439.381	526.6
439.791	530.6
440.201	506
440.589	532.8
440.999	533.6
441.409	528.8
441.819	522.4
442.23	534.6
442.619	532.4
443.029	526.8
443.439	529.8
443.85	538.6
444.26	541.4
444.649	538
445.06	525.6
445.471	520.4
445.881	527.2
446.292	541.8
446.682	539.6
447.092	516.8
447.503	563.2
447.914	520.6
448.325	518.6
448.715	520.6
449.126	528
449.537	526
449.948	521.6
450.338	520.8
450.75	530.4
451.161	524.8
451.572	533.4
451.984	521.4
452.374	511.4
452.786	527.4
453.197	528
453.609	526
453.999	517.6
454.411	520.2
454.823	538.8
455.235	520.6
455.647	520
456.037	524.8
456.449	517.4
456.862	538
457.274	526.4
457.665	514.2
458.077	529.4
458.489	549.4
458.902	529
459.293	529.2
459.705	527
460.118	522.8
460.53	530.8
460.921	522.2
461.334	522.8
461.747	525.2
462.16	538.4
462.551	537.2
462.964	532
463.377	520
463.79	520.4
464.182	530.4
464.595	514.6
465.008	531.8
465.421	528.6
465.813	527
466.226	531.8
466.64	510
467.053	554.2
467.445	527.4
467.859	536
468.272	527.4
468.686	526
469.078	516
469.492	507.2
469.906	515.2
470.298	522.8
470.712	518.2
471.126	539.2
471.54	504.8
471.933	517.8
472.347	519.6
472.761	517
473.175	514.2
473.568	515
473.982	511.6
474.397	522.4
474.79	521.2
475.204	519.8
475.619	519.6
476.033	527.6
476.426	516
476.841	515.4
477.256	542.4
477.649	513.2
478.064	514.4
478.479	505
478.872	509.6
479.287	502.8
479.702	503.2
480.118	512.2
480.511	515.8
480.927	518.6
481.342	520.2
481.736	525.4
482.151	512.6
482.566	525.2
482.96	518.4
483.376	532
483.792	513.6
484.186	522.8
484.602	516.6
485.017	519.4
485.412	523.6
485.827	520.6
486.243	515.8
486.638	544.6
487.054	526
487.47	538.6
487.865	517
488.281	514.8
488.697	516.6
489.092	516.2
489.508	517.6
489.925	519.6
490.32	516.6
490.736	528.4
491.153	520.8
491.548	521.8
491.964	524.6
492.381	501.6
492.776	527.6
493.193	518.8
493.61	521.6
494.006	520.8
494.422	524.4
494.84	515.2
495.235	521.4
495.652	516.2
496.069	515.8
496.465	513.4
496.883	519.8
497.3	537.8
497.696	510.2
498.113	526.4
498.509	512
498.927	520.2
499.344	511.4
499.741	514.4
500.158	521.6
500.576	532.4
500.973	523.2
501.39	514.2
501.787	509.4
502.205	514.8
502.623	519
503.02	509.2
503.438	513
503.856	518
504.253	517.8
504.671	519.6
505.068	511.2
505.486	521
505.905	534
506.302	518.6
506.72	532.2
507.118	508.6
507.536	521.8
507.955	517
508.352	525.8
508.771	523
509.169	527.4
509.587	514.4
510.006	521.2
510.404	511.8
510.823	517.6
511.221	514
511.64	517.6
512.038	526.6
512.457	523.2
512.877	513.4
513.275	513
513.694	511.2
514.092	511
514.512	523
514.91	521
515.33	522.4
515.749	514.8
516.148	521.4
516.568	524.2
516.966	518
517.386	517.6
517.785	527.6
518.205	514.4
518.603	505.4
519.024	511.2
519.444	524.6
519.843	522
520.263	526
520.662	525.4
521.082	508.6
521.481	513.6
521.902	511.2
522.301	521.4
522.722	522
523.121	515.4
523.542	514.2
523.963	511.6
524.362	506.8
524.783	520.4
525.183	514.8
525.604	521.2
526.003	507
526.425	515.8
526.824	521.6
527.246	522.4
527.646	521
528.067	513.8
528.467	522.6
528.888	514.8
529.289	517.8
529.71	511
530.11	514.4
530.532	515.8
530.932	511.4
531.354	498
531.755	546.2
532.176	521.6
532.577	518.2
532.999	519
533.4	509.4
533.822	527.4
534.223	516
534.645	514.4
535.046	511.4
535.468	520.6
535.869	525.4
536.292	503.8
536.693	547
537.115	519.6
537.516	509.2
537.939	519.4
538.34	531.4
538.742	515.8
539.165	524
539.566	514.6
539.989	507.6
540.391	507.6
540.814	513.8
541.216	517.8
541.639	516.2
542.041	523.4
542.464	511
542.866	512.8
543.268	515.6
543.691	515.6
544.093	520.8
544.517	526.4
544.919	503
545.343	531.2
545.745	508
546.147	514.4
546.571	506.6
546.974	504
547.398	511.2
547.8	522
548.224	509
548.627	508
549.03	518
549.454	508.2
549.857	513
550.281	507.8
550.684	515.6
551.087	522.6
551.512	514.2
551.915	517.8
552.34	514.4
552.743	503.8
553.146	521.8
553.571	515.2
553.975	528.2
554.399	506.2
554.803	552.6
555.207	509.4
555.632	506.4
556.036	530
556.461	508
556.865	517.4
557.268	508.6
557.694	508.8
558.098	525
558.502	511.4
558.927	513
559.332	514.4
559.736	516.8
560.162	518.2
560.566	507
560.992	520.6
561.396	517.4
561.801	513.4
562.227	525.6
562.631	511.8
563.036	517.8
563.462	519.6
563.867	514.6
564.272	500
564.698	508.2
565.103	506.6
565.508	522.8
565.935	506.8
566.34	508.6
566.745	514.2
567.172	506.8
567.577	525.8
567.982	518.2
568.409	513.8
568.815	494.6
569.22	510.6
569.626	515.2
570.053	499
570.459	524.6
570.865	512.8
571.292	523.6
571.698	512.6
572.104	503.8
572.531	510
572.937	514.6
573.343	512.8
573.75	507.8
574.177	516.6
574.583	516.6
574.99	502.4
575.396	515.2
575.824	514.6
576.231	509.4
576.637	515.8
577.065	530.6
577.472	517.2
577.879	509.2
578.286	525
578.714	508.6
579.121	516.2
579.528	513.2
579.935	513.6
580.364	502
580.771	503.4
581.178	511.8
581.585	509.6
582.014	528
582.421	514.2
582.829	506.2
583.236	521.2
583.644	507.6
584.073	510.6
584.481	519.8
584.889	511.4
585.296	517.8
585.726	516.6
586.134	502.6
586.542	509.2
586.95	528
587.358	502.6
587.787	514.2
588.196	507.6
588.604	518
589.012	515.6
589.421	504.8
589.851	508.2
590.259	515.6
590.668	515
591.076	534.4
591.485	503
591.894	506.4
592.324	528.2
592.733	520
593.142	506.2
593.551	515.4
593.96	540
594.369	503.4
594.8	508.4
595.209	515
595.618	500
596.028	504.4
596.437	505.2
596.847	513.4
597.256	513.6
597.687	515.4
598.097	513.6
598.507	503.6
598.917	516
599.327	515.2
599.736	515.4
600.146	528.6
600.556	518.8
600.988	524.6
601.398	509
601.808	527
602.219	509
602.629	514.6
603.039	510.6
603.45	531.8
603.86	511.6
604.271	526
604.703	515.6
605.114	512.8
605.525	514
605.935	513.6
606.346	527.8
606.757	518.8
607.168	508.6
607.579	510.4
607.99	517
608.402	514.2
608.813	513.8
609.224	515.6
609.636	504
610.047	506.4
610.48	525.2
610.892	522
611.303	518
611.715	506.6
612.127	508.2
612.539	508.4
612.95	511.4
613.362	504.2
613.774	501.6
614.186	511
614.599	510.8
615.011	522
615.423	514.4
615.835	510.6
616.248	509.8
616.66	517.2
617.073	507.4
617.485	505.8
617.898	519.4
618.311	512.8
618.723	513.4
619.136	529.2
619.549	527.2
619.962	531.6
620.375	508.2
620.788	517.4
621.201	514.4
621.614	523.2
622.028	517
622.441	511.4
622.854	522.6
623.268	507.8
623.681	518.6
624.095	517.4
624.509	518.8
624.922	520.8
625.336	514.4
625.728	520.2
626.142	523.2
626.556	525.8
626.97	517.4
627.384	508.8
627.799	518.8
628.213	526.6
628.627	512.4
629.041	508.2
629.456	511.2
629.87	512.8
630.285	522.2
630.699	523.8
631.093	512.8
631.507	522.6
631.922	524.8
632.337	525.4
632.752	517.8
633.167	520.4
633.582	510.2
633.997	508.8
634.412	509
634.806	515.4
635.221	507
635.637	526.4
636.052	515.4
636.468	521.2
636.883	521.4
637.299	503.4
637.715	502
638.109	507
638.525	504
638.941	522.4
639.357	519.8
639.773	518.4
640.189	509.4
640.584	504.8
641	513.2
641.416	501.6
641.832	505
642.249	507
642.665	521
643.06	504
643.477	522.4
643.894	498.4
644.31	505
644.727	507.6
645.123	501.8
645.54	508
645.957	513.8
646.374	524.8
646.77	508
647.187	534.2
647.604	507.2
648.021	499
648.439	511.4
648.835	508.2
649.252	502.4
649.67	509.6
650.088	508.6
650.484	513.8
650.902	516
651.32	518
651.738	507
652.134	516
652.552	529.2
652.971	525.2
653.389	509
653.786	521.4
654.204	514.4
654.622	504.6
655.019	515.8
655.438	512
655.857	510.4
656.275	515.4
656.673	506.6
657.091	517.8
657.51	508.6
657.908	518.4
658.327	525.4
658.746	506.4
659.144	509.2
659.563	520.2
659.982	509.2
660.38	504.2
660.8	511.2
661.219	518.6
661.617	515.8
662.037	498.6
662.457	507.4
662.855	493.6
663.275	529.2
663.695	502
664.094	496.8
664.514	505.6
664.934	503.2
665.333	513.2
665.753	505.6
666.152	499
666.572	503.2
666.993	516.6
667.392	509.4
667.812	503.4
668.212	510.6
668.632	519.2
669.053	504.4
669.453	507
669.874	513.6
670.273	501.8
670.694	503.8
671.116	510.2
671.515	514.6
671.937	499.8
672.337	504.2
672.758	505
673.158	510.6
673.58	495.4
673.98	509.2
674.402	519.4
674.824	499.6
675.224	499.4
675.646	494.4
676.047	505
676.469	509.8
676.869	509
677.292	513.8
677.693	504.6
678.115	501
678.516	507.4
678.939	510.2
679.34	506
679.762	516.4
680.164	517.4
680.586	498.2
680.988	503.4
681.411	516.6
681.812	514.6
682.236	502
682.637	493
683.061	499.2
683.462	510
683.864	503.8
684.288	513.6
684.69	503.4
685.114	516.8
685.516	514
685.94	504.4
686.342	513.2
686.766	495.4
687.168	503
687.571	517.8
687.995	507
688.398	501.8
688.822	506.4
689.225	520.6
689.628	525.4
690.052	504.2
690.456	508.2
690.88	511.6
691.284	498.6
691.687	510.6
692.112	495.4
692.515	499.4
692.919	507.8
693.344	514
693.747	505
694.173	500.4
694.577	518.6
694.98	498.8
695.406	505
695.81	512.4
696.214	511.6
696.64	513.6
697.044	506.6
697.448	517.4
697.874	504.4
698.279	507
698.684	496.4
699.11	500.4
699.514	507.2
699.919	507
700.324	508
700.75	503
701.156	508.2
701.561	515.8
701.987	508
702.393	513
702.798	517.2
703.203	509.6
703.63	501
704.036	495.2
704.442	502
704.847	502.6
705.274	505.2
705.68	507.8
706.086	507.6
706.492	496
706.92	513
707.326	516
707.732	504.8
708.139	491
708.545	501.6
708.973	492.8
709.38	505.2
709.786	500.8
710.193	510.8
710.6	508
711.028	496.8
711.435	510.2
711.842	509.8
712.249	498.6
712.656	502.2
713.064	516.4
713.492	500.4
713.9	503.2
714.307	504.8
714.715	505.8
715.123	508.8
715.53	501.2
715.938	504.6
716.367	509.8
716.775	499
717.184	499.4
717.592	498.6
718	518.2
718.408	532.4
718.816	539.6
719.225	509
719.633	508
720.042	501.2
720.472	513.2
720.881	518.6
721.29	509.2
721.699	502.6
722.108	510.2
722.517	505
722.926	499.6
723.335	508
723.744	508.4
724.154	504.2
724.563	506
724.973	504.2
725.382	497.8
725.792	513
726.202	494.2
726.612	518.2
727.022	512.2
727.432	504.8
779.813	503.6
780.223	535
780.634	505.4
781.044	502.2
781.454	497.6
781.865	514.2
782.276	496.8
782.686	512
783.097	500
783.508	504
783.919	500
784.33	508.4
784.741	518.4
785.152	492.4
785.563	491.8
785.974	495
786.386	513.2
786.776	496.4
787.188	506
787.599	497.2
788.011	510
788.423	502.4
788.835	492.2
789.247	487.8
789.659	497.4
790.071	496
790.483	529
790.874	504.8
791.286	502
791.699	492.2
792.111	501.6
792.524	497.4
792.937	498
793.349	492
793.741	499.4
794.154	501.6
794.567	508
794.98	501.6
795.393	488.6
795.785	509
796.198	497.6
796.612	499.2
797.026	504
797.439	488.6
797.831	503.6
798.245	496.2
798.659	497.2
799.073	500.8
799.487	502.8
799.88	502.8
800.294	502.4
800.708	508.8
801.123	501.6
801.516	521.8
801.93	496.6
802.345	500.4
802.76	501.4
803.153	516.8
803.568	511.8
803.983	510.4
804.377	511
804.792	490.6
805.207	489.8
805.601	508.8
806.016	527
806.432	495.2
806.826	523.4
807.242	506.8
807.658	500.2
808.052	500.6
808.468	498.8
808.884	498.6
809.279	493.2
809.695	511.4
810.111	519.4
810.506	504.4
810.922	508
811.339	493.2
811.734	503.2
812.151	493.6
812.546	500.6
812.963	493.4
813.38	502
813.776	496.2
814.193	514.4
814.589	499.2
815.006	493
815.402	498.8
815.82	497.4
816.237	499.4
816.633	504.8
817.051	492.6
817.448	485.6
817.866	494.2
818.262	511.4
818.68	498.6
819.077	500.4
819.495	499.6
819.892	536.6
820.311	497.4
820.708	492
821.127	495
821.524	508.8
821.943	500.2
822.34	504.8
822.759	497.2
823.157	500
823.576	510
823.974	497.4
824.393	587.2
824.791	486.2
825.189	496.8
825.609	501
826.007	502
826.427	489.6
826.826	492.2
827.246	493.2
827.644	490.4
828.043	508.4
828.463	497.2
828.862	501.2
829.261	498.6
829.682	490.2
830.081	502.8
830.502	494.8
830.901	499
831.301	497
831.722	486
832.121	499.6
832.521	493.8
832.943	501.4
833.342	497.8
833.742	496.8
834.164	498.4
834.564	491.8
834.965	501.8
835.386	497.8
835.787	500.6
836.188	509.4
836.588	497.6
837.01	493.4
837.411	495.8
837.812	507.2
838.213	503.8
838.636	498.8
839.037	559.4
839.438	501.4
839.84	506.8
840.263	506.6
840.664	498.4
841.066	499
841.468	498.6
841.891	496
842.293	509.2
842.695	510.8
843.098	508.2
843.5	490.4
843.902	499.4
844.326	501.6
844.729	502
845.131	510.8
845.534	498.8
845.937	508.2
846.34	509.4
846.764	497.6
847.167	499.4
847.571	497
847.974	498.4
848.377	500.4
848.781	542.4
849.184	508.4
849.588	495
849.992	502.6
850.396	499.6
850.821	517.2
851.225	503.8
851.63	490.2
852.034	515.4
852.438	494.6
852.843	558.6
853.247	490.2
853.652	496.8
854.057	516.4
854.462	507
854.867	496.6
855.272	527.8
855.677	498.8
856.082	485.6
856.487	494.2
856.893	502.4
857.298	495
