#lambda/nm	C1
208.295	465.8
208.67	434.2
209.045	397.6
209.419	394.4
209.794	543.6
210.169	518.4
210.544	625.2
210.919	542.2
211.295	530.6
211.67	536
212.045	531.4
212.421	529.2
212.796	569
213.172	531.6
213.547	540.6
213.923	536.8
214.299	528.4
214.675	541.4
215.051	540.2
215.427	543.6
215.803	551.8
216.179	541.6
216.555	535.6
216.932	544.2
217.308	542
217.684	536.8
218.061	549.2
218.438	539.4
218.814	532.4
219.191	542
219.568	535
219.945	532.8
220.322	542.4
220.699	543.6
221.076	541
221.453	539.4
221.83	531.2
222.208	528.4
222.585	524.2
222.962	534.2
223.34	541.6
223.717	534
224.095	531.8
224.473	546
224.851	528.2
225.229	523.8
225.607	542.4
225.985	529.6
226.363	542.4
226.741	534.8
227.119	527.8
227.497	546.4
227.876	531
228.254	537.2
228.633	547.2
229.011	535.8
229.39	544.4
229.769	540
230.148	542.8
230.527	561
230.905	538.2
231.284	543.4
231.664	531.8
232.043	550
232.422	543.8
232.801	532.8
233.181	542.4
233.56	545.6
233.94	537
234.319	524
234.699	532.2
235.079	567
235.458	561
235.838	541
236.218	526
236.598	528.8
236.978	524
237.358	528.2
237.738	537.8
238.119	533
238.499	529
238.88	534.8
239.26	535.2
239.641	527.6
240.021	529.2
240.402	540.8
240.783	523.4
241.163	531.8
241.544	536.8
241.925	527.8
242.306	545
242.687	530.4
243.069	535.4
243.45	544
243.831	536.2
244.212	532.2
244.594	561.6
244.975	543.2
245.357	540
245.739	530.6
246.12	533.2
246.502	546.2
246.884	536.4
247.266	538.6
247.648	531.8
248.03	555.8
248.412	533.4
248.794	542.2
249.176	532.6
249.559	539.2
249.941	532.4
250.323	527
250.706	532.8
251.089	541.4
251.471	539.4
251.854	538
252.237	535.4
252.62	541.6
253.002	544.2
253.385	543
253.769	546.6
254.152	546.4
254.535	542.4
254.918	527.4
255.301	529.2
255.685	531.4
256.068	526
256.452	555.8
256.835	549.8
257.219	541.6
257.603	546.8
257.986	533.8
258.37	546.2
258.754	534.2
259.138	542
259.522	549.6
259.906	534.2
260.29	541.4
260.675	525.8
261.059	529.4
261.443	523.2
261.828	537.2
262.212	533.2
262.597	522
262.981	526
263.366	535.4
263.751	536.6
264.136	535.4
264.521	534
264.906	524.4
265.291	539.2
265.676	525.2
266.061	537.6
266.446	548.6
266.831	532.4
267.217	545.6
267.602	541.6
267.987	543
268.373	528.8
268.759	544.8
269.144	542.2
269.53	538.8
269.916	527.6
270.302	535.8
270.688	535.4
271.074	539.8
271.46	538
271.846	563.6
272.232	543.6
272.618	533.8
273.004	531.4
273.391	552.2
273.777	548
274.164	535.2
274.55	555.4
274.937	536
275.324	542.6
275.71	539.2
276.097	547.2
276.484	542
276.871	535.2
277.258	538
277.645	532.8
278.032	536.2
278.419	536.4
278.807	539.2
279.194	525.4
279.581	532.8
279.969	543
280.356	536.4
280.744	537.6
281.131	554
281.519	540.6
281.907	532.2
282.295	540.2
282.682	549.8
283.07	534
283.458	544
283.846	544.6
284.235	546.6
284.623	540.2
285.011	531.4
285.399	539
285.788	536.2
286.176	520.2
286.565	546.2
286.953	531.4
287.342	542
287.731	526.4
288.119	536.2
288.508	538
288.897	535.2
289.286	525.2
289.675	539.4
290.064	541.4
290.453	537
290.821	534.6
291.21	543.2
291.599	535.4
291.989	533.2
292.378	539.2
292.768	555.6
293.157	543
293.547	540.6
293.936	533.4
294.326	531
294.716	541
295.106	530.4
295.496	544.4
295.886	547.6
296.276	536
296.666	530
297.056	528.6
297.446	529.6
297.836	545.4
298.227	543
298.617	533
299.008	537.4
299.398	536.8
299.789	533.4
300.179	537
300.57	544.8
300.961	531.4
301.352	535.4
301.742	528.6
302.133	536.2
302.524	537.4
302.915	542.2
303.307	533
303.698	532.6
304.089	537.2
304.48	531.2
304.872	539.6
305.263	535
305.655	526.4
306.046	542
306.438	544.4
306.829	532.2
307.221	546
307.613	547
308.005	545.4
308.397	548.8
308.789	555.6
309.181	548.4
309.573	545.4
309.965	551.6
310.357	538.6
310.749	544
311.142	526.6
311.534	535.8
311.926	541.2
312.319	533.8
312.711	528.2
313.104	547.4
313.497	539.6
313.889	573
314.282	548
314.675	556.2
315.068	541
315.461	538.8
315.854	558.8
316.247	542.2
316.64	536.8
317.033	535.4
317.405	539
317.798	530.2
318.192	535
318.585	522.2
318.979	532.2
319.372	521.8
319.766	532.6
320.16	548.2
320.553	547.6
320.947	556.6
321.341	532.8
321.735	533.2
322.129	531.6
322.523	563.2
322.917	530.4
323.311	546.2
323.705	538.4
324.099	541
324.494	550.6
324.888	550
325.282	533.4
325.677	546.4
326.071	539
326.466	538.4
326.861	536.6
327.255	547.2
327.65	545.8
328.045	549.8
328.44	535.6
328.835	541.4
329.23	538.2
329.625	553
330.02	537.4
330.415	553.2
330.81	533.4
331.206	535.2
331.601	536.2
331.996	537.8
332.37	555.4
332.766	526.8
333.161	554
333.557	534.8
333.953	537.4
334.348	758
334.744	537.8
335.14	529.6
335.536	522.2
335.932	546.4
336.328	534
336.724	542.8
337.12	537.2
337.516	534.8
337.913	533
338.309	537
338.705	526.4
339.102	548.4
339.498	531.8
339.895	544.6
340.291	532.4
340.688	537.4
341.085	526.6
341.481	534.2
341.878	535.2
342.275	548.4
342.672	529
343.069	528.8
343.466	522.4
343.842	537
344.239	531
344.636	533.6
345.033	531.6
345.431	524
345.828	534.2
346.225	527.4
346.623	557.2
347.02	536
347.418	544.2
347.816	551.4
348.213	519.6
348.611	532.2
349.009	534.6
349.407	547.8
349.805	522
350.203	521.6
350.601	547
350.999	535.2
351.397	584.4
351.795	532.4
352.193	542
352.57	540.2
352.969	546.4
353.367	531
353.766	533.6
354.164	535
354.563	543.2
354.961	539.8
355.36	526.8
355.759	537.2
356.158	531.4
356.557	524.4
356.956	522.2
357.355	523.2
357.754	537.6
358.153	536.6
358.552	546.6
358.951	528.4
359.35	540.8
359.75	522.4
360.149	525.4
360.527	520.2
360.926	518.2
361.326	526
361.726	531
362.125	521.8
362.525	536.2
362.925	524
363.325	532.4
363.724	528
364.124	522.6
364.524	527.6
364.924	525.2
365.324	536.2
365.725	516.6
366.125	536
366.525	527.6
366.904	530.8
367.304	519.6
367.705	538
368.105	536.2
368.506	523
368.906	532.2
369.307	523.4
369.708	532
370.108	515.6
370.509	537.8
370.91	522.2
371.311	528.2
371.712	533.8
372.113	528.2
372.514	520.6
372.894	521.4
373.295	523.8
373.696	533.8
374.097	529
374.499	552.6
374.9	524
375.301	526.8
375.703	526.6
376.105	521.8
376.506	526.4
376.908	529.6
377.309	532.2
377.711	529
378.113	525.6
378.493	528.6
378.895	522.6
379.297	544.2
379.699	514.2
380.102	542
380.504	531.2
380.906	523.8
381.308	548
381.71	522
382.113	541
382.515	532.2
382.918	527.6
383.299	534.4
383.701	540.2
384.104	532.6
384.507	515.6
384.909	532.8
385.312	522.4
385.715	520.4
386.118	526.4
386.521	519
386.924	534.2
387.327	524.6
387.709	522
388.112	517.6
388.515	528.2
388.918	530.2
389.322	532.4
389.725	522.6
390.129	551.2
390.532	528.2
390.936	526
391.339	523.8
391.743	534
392.125	523.4
392.529	535.4
392.933	537.2
393.337	529.8
393.74	531.2
394.144	527.2
394.548	523.8
394.953	522.4
395.357	532.8
395.761	526.6
396.144	527.2
396.548	531
396.952	526.6
397.357	530.4
397.761	526
398.166	521.6
398.57	518.4
398.975	512.4
399.379	536.4
399.763	564.8
400.168	520.6
400.572	530.8
400.977	522
401.382	547.4
401.787	530.4
402.192	542.2
402.597	542.2
403.002	518.6
403.386	541.6
403.791	537
404.197	518.2
404.602	525
405.007	530.2
405.413	524.6
405.818	531.2
406.224	521.8
406.608	526.4
407.014	516
407.42	542.4
407.825	530.8
408.231	526
408.637	521.2
409.043	538.8
409.449	526.8
409.834	517.2
410.24	537.8
410.646	539
411.052	538
411.458	537.6
411.865	533.4
412.271	529
412.677	534.8
413.062	531.2
413.469	519.2
413.875	541.8
414.282	530.8
414.689	529.2
415.095	530.8
415.502	519.8
415.888	521.8
416.294	519.2
416.701	560.8
417.108	528.2
417.515	530.2
417.923	520.2
418.33	541
418.715	531.8
419.123	529.8
419.53	526.2
419.937	521.6
420.345	534.8
420.752	524.4
421.16	539.4
421.546	534.2
421.953	541
422.361	521.2
422.769	530.6
423.177	525
423.585	556.2
423.992	546
424.379	538
424.787	528.8
425.195	544.6
425.603	528.8
426.011	531.8
426.419	543.4
426.806	533
427.214	526
427.623	537.6
428.031	545.8
428.44	534.2
428.848	540.4
429.235	544.2
429.644	534.6
430.053	533.2
430.461	533
430.87	553.2
431.279	531.8
431.666	520.6
432.075	525.4
432.484	529.2
432.893	521
433.302	536.2
433.711	548.4
434.099	529
434.508	516.8
434.918	523.8
435.327	531.6
435.737	523
436.125	535.8
436.534	533
436.944	537.2
437.353	531.4
437.763	537
438.173	516.8
438.561	529.6
438.971	524.8
439.381	524.4
439.791	528.8
440.201	515.4
440.589	528.6
440.999	531.2
441.409	521.4
441.819	527.6
442.23	534
442.619	532
443.029	516.2
443.439	527
443.85	539.6
444.26	537.2
444.649	540.6
445.06	525.8
445.471	519.8
445.881	525.8
446.292	537.8
446.682	536.2
447.092	517.8
447.503	569.6
447.914	526.6
448.325	528.6
448.715	526
449.126	523.8
449.537	527.6
449.948	531.4
450.338	524.2
450.75	527
451.161	533.4
451.572	545.6
451.984	517.4
452.374	517.8
452.786	527.8
453.197	526.8
453.609	534
453.999	516
454.411	522.8
454.823	537.6
455.235	533.6
455.647	523
456.037	529.6
456.449	517.6
456.862	531
457.274	521.8
457.665	513.8
458.077	525
458.489	544.2
458.902	521.4
459.293	521.2
459.705	517
460.118	513.4
460.53	525
460.921	520.8
461.334	523.4
461.747	512.2
462.16	530
462.551	531.2
462.964	532
463.377	512.6
463.79	517.8
464.182	528.4
464.595	509.2
465.008	533.2
465.421	533
465.813	524.2
466.226	526.2
466.64	519.6
467.053	559.6
467.445	527.4
467.859	535
468.272	520.8
468.686	536.4
469.078	525.8
469.492	513
469.906	525.6
470.298	526.2
470.712	514.8
471.126	550
471.54	505.8
471.933	515.4
472.347	516.4
472.761	513
473.175	516.6
473.568	521
473.982	523.6
474.397	521.4
474.79	521.2
475.204	530.2
475.619	520
476.033	526.6
476.426	514.6
476.841	515.4
477.256	541.2
477.649	512.4
478.064	516
478.479	515.6
478.872	519.8
479.287	506
479.702	515.8
480.118	522.4
480.511	513.6
480.927	515.2
481.342	517.2
481.736	526
482.151	518.4
482.566	535.4
482.96	514.2
483.376	526.2
483.792	514.8
484.186	525.2
484.602	522
485.017	518.4
485.412	522.2
485.827	524.8
486.243	521.8
486.638	537.4
487.054	517.6
487.47	541.2
487.865	517.2
488.281	516.4
488.697	523.6
489.092	516
489.508	517.8
489.925	529.8
490.32	517.6
490.736	529.2
491.153	519.2
491.548	515.6
491.964	531
492.381	505.2
492.776	519.6
493.193	517.4
493.61	527.8
494.006	523.6
494.422	521.6
494.84	514.6
495.235	524.8
495.652	511.4
496.069	512.8
496.465	506.8
496.883	513.4
497.3	540.4
497.696	510.8
498.113	524
498.509	505
498.927	517.8
499.344	512.4
499.741	510.2
500.158	520
500.576	526.2
500.973	523.8
501.39	501.4
501.787	506.2
502.205	511.8
502.623	521.8
503.02	514.6
503.438	514.2
503.856	517.4
504.253	520.2
504.671	523.2
505.068	508
505.486	521.8
505.905	532.6
506.302	519
506.72	529.2
507.118	510.4
507.536	511.4
507.955	515
508.352	526.6
508.771	514.6
509.169	519.6
509.587	517.2
510.006	517.2
510.404	512
510.823	514.6
511.221	515
511.64	511
512.038	528.4
512.457	514
512.877	516.8
513.275	511.2
513.694	516.6
514.092	508.8
514.512	518
514.91	520.4
515.33	513
515.749	519.8
516.148	521.6
516.568	528.8
516.966	519.4
517.386	515.4
517.785	527.4
518.205	506
518.603	511.2
519.024	508
519.444	521.2
519.843	524.2
520.263	517.6
520.662	525.8
521.082	511.6
521.481	512.6
521.902	517.6
522.301	516.2
522.722	515.6
523.121	521
523.542	514.2
523.963	520.2
524.362	514
524.783	516
525.183	518.2
525.604	516.6
526.003	509.8
526.425	515
526.824	518
527.246	521.4
527.646	518.2
528.067	517.2
528.467	515.8
528.888	514.2
529.289	504.8
529.71	514.6
530.11	510.4
530.532	511.4
530.932	510.4
531.354	506.4
531.755	536.8
532.176	519.8
532.577	516.4
532.999	524.2
533.4	508.6
533.822	519.8
534.223	521.4
534.645	510.2
535.046	509.2
535.468	514.2
535.869	523.4
536.292	507.4
536.693	543.8
537.115	518.2
537.516	514
537.939	510.6
538.34	536.6
538.742	520.8
539.165	520.6
539.566	521
539.989	511.4
540.391	516.8
540.814	518.2
541.216	515
541.639	513.8
542.041	522.2
542.464	510.4
542.866	506.6
543.268	503.4
543.691	521
544.093	530
544.517	530.8
544.919	510.2
545.343	534.8
545.745	515.2
546.147	517.2
546.571	511.8
546.974	515.2
547.398	513.4
547.8	525
548.224	516.6
548.627	513.8
549.03	521.2
549.454	513
549.857	508.8
550.281	519.6
550.684	514.4
551.087	514.4
551.512	516.8
551.915	521.2
552.34	515.4
552.743	516.4
553.146	514.2
553.571	513.2
553.975	531
554.399	498.6
554.803	547.8
555.207	513.6
555.632	512.6
556.036	516.4
556.461	501.6
556.865	509.8
557.268	509.6
557.694	504.8
558.098	515
558.502	518
558.927	505.2
559.332	505.4
559.736	507.4
560.162	514.6
560.566	503.8
560.992	519
561.396	514.2
561.801	515.4
562.227	519.8
562.631	513.4
563.036	518.6
563.462	515.8
563.867	515
564.272	500.8
564.698	517.8
565.103	503.6
565.508	536.6
565.935	514.2
566.34	510.6
566.745	527.4
567.172	509.8
567.577	536.6
567.982	524.8
568.409	520.8
568.815	508
569.22	510.2
569.626	524.8
570.053	504
570.459	514
570.865	518.6
571.292	521.4
571.698	517.6
572.104	505
572.531	511.8
572.937	530.6
573.343	512.4
573.75	503.6
574.177	515.4
574.583	519
574.99	505.6
575.396	515.4
575.824	508
576.231	518.6
576.637	513.8
577.065	538.2
577.472	511
577.879	511.4
578.286	525.4
578.714	511.4
579.121	508.6
579.528	513.6
579.935	520
580.364	517.8
580.771	503
581.178	506.6
581.585	512.2
582.014	520.2
582.421	508.4
582.829	510.8
583.236	520.2
583.644	515
584.073	507.8
584.481	518.2
584.889	506.8
585.296	518.4
585.726	513.8
586.134	508.6
586.542	507
586.95	526.6
587.358	506.8
587.787	510.4
588.196	510.4
588.604	512.4
589.012	513
589.421	505
589.851	505
590.259	519.6
590.668	510.2
591.076	545.8
591.485	512
591.894	513.4
592.324	519.6
592.733	524.4
593.142	501.4
593.551	503
593.96	542.6
594.369	502
594.8	507
595.209	513.8
595.618	497
596.028	498
596.437	504.4
596.847	503.2
597.256	508.8
597.687	516.2
598.097	511.8
598.507	500.6
598.917	510.8
599.327	513.8
599.736	523.6
600.146	522.6
600.556	517
600.988	519.6
601.398	502.2
601.808	516
602.219	499.4
602.629	508.6
603.039	512.6
603.45	532.8
603.86	515.6
604.271	523.4
604.703	517
605.114	510.4
605.525	516
605.935	514
606.346	529.4
606.757	516.2
607.168	504.8
607.579	505.8
607.99	522
608.402	512.4
608.813	519.2
609.224	511.4
609.636	512.6
610.047	506.8
610.48	511.6
610.892	515.8
611.303	515.4
611.715	513
612.127	506.2
612.539	508
612.95	513
613.362	501.8
613.774	499.8
614.186	507.8
614.599	501.6
615.011	523.6
615.423	517.4
615.835	509.2
616.248	499.8
616.66	526
617.073	505
617.485	511.6
617.898	519.4
618.311	517
618.723	513.8
619.136	542.8
619.549	525.6
619.962	529.8
620.375	516.4
620.788	515
621.201	502.6
621.614	521.6
622.028	524.4
622.441	511.8
622.854	521.4
623.268	514.6
623.681	518.4
624.095	519.2
624.509	523.4
624.922	521.6
625.336	500.6
625.728	513.6
626.142	514.4
626.556	521.2
626.97	517.6
627.384	508.2
627.799	509.8
628.213	522.6
628.627	514.4
629.041	508.4
629.456	510.2
629.87	513.6
630.285	522
630.699	521.8
631.093	504.4
631.507	518.6
631.922	514.4
632.337	525
632.752	512
633.167	508.4
633.582	504.2
633.997	513
634.412	504.2
634.806	514
635.221	501
635.637	523.6
636.052	497.4
636.468	513.6
636.883	523.2
637.299	512.4
637.715	503.4
638.109	509.6
638.525	506.8
638.941	515
639.357	510.4
639.773	523.4
640.189	508.4
640.584	506.2
641	509.2
641.416	509
641.832	505.6
642.249	507.2
642.665	513.8
643.06	520.4
643.477	520.2
643.894	497.2
644.31	507.6
644.727	510.8
645.123	510.4
645.54	507.4
645.957	516.4
646.374	518.8
646.77	514.6
647.187	540.2
647.604	513.8
648.021	496.6
648.439	505.2
648.835	513.2
649.252	511.6
649.67	509.6
650.088	508.8
650.484	511.4
650.902	508.8
651.32	514
651.738	503.8
652.134	511.6
652.552	520.6
652.971	512.2
653.389	504.8
653.786	521.6
654.204	507
654.622	497.2
655.019	508.2
655.438	507.2
655.857	510.2
656.275	509
656.673	508.4
657.091	509.6
657.51	497
657.908	517
658.327	510.2
658.746	500.8
659.144	499.4
659.563	524.6
659.982	502.4
660.38	497.4
660.8	504.2
661.219	521.8
661.617	510.8
662.037	506.4
662.457	522.2
662.855	494.8
663.275	525
663.695	509.2
664.094	505.8
664.514	511.6
664.934	503.8
665.333	513.6
665.753	506.6
666.152	499
666.572	509.8
666.993	513.6
667.392	509.6
667.812	512
668.212	503.2
668.632	518
669.053	506.8
669.453	510
669.874	517.2
670.273	506.6
670.694	495.2
671.116	524.2
671.515	512.6
671.937	505.2
672.337	499.8
672.758	503.8
673.158	507.2
673.58	503.4
673.98	513.8
674.402	513.8
674.824	503
675.224	511.6
675.646	493.2
676.047	507
676.469	510.6
676.869	506.6
677.292	515.6
677.693	501
678.115	500.4
678.516	515.8
678.939	505.6
679.34	509.6
679.762	517.8
680.164	514.4
680.586	504.8
680.988	517.8
681.411	524.6
681.812	509.6
682.236	503
682.637	500.2
683.061	497.2
683.462	510.2
683.864	505.4
684.288	514.2
684.69	491.2
685.114	517.6
685.516	507.2
685.94	494.8
686.342	513.2
686.766	496.6
687.168	500.4
687.571	516.8
687.995	508.6
688.398	499.2
688.822	496.4
689.225	524
689.628	510.8
690.052	507.6
690.456	507.6
690.88	502.8
691.284	498.2
691.687	512.8
692.112	498.8
692.515	499.6
692.919	503.6
693.344	507
693.747	502.4
694.173	496.4
694.577	510.4
694.98	506
695.406	496
695.81	507.4
696.214	517
696.64	505.6
697.044	508.6
697.448	513.2
697.874	503.4
698.279	508.2
698.684	496.2
699.11	500.4
699.514	503
699.919	499.6
700.324	496.4
700.75	504
701.156	510.4
701.561	518
701.987	517
702.393	512.2
702.798	509.8
703.203	502.8
703.63	499.8
704.036	499.4
704.442	505
704.847	491.4
705.274	503.4
705.68	506.6
706.086	509.6
706.492	502.8
706.92	500.4
707.326	512.4
707.732	499
708.139	499.8
708.545	496.8
708.973	498.2
709.38	505.6
709.786	495.4
710.193	509.8
710.6	506.2
711.028	493.6
711.435	498.6
711.842	507.6
712.249	499.6
712.656	501.8
713.064	506.2
713.492	501
713.9	503.2
714.307	504
714.715	496.4
715.123	509.2
715.53	505.4
715.938	511
716.367	507.8
716.775	502.8
717.184	497.4
717.592	506.2
718	509.8
718.408	534.4
718.816	548.2
719.225	502.8
719.633	500.4
720.042	499.4
720.472	505.8
720.881	516
721.29	508.8
721.699	506.8
722.108	504.2
722.517	499.6
722.926	500
723.335	507
723.744	502
724.154	505.8
724.563	503.6
724.973	504.6
725.382	495.2
725.792	499.6
726.202	496.6
726.612	505.6
727.022	503.4
727.432	506.6
779.813	503.2
780.223	538.2
780.634	502.6
781.044	497.4
781.454	506.2
781.865	507.4
782.276	494.2
782.686	506.4
783.097	496.8
783.508	490.8
783.919	503.6
784.33	507.8
784.741	514.2
785.152	499.8
785.563	494.6
785.974	502
786.386	511.2
786.776	504.4
787.188	505.2
787.599	500
788.011	500.8
788.423	504.8
788.835	498.6
789.247	496.8
789.659	490.4
790.071	503.6
790.483	533.4
790.874	506
791.286	500.8
791.699	501
792.111	505.8
792.524	500.4
792.937	500.6
793.349	495.4
793.741	497.2
794.154	497.2
794.567	516.8
794.98	501
795.393	501.8
795.785	520.8
796.198	498.2
796.612	500
797.026	493.4
797.439	492.2
797.831	504.6
798.245	495.6
798.659	500.4
799.073	495
799.487	498.2
799.88	499.6
800.294	506
800.708	503.2
801.123	497.4
801.516	515.4
801.93	484.2
802.345	486.6
802.76	495.4
803.153	503.8
803.568	507.2
803.983	505
804.377	497.4
804.792	482
805.207	484.4
805.601	495.8
806.016	524
806.432	497.4
806.826	522
807.242	517
807.658	502.8
808.052	495
808.468	497.6
808.884	494.8
809.279	500
809.695	502.2
810.111	517.8
810.506	505.6
810.922	517.4
811.339	493.4
811.734	508.2
812.151	507.4
812.546	492.2
812.963	492.8
813.38	506.2
813.776	505
814.193	522.8
814.589	494.8
815.006	495.2
815.402	496.8
815.82	497
816.237	504.8
816.633	503.2
817.051	494.2
817.448	498.2
817.866	503.6
818.262	515.8
818.68	496.2
819.077	502.4
819.495	501.8
819.892	536.2
820.311	493.8
820.708	498.2
821.127	500.2
821.524	512
821.943	502.4
822.34	520.6
822.759	508.6
823.157	501.6
823.576	506.8
823.974	513.6
824.393	582.8
824.791	496.6
825.189	489
825.609	495.8
826.007	496.2
826.427	493
826.826	489.4
827.246	500.4
827.644	491.4
828.043	506.2
828.463	493.6
828.862	505
829.261	502.6
829.682	489.6
830.081	498
830.502	490.4
830.901	501.6
831.301	497
831.722	492.6
832.121	498.4
832.521	495.8
832.943	507.8
833.342	503.8
833.742	495
834.164	494.4
834.564	494.6
834.965	498.2
835.386	495.4
835.787	497.2
836.188	498
836.588	495.6
837.01	493.8
837.411	491.6
837.812	505.6
838.213	504.8
838.636	496.2
839.037	551.2
839.438	498
839.84	503
840.263	510.8
840.664	508.8
841.066	497
841.468	500
841.891	491.2
842.293	509.8
842.695	504.8
843.098	514.8
843.5	498.2
843.902	501.4
844.326	505.6
844.729	501
845.131	510.2
845.534	505.2
845.937	504.4
846.34	508.2
846.764	492.2
847.167	500
847.571	489.6
847.974	496.2
848.377	501.8
848.781	536.4
849.184	518.8
849.588	495.4
849.992	490.6
850.396	499
850.821	519.8
851.225	499.8
851.63	491.6
852.034	512.4
852.438	495.4
852.843	574.4
853.247	494.2
853.652	483.4
854.057	513.8
854.462	495
854.867	501.8
855.272	526
855.677	499
856.082	493.4
856.487	493.2
