#lambda/nm	C1
208.295	472.4
208.67	434.6
209.045	394.8
209.419	400.4
209.794	542.2
210.169	531.8
210.544	639
210.919	537.2
211.295	528.2
211.67	539.2
212.045	537.2
212.421	532
212.796	553.8
213.172	525.2
213.547	535.2
213.923	541.6
214.299	539.6
214.675	543.8
215.051	541.2
215.427	545
215.803	546
216.179	543.6
216.555	537.6
216.932	545.4
217.308	537.6
217.684	536.2
218.061	543
218.438	538
218.814	533.8
219.191	546.4
219.568	537.6
219.945	534.6
220.322	538
220.699	539.6
221.076	553
221.453	535.8
221.83	527.6
222.208	530.8
222.585	535.2
222.962	539
223.34	541.6
223.717	543.6
224.095	537.6
224.473	535.4
224.851	528
225.229	533.8
225.607	549.6
225.985	536.2
226.363	542
226.741	538.4
227.119	533.6
227.497	552.2
227.876	527.6
228.254	540
228.633	541
229.011	541
229.39	541.2
229.769	538.8
230.148	543
230.527	553
230.905	537.6
231.284	544.6
231.664	539
232.043	549.2
232.422	540
232.801	536.2
233.181	541.2
233.56	542.6
233.94	539.2
234.319	525.6
234.699	538.2
235.079	573.2
235.458	570
235.838	541.6
236.218	531.8
236.598	527.8
236.978	534.6
237.358	533.2
237.738	535.8
238.119	543.6
238.499	532.6
238.88	533.6
239.26	548.2
239.641	529.6
240.021	539
240.402	540.2
240.783	536.8
241.163	533.2
241.544	541
241.925	535.4
242.306	540.8
242.687	542.4
243.069	542.2
243.45	545.4
243.831	531.8
244.212	536.4
244.594	564.4
244.975	546.2
245.357	537.2
245.739	535.6
246.12	540.6
246.502	539.4
246.884	539.8
247.266	541
247.648	534
248.03	555.2
248.412	534.8
248.794	541.8
249.176	535.6
249.559	543.4
249.941	535.2
250.323	525.8
250.706	526.8
251.089	537.4
251.471	544.2
251.854	532.4
252.237	535.4
252.62	543.8
253.002	536.8
253.385	532.8
253.769	546.8
254.152	530.2
254.535	540.8
254.918	531.2
255.301	535
255.685	521.4
256.068	529.4
256.452	549.4
256.835	542.8
257.219	537.4
257.603	547.8
257.986	529.4
258.37	539.6
258.754	521
259.138	547.4
259.522	545.8
259.906	536.4
260.29	537
260.675	538.8
261.059	539.8
261.443	521.6
261.828	543.6
262.212	537.6
262.597	521.4
262.981	530.6
263.366	535.8
263.751	533.4
264.136	530.8
264.521	530.2
264.906	532.8
265.291	545.4
265.676	538.8
266.061	540
266.446	555.2
266.831	536.8
267.217	553.8
267.602	540.6
267.987	540.8
268.373	535.2
268.759	543.8
269.144	542.6
269.53	540.6
269.916	535.8
270.302	534.4
270.688	546.2
271.074	537.6
271.46	541.4
271.846	554.6
272.232	540.4
272.618	532.6
273.004	536.2
273.391	546.6
273.777	541.8
274.164	542.4
274.55	545
274.937	542.8
275.324	536.2
275.71	538.2
276.097	542.2
276.484	535.6
276.871	540.8
277.258	538.6
277.645	532.8
278.032	539.4
278.419	530.2
278.807	544.4
279.194	520
279.581	530.8
279.969	541.6
280.356	539.4
280.744	530.2
281.131	558.6
281.519	551
281.907	532.4
282.295	541.8
282.682	555.6
283.07	544.8
283.458	541.8
283.846	554.6
284.235	548.2
284.623	548.6
285.011	529.8
285.399	539.4
285.788	539
286.176	528.6
286.565	546.4
286.953	531.2
287.342	527
287.731	524.6
288.119	530
288.508	534.8
288.897	538.4
289.286	524.4
289.675	529.6
290.064	544.6
290.453	532.4
290.821	546.2
291.21	547.4
291.599	535.6
291.989	542.6
292.378	545.2
292.768	556.2
293.157	542.2
293.547	553
293.936	535.4
294.326	534.4
294.716	532.6
295.106	531
295.496	539
295.886	546.2
296.276	536
296.666	524.8
297.056	527.4
297.446	523.6
297.836	557.8
298.227	534.2
298.617	544
299.008	547.6
299.398	541
299.789	537.2
300.179	542.8
300.57	547.8
300.961	536.6
301.352	533.2
301.742	538
302.133	543.4
302.524	533.4
302.915	538
303.307	534.6
303.698	545.6
304.089	539.2
304.48	528.8
304.872	544.2
305.263	539.6
305.655	527.4
306.046	541
306.438	538.8
306.829	532.4
307.221	547
307.613	543
308.005	542.8
308.397	548.4
308.789	553.8
309.181	561
309.573	542.4
309.965	540
310.357	533.4
310.749	546.8
311.142	528.4
311.534	537.6
311.926	542.6
312.319	537.8
312.711	534.2
313.104	544.8
313.497	534.8
313.889	571.4
314.282	545.4
314.675	556
315.068	545.8
315.461	543
315.854	568
316.247	543.6
316.64	537.6
317.033	538.6
317.405	545.4
317.798	542.4
318.192	542.2
318.585	527.4
318.979	537.2
319.372	527.6
319.766	530.8
320.16	548.2
320.553	554.6
320.947	551.8
321.341	535.2
321.735	543.4
322.129	522.8
322.523	561.8
322.917	528
323.311	552.6
323.705	534.8
324.099	545.6
324.494	549.6
324.888	551.2
325.282	534.4
325.677	552
326.071	557.6
326.466	546.2
326.861	539.2
327.255	548.8
327.65	556.6
328.045	553.6
328.44	540.6
328.835	536.6
329.23	537.2
329.625	559.2
330.02	532.6
330.415	550.4
330.81	547.2
331.206	543
331.601	540.4
331.996	542.4
332.37	547.2
332.766	526.8
333.161	559.2
333.557	538.4
333.953	535.8
334.348	834.2
334.744	550.2
335.14	527
335.536	530.8
335.932	546
336.328	536.6
336.724	545.6
337.12	533.6
337.516	544.2
337.913	529.8
338.309	556.6
338.705	536.4
339.102	544.4
339.498	526.8
339.895	553.2
340.291	537.8
340.688	546.4
341.085	529.4
341.481	540.2
341.878	530.8
342.275	556.4
342.672	529.6
343.069	533.4
343.466	518.8
343.842	539.4
344.239	533.6
344.636	537.8
345.033	527
345.431	537.6
345.828	528.2
346.225	527.2
346.623	565.2
347.02	533.4
347.418	546.8
347.816	545.6
348.213	530.2
348.611	536.4
349.009	532.4
349.407	544
349.805	534
350.203	526.6
350.601	549
350.999	530.6
351.397	583.6
351.795	531.2
352.193	544.8
352.57	537.4
352.969	540.6
353.367	523.2
353.766	531.2
354.164	532.4
354.563	538.6
354.961	527.6
355.36	536.6
355.759	528.2
356.158	528.2
356.557	527
356.956	523.2
357.355	521.6
357.754	526.8
358.153	534.8
358.552	550.8
358.951	525
359.35	534.4
359.75	527.4
360.149	515.6
360.527	522.4
360.926	522.8
361.326	523.8
361.726	532.4
362.125	523.4
362.525	538.6
362.925	524.2
363.325	531.2
363.724	533.4
364.124	536.2
364.524	525.2
364.924	523
365.324	545.8
365.725	521.2
366.125	536.2
366.525	527.2
366.904	517.2
367.304	515
367.705	544.4
368.105	540.8
368.506	526.6
368.906	527.4
369.307	520.8
369.708	542.4
370.108	521.4
370.509	541
370.91	519.2
371.311	527.6
371.712	537.8
372.113	529.8
372.514	524.2
372.894	533.6
373.295	529.8
373.696	537.8
374.097	533.2
374.499	553
374.9	528.4
375.301	526.2
375.703	526
376.105	523
376.506	532.2
376.908	530.2
377.309	534.6
377.711	541
378.113	526.4
378.493	538.2
378.895	525.6
379.297	539.2
379.699	524.2
380.102	540.6
380.504	534.6
380.906	525.4
381.308	550.2
381.71	527.8
382.113	542.6
382.515	524.4
382.918	530.8
383.299	534.8
383.701	535.8
384.104	532.4
384.507	517.8
384.909	522.4
385.312	521.6
385.715	523.4
386.118	533.8
386.521	524
386.924	539.2
387.327	527.4
387.709	522
388.112	516.4
388.515	528.4
388.918	527.4
389.322	531
389.725	529.6
390.129	543.8
390.532	530.4
390.936	530.4
391.339	516.2
391.743	531.6
392.125	521.4
392.529	542.8
392.933	540.2
393.337	527.8
393.74	520.6
394.144	523
394.548	525.4
394.953	530.2
395.357	534.4
395.761	526.6
396.144	533.6
396.548	528.4
396.952	528
397.357	523.2
397.761	526.6
398.166	523.8
398.57	528.4
398.975	524.8
399.379	525.2
399.763	564.2
400.168	535
400.572	525.2
400.977	522.8
401.382	538.8
401.787	531.4
402.192	545
402.597	539.6
403.002	514.2
403.386	540
403.791	541.8
404.197	527.4
404.602	528.2
405.007	525.6
405.413	522.2
405.818	529.8
406.224	521.6
406.608	526.4
407.014	521.8
407.42	541.8
407.825	516
408.231	538.2
408.637	528
409.043	543.6
409.449	524.4
409.834	513.6
410.24	531
410.646	536.6
411.052	535.4
411.458	520.6
411.865	534.6
412.271	543.2
412.677	525.6
413.062	539.4
413.469	522.4
413.875	547.4
414.282	540.8
414.689	536
415.095	531
415.502	524.4
415.888	529.8
416.294	518.2
416.701	563.4
417.108	520.2
417.515	538.2
417.923	522.6
418.33	549.6
418.715	540.2
419.123	534.8
419.53	528.8
419.937	529.4
420.345	541.4
420.752	526.2
421.16	538.2
421.546	526
421.953	535.6
422.361	527.4
422.769	524.2
423.177	530.8
423.585	549.2
423.992	546.6
424.379	541.6
424.787	534.8
425.195	541
425.603	530.4
426.011	535.4
426.419	554
426.806	535
427.214	531
427.623	542
428.031	546.6
428.44	535
428.848	539.4
429.235	536
429.644	538
430.053	531.6
430.461	544.2
430.87	550.4
431.279	542
431.666	532
432.075	531.8
432.484	533.2
432.893	532.2
433.302	544.2
433.711	560.4
434.099	536.4
434.508	524.6
434.918	524.2
435.327	536
435.737	532.2
436.125	526.6
436.534	529
436.944	532.6
437.353	538.2
437.763	545.4
438.173	534.4
438.561	543.6
438.971	511
439.381	534
439.791	526.4
440.201	515.8
440.589	530.2
440.999	524.4
441.409	531.8
441.819	518.2
442.23	527.4
442.619	531
443.029	534.6
443.439	527.4
443.85	541
444.26	540.2
444.649	538
445.06	534.4
445.471	527
445.881	526.4
446.292	538
446.682	544.2
447.092	519
447.503	566.8
447.914	523.4
448.325	532.4
448.715	528.6
449.126	523
449.537	517.2
449.948	524.4
450.338	529.8
450.75	524.6
451.161	532
451.572	531.6
451.984	519.6
452.374	518.4
452.786	523.4
453.197	528.2
453.609	532.8
453.999	511.4
454.411	518.4
454.823	530
455.235	526.2
455.647	520.8
456.037	528.6
456.449	515
456.862	525.8
457.274	520
457.665	517.8
458.077	523
458.489	546.2
458.902	517
459.293	534.4
459.705	527
460.118	527.4
460.53	523.6
460.921	527.2
461.334	527.4
461.747	522.4
462.16	533.2
462.551	532.6
462.964	526.4
463.377	521.4
463.79	524.8
464.182	532.2
464.595	516.4
465.008	528.8
465.421	525.2
465.813	525.2
466.226	532.6
466.64	527.6
467.053	567.8
467.445	529.8
467.859	536.8
468.272	521.8
468.686	532
469.078	521.8
469.492	511.6
469.906	525
470.298	533.4
470.712	520.6
471.126	544.6
471.54	516.8
471.933	521.8
472.347	520.2
472.761	514.6
473.175	516.2
473.568	522
473.982	513.8
474.397	527.4
474.79	529.8
475.204	526
475.619	518.4
476.033	530.6
476.426	526.4
476.841	515.4
477.256	545
477.649	519.2
478.064	519.2
478.479	516.8
478.872	514.6
479.287	513.6
479.702	510
480.118	514.4
480.511	527.8
480.927	519.4
481.342	517.4
481.736	527
482.151	520.4
482.566	532.4
482.96	523.4
483.376	527.2
483.792	517.8
484.186	516.4
484.602	521
485.017	518
485.412	514.8
485.827	522.2
486.243	517.8
486.638	547.2
487.054	532.4
487.47	543.2
487.865	517
488.281	520.4
488.697	517
489.092	521
489.508	516.2
489.925	526.4
490.32	510.2
490.736	529.8
491.153	521
491.548	521.4
491.964	526.8
492.381	503.6
492.776	520
493.193	524.8
493.61	527.4
494.006	521.2
494.422	524.4
494.84	512.6
495.235	530.2
495.652	521.4
496.069	520.4
496.465	514
496.883	526.6
497.3	547
497.696	509.4
498.113	522
498.509	506.2
498.927	508.2
499.344	513.8
499.741	507.4
500.158	519
500.576	528.4
500.973	512.2
501.39	516.2
501.787	511.2
502.205	516.6
502.623	520.8
503.02	516.8
503.438	515.2
503.856	512.8
504.253	523.8
504.671	521.8
505.068	514.4
505.486	511.2
505.905	533.4
506.302	520.8
506.72	523
507.118	512.8
507.536	520.6
507.955	514.2
508.352	518.4
508.771	527.8
509.169	520.2
509.587	513.8
510.006	520.4
510.404	509.2
510.823	511
511.221	510.6
511.64	514.4
512.038	531
512.457	515.8
512.877	525.6
513.275	521.2
513.694	519.6
514.092	514.2
514.512	523
514.91	526
515.33	523.2
515.749	520
516.148	520.4
516.568	521.2
516.966	524.8
517.386	512.4
517.785	522.6
518.205	519.6
518.603	515.6
519.024	510.6
519.444	520.6
519.843	526
520.263	528.8
520.662	517
521.082	515
521.481	518.8
521.902	515.6
522.301	514.8
522.722	522
523.121	517.8
523.542	517.8
523.963	517.4
524.362	515
524.783	527
525.183	516.2
525.604	528
526.003	514.6
526.425	516
526.824	528.8
527.246	525.8
527.646	524.2
528.067	521.8
528.467	522.6
528.888	522.2
529.289	521.4
529.71	513.4
530.11	518
530.532	510.2
530.932	509.2
531.354	508.6
531.755	545.6
532.176	526
532.577	514
532.999	514.2
533.4	516.4
533.822	527.4
534.223	519.2
534.645	507.6
535.046	518.2
535.468	517
535.869	529.4
536.292	508.8
536.693	542.6
537.115	517.8
537.516	513.6
537.939	509.8
538.34	525.2
538.742	537.8
539.165	521.4
539.566	515.4
539.989	517
540.391	514.8
540.814	508.6
541.216	516.2
541.639	516
542.041	525.6
542.464	513.8
542.866	513.4
543.268	510.2
543.691	518.8
544.093	530.2
544.517	528.6
544.919	514.8
545.343	540.8
545.745	504.8
546.147	512
546.571	510.8
546.974	505.8
547.398	515.8
547.8	529
548.224	513.6
548.627	504
549.03	522.6
549.454	502
549.857	511.2
550.281	508.2
550.684	503.8
551.087	522.4
551.512	512.2
551.915	518.4
552.34	512.4
552.743	511.8
553.146	506.8
553.571	513
553.975	523.6
554.399	505.4
554.803	557.2
555.207	518.4
555.632	508.8
556.036	516.4
556.461	504.8
556.865	517
557.268	506.4
557.694	514.4
558.098	510.8
558.502	510.4
558.927	505.8
559.332	518.2
559.736	510.8
560.162	510.6
560.566	517.6
560.992	519.2
561.396	524
561.801	513.2
562.227	518.6
562.631	508
563.036	507.6
563.462	522.8
563.867	520.4
564.272	507.8
564.698	520.4
565.103	511.4
565.508	539.2
565.935	520
566.34	514.4
566.745	527.6
567.172	516
567.577	535.4
567.982	529
568.409	517
568.815	511.2
569.22	519.2
569.626	528.4
570.053	510.6
570.459	521.4
570.865	520.4
571.292	515.6
571.698	518.2
572.104	507.4
572.531	507.2
572.937	529.2
573.343	514.8
573.75	514.2
574.177	517.8
574.583	516.4
574.99	511.2
575.396	523
575.824	519
576.231	513.6
576.637	513.8
577.065	526.6
577.472	504.2
577.879	517.8
578.286	533.8
578.714	508.2
579.121	510.2
579.528	515.8
579.935	515
580.364	517.4
580.771	507.4
581.178	502.2
581.585	517
582.014	518.6
582.421	508
582.829	517.2
583.236	526.6
583.644	513.4
584.073	514.2
584.481	511
584.889	505.6
585.296	518.4
585.726	511.6
586.134	503.6
586.542	502.4
586.95	523
587.358	502.8
587.787	521.2
588.196	499.8
588.604	511.2
589.012	509.6
589.421	504.4
589.851	502
590.259	515.2
590.668	506.8
591.076	548
591.485	509
591.894	517.4
592.324	525.4
592.733	519.6
593.142	503
593.551	511.6
593.96	513.2
594.369	501.6
594.8	506.4
595.209	508
595.618	496
596.028	506.4
596.437	509.2
596.847	508.6
597.256	517.8
597.687	512.8
598.097	512.4
598.507	499
598.917	521.2
599.327	523.2
599.736	513.6
600.146	512.6
600.556	509.8
600.988	520.6
601.398	502.2
601.808	512.8
602.219	502.8
602.629	511
603.039	507.6
603.45	537.4
603.86	508.4
604.271	517
604.703	513.4
605.114	514.4
605.525	511.2
605.935	517.6
606.346	533
606.757	518.2
607.168	517.8
607.579	506
607.99	520
608.402	514.4
608.813	516.8
609.224	505
609.636	509.6
610.047	505
610.48	512.2
610.892	522.8
611.303	523.2
611.715	519.2
612.127	509.6
612.539	517.2
612.95	515.2
613.362	505.8
613.774	511
614.186	514.4
614.599	510.8
615.011	522
615.423	516
615.835	513.6
616.248	506.8
616.66	517.2
617.073	503.2
617.485	511.4
617.898	516.8
618.311	521.6
618.723	514
619.136	539.8
619.549	522.6
619.962	536.8
620.375	511
620.788	524.8
621.201	508
621.614	524.2
622.028	518.2
622.441	518.6
622.854	520.8
623.268	508
623.681	518
624.095	516
624.509	519.6
624.922	522.8
625.336	506.4
625.728	513.8
626.142	521.6
626.556	537
626.97	530.6
627.384	515.6
627.799	523.4
628.213	524.4
628.627	513.2
629.041	521.8
629.456	516
629.87	518.2
630.285	526.2
630.699	525.4
631.093	519.2
631.507	521.4
631.922	513.8
632.337	530.6
632.752	512
633.167	520.4
633.582	522
633.997	512.6
634.412	507.8
634.806	511.4
635.221	507
635.637	517.6
636.052	509
636.468	523.8
636.883	530
637.299	514.6
637.715	508.4
638.109	509.8
638.525	508.2
638.941	524.8
639.357	517.8
639.773	528.8
640.189	511.6
640.584	510.2
641	516.2
641.416	504.4
641.832	506.2
642.249	506
642.665	512
643.06	512.4
643.477	519.6
643.894	505.4
644.31	513.4
644.727	515.4
645.123	509
645.54	502
645.957	512.6
646.374	525.8
646.77	518.6
647.187	534.2
647.604	511.4
648.021	499.2
648.439	511
648.835	514.6
649.252	514.6
649.67	508.2
650.088	509.2
650.484	514.4
650.902	511.6
651.32	516.2
651.738	505.2
652.134	518.2
652.552	530
652.971	513.4
653.389	510
653.786	524.4
654.204	516.2
654.622	507.2
655.019	514.6
655.438	511.2
655.857	511.8
656.275	517.6
656.673	509.6
657.091	511
657.51	507.4
657.908	520.8
658.327	526.8
658.746	508.4
659.144	509.4
659.563	516.2
659.982	509.2
660.38	505.8
660.8	511.8
661.219	515.6
661.617	516.4
662.037	510.6
662.457	520.8
662.855	501
663.275	542.4
663.695	510.6
664.094	513.4
664.514	511.6
664.934	512.2
665.333	512.6
665.753	505.2
666.152	503
666.572	505.2
666.993	525.4
667.392	508.6
667.812	507.8
668.212	500
668.632	523.8
669.053	504.8
669.453	510.2
669.874	514.6
670.273	511.4
670.694	501.4
671.116	519.6
671.515	520.2
671.937	509.4
672.337	509.6
672.758	510.8
673.158	513.6
673.58	498
673.98	511.4
674.402	523.4
674.824	506
675.224	505.8
675.646	503.8
676.047	506.4
676.469	508.4
676.869	516.8
677.292	515.6
677.693	507.4
678.115	501.8
678.516	514.8
678.939	511.4
679.34	505
679.762	518
680.164	513.8
680.586	501.8
680.988	515.4
681.411	526.2
681.812	501.4
682.236	496.8
682.637	496.6
683.061	505.8
683.462	509.2
683.864	503.2
684.288	509.4
684.69	497.4
685.114	520.4
685.516	510
685.94	498
686.342	510.2
686.766	502.6
687.168	506.6
687.571	521.6
687.995	502.2
688.398	501
688.822	507.8
689.225	525.4
689.628	525
690.052	504.2
690.456	519
690.88	501.4
691.284	493
691.687	509.6
692.112	500.4
692.515	501.2
692.919	511.2
693.344	514.2
693.747	500.4
694.173	494.8
694.577	517.6
694.98	505.4
695.406	507.6
695.81	501.8
696.214	500.4
696.64	509.4
697.044	507.8
697.448	520.6
697.874	510.4
698.279	496.4
698.684	497.6
699.11	500.2
699.514	502.8
699.919	502.8
700.324	493.4
700.75	503.8
701.156	507
701.561	510.8
701.987	512.8
702.393	515.2
702.798	511.8
703.203	502
703.63	499.4
704.036	502
704.442	510.8
704.847	506.2
705.274	502
705.68	509.8
706.086	511
706.492	501
706.92	507.4
707.326	514.8
707.732	506.2
708.139	496.8
708.545	499.6
708.973	503.4
709.38	505
709.786	496.8
710.193	523.6
710.6	503.8
711.028	510.6
711.435	500.2
711.842	509.4
712.249	511
712.656	502.2
713.064	514
713.492	502.4
713.9	504.6
714.307	504.8
714.715	500
715.123	503.8
715.53	507.2
715.938	514.2
716.367	508.4
716.775	509.2
717.184	498.4
717.592	505.4
718	512
718.408	539.8
718.816	546.6
719.225	503.8
719.633	513
720.042	497.2
720.472	506.6
720.881	517.6
721.29	506.8
721.699	501.4
722.108	508
722.517	509.2
722.926	500
723.335	508.4
723.744	504.6
724.154	507
724.563	505.4
724.973	509.8
725.382	505.2
725.792	503.6
726.202	504.2
726.612	519.2
727.022	506
727.432	500.6
779.813	496.6
780.223	542
780.634	505.8
781.044	503
781.454	511.2
781.865	516
782.276	492.4
782.686	506
783.097	501.6
783.508	501.2
783.919	500.2
784.33	512.2
784.741	513.6
785.152	501.2
785.563	490.8
785.974	503.2
786.386	517.6
786.776	497
787.188	505.2
787.599	501
788.011	515.2
788.423	506
788.835	509.2
789.247	489.8
789.659	502
790.071	504.2
790.483	538
790.874	494.8
791.286	504
791.699	501
792.111	504.6
792.524	496.8
792.937	501.6
793.349	494
793.741	499.4
794.154	499.2
794.567	515
794.98	498
795.393	498
795.785	508.4
796.198	504
796.612	506.6
797.026	500
797.439	488.4
797.831	497.4
798.245	489
798.659	503.6
799.073	502
799.487	500
799.88	501
800.294	499
800.708	505.4
801.123	497.8
801.516	515.4
801.93	494
802.345	493
802.76	504.6
803.153	509
803.568	504.2
803.983	516
804.377	506.2
804.792	490.2
805.207	485
805.601	508.8
806.016	537.2
806.432	498.2
806.826	527.2
807.242	515.2
807.658	507.2
808.052	501.4
808.468	494.4
808.884	499.2
809.279	497.4
809.695	513
810.111	523.2
810.506	510.6
810.922	520.8
811.339	506.4
811.734	504.6
812.151	492.6
812.546	500.8
812.963	500.2
813.38	505.6
813.776	497
814.193	516.8
814.589	498
815.006	492.4
815.402	499.6
815.82	504.4
816.237	503.6
816.633	506.4
817.051	498
817.448	501.6
817.866	492.2
818.262	521
818.68	501.2
819.077	493
819.495	506
819.892	536.4
820.311	500
820.708	502.4
821.127	495.2
821.524	507
821.943	501
822.34	512.8
822.759	505
823.157	503.8
823.576	511.6
823.974	511
824.393	594.4
824.791	504.2
825.189	493.2
825.609	498.8
826.007	501.2
826.427	489.6
826.826	501.6
827.246	501.2
827.644	487.6
828.043	515
828.463	493.8
828.862	519
829.261	497.2
829.682	498.2
830.081	512.2
830.502	497.8
830.901	504.8
831.301	498.4
831.722	500.6
832.121	501.6
832.521	500.2
832.943	500.2
833.342	504.8
833.742	497
834.164	505.2
834.564	496
834.965	503
835.386	494.6
835.787	496
836.188	495.8
836.588	498
837.01	506.2
837.411	492.8
837.812	501.2
838.213	500.4
838.636	490.8
839.037	552.4
839.438	504.2
839.84	499.6
840.263	510.8
840.664	499
841.066	498
841.468	502.8
841.891	494
842.293	509.8
842.695	504.6
843.098	508.4
843.5	492
843.902	495.8
844.326	501
844.729	500.2
845.131	514.8
845.534	502
845.937	512.4
846.34	508.4
846.764	495
847.167	498.6
847.571	497.4
847.974	496.2
848.377	499.6
848.781	534.2
849.184	514.6
849.588	495.2
849.992	495.6
850.396	497
850.821	520
851.225	502.2
851.63	498.6
852.034	507.6
852.438	499.6
852.843	564.4
853.247	500.8
853.652	495.2
854.057	512.8
854.462	499.8
854.867	503.8
855.272	524
855.677	505.8
856.082	492.6
