#lambda/nm	C1
208.295	463.6
208.67	434.2
209.045	394.6
209.419	402
209.794	544.2
210.169	520.2
210.544	619.4
210.919	540
211.295	525.2
211.67	543.8
212.045	526.4
212.421	528.6
212.796	562.8
213.172	528.6
213.547	532.2
213.923	523
214.299	532
214.675	544.4
215.051	532.6
215.427	538.2
215.803	548.4
216.179	540.6
216.555	534
216.932	545.8
217.308	533
217.684	534.8
218.061	534
218.438	537.6
218.814	533.8
219.191	542.4
219.568	525.4
219.945	535.6
220.322	546.4
220.699	537.2
221.076	548
221.453	536.2
221.83	529.6
222.208	536.4
222.585	531
222.962	535.2
223.34	539.2
223.717	535.8
224.095	534
224.473	536.2
224.851	526
225.229	523.6
225.607	551.4
225.985	528.2
226.363	530.4
226.741	537.4
227.119	529.8
227.497	537.6
227.876	523.4
228.254	539.4
228.633	540.4
229.011	541.4
229.39	535.8
229.769	539.2
230.148	542.2
230.527	545.4
230.905	540.8
231.284	537.2
231.664	535.2
232.043	545.4
232.422	538.2
232.801	530
233.181	538.8
233.56	532.6
233.94	536.8
234.319	525.2
234.699	535.6
235.079	568
235.458	569.6
235.838	553.8
236.218	524.6
236.598	532.6
236.978	529.4
237.358	531.4
237.738	529.8
238.119	547.4
238.499	526.6
238.88	537.4
239.26	549.6
239.641	524.2
240.021	533
240.402	537.2
240.783	531.6
241.163	536.4
241.544	537.6
241.925	531.6
242.306	550.2
242.687	526.2
243.069	532.6
243.45	536.4
243.831	525.6
244.212	529.8
244.594	568.4
244.975	539.8
245.357	530.4
245.739	532.6
246.12	540.2
246.502	547.2
246.884	531.8
247.266	532.2
247.648	538.2
248.03	550
248.412	542
248.794	533.6
249.176	526
249.559	543
249.941	526.2
250.323	520
250.706	525.2
251.089	525
251.471	532
251.854	531.2
252.237	533
252.62	538
253.002	527.8
253.385	532.2
253.769	546.4
254.152	537.2
254.535	538.8
254.918	532
255.301	529.4
255.685	533.8
256.068	532.6
256.452	544.2
256.835	540.4
257.219	536.8
257.603	548
257.986	527
258.37	538
258.754	519.8
259.138	532.6
259.522	545
259.906	533.2
260.29	535.6
260.675	534.8
261.059	538.8
261.443	526.6
261.828	543.6
262.212	542.6
262.597	528.6
262.981	531.8
263.366	540.4
263.751	534.8
264.136	530.8
264.521	532.2
264.906	526.2
265.291	540
265.676	535.8
266.061	541.4
266.446	553
266.831	537.4
267.217	557.4
267.602	539.6
267.987	538
268.373	535.6
268.759	540.6
269.144	539.4
269.53	540.4
269.916	526
270.302	532
270.688	535.6
271.074	536.8
271.46	531.2
271.846	560.8
272.232	527.8
272.618	529
273.004	534.2
273.391	544.8
273.777	540.8
274.164	534
274.55	546
274.937	535.4
275.324	534.4
275.71	534.2
276.097	533.6
276.484	527.6
276.871	539
277.258	541.4
277.645	522.8
278.032	534.6
278.419	532.6
278.807	540.2
279.194	532
279.581	529
279.969	538
280.356	540.2
280.744	531.4
281.131	551.6
281.519	546.2
281.907	531.8
282.295	529.2
282.682	541.4
283.07	536.4
283.458	544.2
283.846	541.6
284.235	542.6
284.623	537.6
285.011	520.2
285.399	534.2
285.788	537.8
286.176	524.2
286.565	543.2
286.953	535.4
287.342	538.2
287.731	527
288.119	529.4
288.508	531.2
288.897	532.2
289.286	524
289.675	533.4
290.064	542
290.453	534.8
290.821	538.8
291.21	541.2
291.599	530
291.989	532.8
292.378	545.2
292.768	549.6
293.157	538.2
293.547	547.4
293.936	536.6
294.326	533.4
294.716	546.6
295.106	525.2
295.496	544
295.886	542
296.276	527.6
296.666	528.6
297.056	531.8
297.446	527.2
297.836	550.2
298.227	537.8
298.617	532.6
299.008	550.4
299.398	534.2
299.789	527.8
300.179	536.2
300.57	543.2
300.961	532.2
301.352	532.2
301.742	544
302.133	535.2
302.524	531
302.915	541.2
303.307	525.6
303.698	541.2
304.089	539
304.48	527
304.872	536.8
305.263	535.8
305.655	526.6
306.046	532.2
306.438	533.2
306.829	530
307.221	540.4
307.613	534.6
308.005	543.4
308.397	532.4
308.789	554.2
309.181	550.6
309.573	538.4
309.965	542.6
310.357	526.4
310.749	548.8
311.142	526.4
311.534	529
311.926	538.4
312.319	530.4
312.711	529
313.104	541.8
313.497	537.8
313.889	566.6
314.282	555.8
314.675	553.8
315.068	537.2
315.461	545.8
315.854	564.4
316.247	540.4
316.64	535.6
317.033	532
317.405	541.8
317.798	538.2
318.192	546.4
318.585	528
318.979	540.8
319.372	533.4
319.766	530.8
320.16	541.8
320.553	547.4
320.947	556.6
321.341	540.6
321.735	536
322.129	527.6
322.523	554.8
322.917	528.4
323.311	542.6
323.705	538.4
324.099	540
324.494	544
324.888	542.2
325.282	532.4
325.677	544.8
326.071	534.4
326.466	545
326.861	545.2
327.255	542
327.65	552.4
328.045	550.8
328.44	535.8
328.835	538.6
329.23	527.4
329.625	556.2
330.02	534
330.415	544.8
330.81	533.8
331.206	535
331.601	532.8
331.996	537
332.37	550
332.766	526.6
333.161	557.6
333.557	534.4
333.953	535
334.348	807
334.744	539.2
335.14	525.2
335.536	532
335.932	546.2
336.328	536.6
336.724	541.8
337.12	536
337.516	532.2
337.913	530.6
338.309	547.4
338.705	539.8
339.102	541.8
339.498	532.8
339.895	541
340.291	528
340.688	538.2
341.085	526.4
341.481	531.2
341.878	535.8
342.275	554.4
342.672	535.6
343.069	534.6
343.466	520
343.842	537.4
344.239	526.8
344.636	537
345.033	523
345.431	528
345.828	539
346.225	526
346.623	556.2
347.02	533.2
347.418	535.8
347.816	541
348.213	524.2
348.611	528.6
349.009	520.2
349.407	532.4
349.805	518.4
350.203	521.2
350.601	538.6
350.999	531.4
351.397	566.4
351.795	527.6
352.193	535.4
352.57	531.4
352.969	540.2
353.367	520.4
353.766	526
354.164	525.2
354.563	533.6
354.961	529.6
355.36	518.4
355.759	528.8
356.158	519.8
356.557	523
356.956	524.8
357.355	518
357.754	535.4
358.153	530.8
358.552	551.6
358.951	535
359.35	539.4
359.75	526.8
360.149	524.2
360.527	519.8
360.926	520.8
361.326	528.8
361.726	523.2
362.125	523
362.525	538.6
362.925	523.2
363.325	530.4
363.724	530.4
364.124	526.8
364.524	520.2
364.924	528.6
365.324	531.6
365.725	517.6
366.125	526.8
366.525	526.6
366.904	520.4
367.304	518.2
367.705	535.6
368.105	524.8
368.506	525.8
368.906	531.8
369.307	523
369.708	534.6
370.108	527.2
370.509	534.2
370.91	518.4
371.311	524.2
371.712	530.4
372.113	521.8
372.514	515
372.894	522.8
373.295	525.4
373.696	532.6
374.097	535.8
374.499	558
374.9	526.2
375.301	521.6
375.703	523.6
376.105	520.6
376.506	532.8
376.908	532.4
377.309	535.4
377.711	527.6
378.113	524.4
378.493	525.8
378.895	525
379.297	539.4
379.699	508.8
380.102	527.2
380.504	526.2
380.906	523.2
381.308	546
381.71	531.2
382.113	535.4
382.515	523.4
382.918	524.6
383.299	528.2
383.701	538
384.104	527.6
384.507	511.4
384.909	525.8
385.312	521.8
385.715	521
386.118	515.8
386.521	515.4
386.924	533.6
387.327	516
387.709	508.6
388.112	517.2
388.515	531.2
388.918	518.2
389.322	531.4
389.725	524.2
390.129	550
390.532	532.2
390.936	531.2
391.339	522.6
391.743	533.2
392.125	522.6
392.529	534.8
392.933	533.2
393.337	526.2
393.74	530.4
394.144	524.8
394.548	519.6
394.953	530.2
395.357	529.4
395.761	523.2
396.144	520.2
396.548	527.2
396.952	528
397.357	524.4
397.761	522.4
398.166	522.8
398.57	527.8
398.975	525.2
399.379	525
399.763	569
400.168	526.4
400.572	532.2
400.977	523.4
401.382	545.6
401.787	532.4
402.192	531.8
402.597	531.4
403.002	520.4
403.386	535.4
403.791	537.8
404.197	513.4
404.602	521.2
405.007	524.8
405.413	522
405.818	523.6
406.224	518.2
406.608	520.6
407.014	517.4
407.42	539
407.825	518
408.231	532.4
408.637	527.8
409.043	539.8
409.449	518.8
409.834	513.6
410.24	517.8
410.646	534.6
411.052	527.8
411.458	524.6
411.865	537.6
412.271	538.6
412.677	522.4
413.062	538.6
413.469	523.8
413.875	551.4
414.282	533.4
414.689	524.4
415.095	531.4
415.502	522
415.888	526.6
416.294	515.4
416.701	556.6
417.108	521.2
417.515	533
417.923	521.8
418.33	541.2
418.715	537.8
419.123	519.4
419.53	523
419.937	526
420.345	543.8
420.752	517
421.16	538.6
421.546	526.6
421.953	537
422.361	516.8
422.769	529
423.177	528.2
423.585	551
423.992	546.6
424.379	536
424.787	539.8
425.195	537
425.603	524.2
426.011	539
426.419	539.4
426.806	531.2
427.214	529.8
427.623	541.8
428.031	542
428.44	535.2
428.848	526.8
429.235	545.6
429.644	534.8
430.053	522.2
430.461	533.6
430.87	549.4
431.279	535.2
431.666	527.2
432.075	528.4
432.484	529
432.893	529
433.302	535.6
433.711	556.8
434.099	533.8
434.508	523.4
434.918	517.6
435.327	533.2
435.737	526.6
436.125	526
436.534	530.6
436.944	529
437.353	524.2
437.763	547.6
438.173	524.4
438.561	536.2
438.971	510.6
439.381	528.2
439.791	527.4
440.201	506.8
440.589	525.4
440.999	527.2
441.409	530.4
441.819	520.6
442.23	529.8
442.619	532.8
443.029	520
443.439	518
443.85	526.2
444.26	536
444.649	526.6
445.06	518.6
445.471	515.2
445.881	518.6
446.292	536
446.682	544.2
447.092	512.8
447.503	556.4
447.914	519
448.325	523.4
448.715	525.2
449.126	516
449.537	524.4
449.948	517.8
450.338	520.4
450.75	527.6
451.161	530.4
451.572	525.8
451.984	522.2
452.374	516.4
452.786	528
453.197	527.8
453.609	534.2
453.999	516.8
454.411	517.2
454.823	531.8
455.235	524
455.647	518.2
456.037	527.8
456.449	512.6
456.862	526.4
457.274	521.4
457.665	512.6
458.077	529.8
458.489	547.2
458.902	517.8
459.293	527.2
459.705	527
460.118	520.8
460.53	525.6
460.921	515.6
461.334	529
461.747	523.2
462.16	537.4
462.551	530.2
462.964	527.2
463.377	509.6
463.79	522
464.182	529.4
464.595	515.6
465.008	524.2
465.421	521
465.813	518
466.226	530.8
466.64	513
467.053	555
467.445	525.6
467.859	529.6
468.272	522.4
468.686	527.6
469.078	514.6
469.492	508.4
469.906	517.2
470.298	535.6
470.712	519
471.126	543.4
471.54	507
471.933	515.8
472.347	511.8
472.761	509.2
473.175	509.8
473.568	516.2
473.982	509.4
474.397	513.2
474.79	524.4
475.204	523.2
475.619	513.6
476.033	520.4
476.426	527.4
476.841	516
477.256	533
477.649	513.6
478.064	511.8
478.479	519.2
478.872	514.2
479.287	503.2
479.702	512.6
480.118	516.2
480.511	520.2
480.927	525
481.342	520.4
481.736	518.4
482.151	519.2
482.566	518
482.96	511.2
483.376	527.4
483.792	515.6
484.186	520.4
484.602	517.8
485.017	519.8
485.412	510.8
485.827	529
486.243	515.8
486.638	532.8
487.054	526.8
487.47	534.8
487.865	513.6
488.281	515
488.697	513.2
489.092	518.4
489.508	506.2
489.925	528.2
490.32	516.4
490.736	520.8
491.153	523.2
491.548	520
491.964	526
492.381	509.2
492.776	523.2
493.193	516.2
493.61	519.6
494.006	516.2
494.422	522
494.84	506.4
495.235	526.8
495.652	520.4
496.069	512.2
496.465	507.8
496.883	515.6
497.3	534.6
497.696	505.2
498.113	518
498.509	510
498.927	512
499.344	514.4
499.741	510.2
500.158	521.4
500.576	521.4
500.973	510
501.39	502.4
501.787	507
502.205	520.2
502.623	516.6
503.02	499.4
503.438	509.4
503.856	511
504.253	517
504.671	512
505.068	508
505.486	517.8
505.905	524.6
506.302	514.8
506.72	530.6
507.118	514.8
507.536	518
507.955	518.4
508.352	512.2
508.771	517.6
509.169	525.2
509.587	505
510.006	520.2
510.404	512.6
510.823	506.6
511.221	513.8
511.64	507.2
512.038	525.8
512.457	511.6
512.877	523.8
513.275	507.4
513.694	516
514.092	512.4
514.512	523
514.91	521.4
515.33	518.4
515.749	513
516.148	515.8
516.568	520
516.966	519.6
517.386	515.8
517.785	521.6
518.205	508
518.603	511.4
519.024	516.2
519.444	520.4
519.843	516.6
520.263	516.6
520.662	511.6
521.082	509.4
521.481	507.2
521.902	519.2
522.301	514.8
522.722	515.8
523.121	516.2
523.542	510
523.963	510.8
524.362	515.8
524.783	513.4
525.183	513
525.604	513
526.003	513.6
526.425	509
526.824	521.8
527.246	524.4
527.646	510.2
528.067	518
528.467	515.2
528.888	515
529.289	507.8
529.71	510
530.11	515.8
530.532	504.2
530.932	512
531.354	507.8
531.755	545.4
532.176	517.8
532.577	509
532.999	515.2
533.4	514.8
533.822	524
534.223	514.8
534.645	514
535.046	516.4
535.468	512.6
535.869	522.6
536.292	513.8
536.693	542
537.115	513.2
537.516	509.8
537.939	504.8
538.34	532.6
538.742	516.4
539.165	510
539.566	515.4
539.989	507.2
540.391	509.6
540.814	511
541.216	522.6
541.639	505.4
542.041	516.8
542.464	510.4
542.866	505.8
543.268	497.2
543.691	521.6
544.093	511.4
544.517	523.6
544.919	504
545.343	520.4
545.745	507
546.147	512
546.571	505.2
546.974	496
547.398	512
547.8	526.2
548.224	509
548.627	508.8
549.03	522.8
549.454	512.2
549.857	505
550.281	511.2
550.684	506.6
551.087	525.4
551.512	512.2
551.915	512.8
552.34	510.2
552.743	500.8
553.146	516.2
553.571	516.8
553.975	517.2
554.399	507.4
554.803	554.6
555.207	504
555.632	504.6
556.036	517.2
556.461	504.2
556.865	512.6
557.268	513
557.694	509.8
558.098	521
558.502	520.8
558.927	507.8
559.332	514
559.736	514.4
560.162	515.6
560.566	513.6
560.992	510
561.396	510.6
561.801	510.2
562.227	509.2
562.631	501.2
563.036	512.8
563.462	516.8
563.867	512.6
564.272	499.4
564.698	510.6
565.103	502
565.508	523.6
565.935	506.6
566.34	505.8
566.745	516.4
567.172	511.8
567.577	523.6
567.982	519
568.409	508.8
568.815	505
569.22	511.6
569.626	521.6
570.053	501
570.459	511.4
570.865	518
571.292	519.4
571.698	520.4
572.104	500.2
572.531	508
572.937	520.2
573.343	516.2
573.75	516.4
574.177	520.8
574.583	516.6
574.99	505.4
575.396	515.2
575.824	509.6
576.231	514.8
576.637	509.4
577.065	530.2
577.472	511.2
577.879	512
578.286	522.4
578.714	504.2
579.121	508.8
579.528	508.2
579.935	521.2
580.364	502.8
580.771	498.2
581.178	506.6
581.585	519
582.014	513.2
582.421	506.8
582.829	508
583.236	518.2
583.644	504.4
584.073	509
584.481	517.2
584.889	504.6
585.296	516.8
585.726	517.6
586.134	509.2
586.542	502.4
586.95	529.4
587.358	502.6
587.787	515.2
588.196	495.4
588.604	509.2
589.012	513.8
589.421	505.2
589.851	508
590.259	511.8
590.668	509.6
591.076	545.2
591.485	506.4
591.894	507.6
592.324	514.6
592.733	520.6
593.142	496.8
593.551	503
593.96	510.6
594.369	496.8
594.8	500.4
595.209	502.6
595.618	499
596.028	496.4
596.437	496.4
596.847	508.6
597.256	505.8
597.687	501.4
598.097	499.6
598.507	497.4
598.917	512
599.327	510.6
599.736	514.2
600.146	519.6
600.556	501.8
600.988	519.2
601.398	499
601.808	512.2
602.219	500
602.629	516.6
603.039	515.4
603.45	531.4
603.86	515.2
604.271	518.4
604.703	515.4
605.114	509.6
605.525	514.4
605.935	512.4
606.346	525.4
606.757	512
607.168	512.6
607.579	503.4
607.99	521
608.402	518.6
608.813	515.2
609.224	519
609.636	507
610.047	509.8
610.48	515.6
610.892	521.8
611.303	515.8
611.715	514.8
612.127	510.8
612.539	509.2
612.95	517.8
613.362	513.6
613.774	512.6
614.186	513.6
614.599	515
615.011	530.2
615.423	522.4
615.835	511.8
616.248	519.4
616.66	517.4
617.073	518.6
617.485	520.4
617.898	532.4
618.311	518
618.723	518.4
619.136	537
619.549	529.2
619.962	535.6
620.375	522.4
620.788	523
621.201	512.4
621.614	524.2
622.028	515
622.441	526
622.854	535.4
623.268	515.4
623.681	528.4
624.095	527.6
624.509	522.4
624.922	528.2
625.336	517.2
625.728	520.8
626.142	527.4
626.556	536.4
626.97	530.8
627.384	517.4
627.799	518
628.213	530.6
628.627	519.4
629.041	517.8
629.456	513.6
629.87	525.6
630.285	524.4
630.699	535
631.093	521.2
631.507	528.2
631.922	526.6
632.337	528.8
632.752	514.2
633.167	519
633.582	521.6
633.997	516.8
634.412	509.2
634.806	518.6
635.221	516.8
635.637	525.2
636.052	517.2
636.468	517.8
636.883	542.2
637.299	516.2
637.715	514.6
638.109	520
638.525	508.8
638.941	527.2
639.357	517.2
639.773	520.4
640.189	507.8
640.584	515.4
641	514.2
641.416	505.8
641.832	511
642.249	511.4
642.665	518.6
643.06	517.2
643.477	522.4
643.894	505.2
644.31	513
644.727	513.4
645.123	511.6
645.54	505.8
645.957	522.4
646.374	524.6
646.77	508.6
647.187	537
647.604	515
648.021	501.2
648.439	502
648.835	511.4
649.252	515.6
649.67	510.8
650.088	516.4
650.484	511.8
650.902	508.2
651.32	518
651.738	506.6
652.134	513
652.552	522.8
652.971	511
653.389	509.4
653.786	522
654.204	518.8
654.622	508.6
655.019	511
655.438	525.2
655.857	514.2
656.275	523.6
656.673	501.6
657.091	516.4
657.51	508.4
657.908	509.8
658.327	522.4
658.746	498
659.144	509.2
659.563	514
659.982	510.2
660.38	503.2
660.8	510.6
661.219	507.4
661.617	507.4
662.037	504.2
662.457	515.8
662.855	498
663.275	527.8
663.695	505
664.094	507
664.514	509.2
664.934	495.4
665.333	511.6
665.753	502
666.152	499.6
666.572	504.6
666.993	514.8
667.392	502.8
667.812	502.8
668.212	506
668.632	513.4
669.053	501.6
669.453	503
669.874	509
670.273	507.6
670.694	497.6
671.116	516
671.515	518.8
671.937	511.6
672.337	506.8
672.758	504.2
673.158	508
673.58	506.2
673.98	507
674.402	528.8
674.824	508.6
675.224	496
675.646	506.4
676.047	498.2
676.469	511.6
676.869	504.8
677.292	515.4
677.693	505.4
678.115	502.8
678.516	507.8
678.939	507.2
679.34	500
679.762	520.2
680.164	512.6
680.586	496.8
680.988	508.4
681.411	523
681.812	501.8
682.236	501
682.637	501.4
683.061	500.8
683.462	508.6
683.864	500.8
684.288	507.6
684.69	499.2
685.114	513.2
685.516	510.2
685.94	495.4
686.342	509.4
686.766	492
687.168	501
687.571	518
687.995	505
688.398	502
688.822	507.6
689.225	516.6
689.628	517.2
690.052	504.8
690.456	508.8
690.88	498.8
691.284	493.6
691.687	504.4
692.112	495.2
692.515	490.6
692.919	502.4
693.344	503.2
693.747	494.2
694.173	488.2
694.577	509.4
694.98	493.8
695.406	495.2
695.81	501.2
696.214	502
696.64	501.4
697.044	504.8
697.448	510.2
697.874	504
698.279	495.8
698.684	487.4
699.11	499.6
699.514	508.2
699.919	499.6
700.324	498.4
700.75	501.4
701.156	502.6
701.561	513.8
701.987	509.2
702.393	515
702.798	506
703.203	500.6
703.63	502.4
704.036	505
704.442	500.8
704.847	498.6
705.274	508
705.68	505.8
706.086	509
706.492	497.8
706.92	503.2
707.326	508.2
707.732	498.4
708.139	493
708.545	500.2
708.973	501
709.38	508.2
709.786	494.2
710.193	515.2
710.6	508.4
711.028	499.4
711.435	507.2
711.842	504.4
712.249	500.6
712.656	502
713.064	510.6
713.492	497.4
713.9	502.8
714.307	503.8
714.715	502.8
715.123	500
715.53	500.4
715.938	517
716.367	512.2
716.775	500.6
717.184	491.6
717.592	501.2
718	512.8
718.408	537
718.816	536.4
719.225	506.4
719.633	506.4
720.042	491.6
720.472	502
720.881	517.8
721.29	504.4
721.699	499
722.108	504.8
722.517	503.6
722.926	504.6
723.335	508.8
723.744	501.8
724.154	497.8
724.563	504.4
724.973	506.4
725.382	504.4
725.792	503.4
726.202	499
726.612	509.8
727.022	494.6
727.432	497.2
779.813	500.4
780.223	534.2
780.634	510.6
781.044	493.2
781.454	505
781.865	507.4
782.276	493.6
782.686	505.2
783.097	506.2
783.508	493.8
783.919	505.4
784.33	516
784.741	514.6
785.152	502.4
785.563	496.2
785.974	503
786.386	506
786.776	494.4
787.188	508.4
787.599	495.8
788.011	503.2
788.423	500.2
788.835	494.2
789.247	495.2
789.659	494.4
790.071	502.8
790.483	530.2
790.874	496.2
791.286	500
791.699	497
792.111	498.4
792.524	508.6
792.937	493.6
793.349	489.2
793.741	494.8
794.154	504.6
794.567	513.6
794.98	495.8
795.393	490.8
795.785	510
796.198	501.8
796.612	507.2
797.026	499.6
797.439	485.4
797.831	495.4
798.245	492.2
798.659	502.8
799.073	495
799.487	506
799.88	505.2
800.294	502
800.708	504.6
801.123	512.4
801.516	513.8
801.93	496
802.345	493
802.76	501.6
803.153	518.8
803.568	514.4
803.983	509.4
804.377	502.6
804.792	484
805.207	489.4
805.601	502
806.016	521.6
806.432	492.4
806.826	522
807.242	507
807.658	498.6
808.052	501
808.468	491.6
808.884	486.6
809.279	501
809.695	499.6
810.111	516.8
810.506	495.4
810.922	512.4
811.339	496.2
811.734	501.2
812.151	497.4
812.546	493.6
812.963	492.4
813.38	497.4
813.776	508.8
814.193	516
814.589	491.2
815.006	495.4
815.402	497
815.82	488.2
816.237	500
816.633	502.6
817.051	490.6
817.448	499.6
817.866	494.6
818.262	516.8
818.68	497.6
819.077	497.2
819.495	501.8
819.892	528
820.311	488.2
820.708	499
821.127	501.8
821.524	511.4
821.943	500.6
822.34	514.8
822.759	500.6
823.157	499.2
823.576	514.2
823.974	506.4
824.393	591.2
824.791	495.4
825.189	489.2
825.609	499.4
826.007	499.8
826.427	484.6
826.826	501.6
827.246	505
827.644	489.8
828.043	504.6
828.463	501.6
828.862	511
829.261	510.6
829.682	493.4
830.081	501.4
830.502	494
830.901	505.4
831.301	496.2
831.722	487.2
832.121	504
832.521	490
832.943	504.4
833.342	502.8
833.742	491.2
834.164	491.2
834.564	495.2
834.965	482.4
835.386	490
835.787	500.4
836.188	494.4
836.588	499.2
837.01	501.6
837.411	497
837.812	496.4
838.213	500
838.636	489.2
839.037	541.6
839.438	496.4
839.84	502.2
840.263	503.6
840.664	497.4
841.066	496
841.468	492.6
841.891	489.8
842.293	496.8
842.695	501.6
843.098	498.6
843.5	486.2
843.902	499.6
844.326	501.8
844.729	500.2
845.131	506.6
845.534	502.8
845.937	505.4
846.34	510.6
846.764	489
847.167	492.4
847.571	489.8
847.974	495
848.377	496.4
848.781	532.8
849.184	512.6
849.588	490
849.992	490
850.396	496.2
850.821	512.6
851.225	499
851.63	492.2
852.034	513
852.438	497.4
852.843	518.2
853.247	500
853.652	499.4
854.057	510.6
854.462	501.8
854.867	496.6
855.272	521.8
855.677	504.2
856.082	491
856.487	482
856.893	506.8
