#lambda/nm	C1
208.295	473
208.67	438.4
209.045	397
209.419	401.8
209.794	540
210.169	518
210.544	631.2
210.919	538.4
211.295	528.6
211.67	542.4
212.045	533.8
212.421	531.2
212.796	557.8
213.172	530
213.547	532.6
213.923	538
214.299	537
214.675	543.8
215.051	537.6
215.427	543.6
215.803	552.2
216.179	541
216.555	531.6
216.932	539.6
217.308	537.2
217.684	539.2
218.061	547.4
218.438	538.2
218.814	525.4
219.191	542.6
219.568	526.6
219.945	535
220.322	544.4
220.699	536.2
221.076	538.2
221.453	543
221.83	531.6
222.208	537.6
222.585	534
222.962	532.4
223.34	534.2
223.717	534.2
224.095	533.6
224.473	533.6
224.851	534.6
225.229	528.6
225.607	555
225.985	526
226.363	528.8
226.741	538.4
227.119	538
227.497	543
227.876	523.2
228.254	546.6
228.633	537
229.011	539.2
229.39	540
229.769	544
230.148	540.6
230.527	554.6
230.905	531.8
231.284	540.2
231.664	532.8
232.043	541.4
232.422	543
232.801	534.2
233.181	546
233.56	538.2
233.94	526.4
234.319	522.2
234.699	531
235.079	566.4
235.458	566.8
235.838	547.6
236.218	531.4
236.598	529.8
236.978	535.2
237.358	525.2
237.738	529.8
238.119	535
238.499	523.4
238.88	541.4
239.26	546.6
239.641	528.6
240.021	534.6
240.402	532.2
240.783	531.2
241.163	529.8
241.544	540
241.925	539.2
242.306	546.2
242.687	540.6
243.069	530.2
243.45	543.2
243.831	528.2
244.212	537
244.594	563.6
244.975	538
245.357	534.8
245.739	524
246.12	532.2
246.502	542.2
246.884	541.6
247.266	536.6
247.648	532.4
248.03	548.4
248.412	532
248.794	546
249.176	539.2
249.559	529.6
249.941	526
250.323	528
250.706	532
251.089	531.6
251.471	534.8
251.854	534.6
252.237	533.6
252.62	536
253.002	537.6
253.385	533.4
253.769	543.2
254.152	534.6
254.535	546.4
254.918	529.4
255.301	537.8
255.685	535.2
256.068	529.6
256.452	552.2
256.835	542.8
257.219	538.8
257.603	553
257.986	526
258.37	542.4
258.754	523.2
259.138	533.2
259.522	549.4
259.906	536.8
260.29	537.8
260.675	527.4
261.059	537.8
261.443	532.8
261.828	545.2
262.212	540.2
262.597	531.6
262.981	530.2
263.366	544
263.751	538.6
264.136	530.2
264.521	535.4
264.906	535.6
265.291	538.8
265.676	531.2
266.061	537.4
266.446	549.4
266.831	531.4
267.217	554.4
267.602	535.2
267.987	537.4
268.373	536.4
268.759	538
269.144	542.4
269.53	537.4
269.916	536.4
270.302	537.8
270.688	538.8
271.074	535.8
271.46	542
271.846	557
272.232	530.8
272.618	534.6
273.004	536.4
273.391	544.6
273.777	550.2
274.164	539
274.55	542.2
274.937	536.4
275.324	528.8
275.71	542.6
276.097	549.2
276.484	531.8
276.871	539.6
277.258	533
277.645	521
278.032	529.4
278.419	530.8
278.807	543.2
279.194	529
279.581	529
279.969	546.2
280.356	532.2
280.744	533.8
281.131	552.8
281.519	542.6
281.907	524.2
282.295	526.6
282.682	540.8
283.07	530.8
283.458	536.2
283.846	545.2
284.235	539.2
284.623	532.6
285.011	523.4
285.399	539.4
285.788	538.8
286.176	530
286.565	547
286.953	523.4
287.342	533.2
287.731	528
288.119	529.6
288.508	534.4
288.897	536.4
289.286	524.8
289.675	529.2
290.064	546.6
290.453	533
290.821	536.4
291.21	549.4
291.599	529.4
291.989	534.2
292.378	544
292.768	549.6
293.157	542.6
293.547	537.2
293.936	538.6
294.326	534
294.716	544
295.106	535
295.496	536
295.886	541
296.276	534.6
296.666	531.8
297.056	529.4
297.446	525.4
297.836	550.2
298.227	532.8
298.617	540.2
299.008	544.4
299.398	528.6
299.789	535.6
300.179	542.6
300.57	550.2
300.961	534.6
301.352	534.2
301.742	547.2
302.133	538
302.524	531.8
302.915	535
303.307	523.6
303.698	544.2
304.089	533
304.48	537.2
304.872	532.2
305.263	530
305.655	530
306.046	537.2
306.438	542.2
306.829	531.2
307.221	546.2
307.613	537.4
308.005	547.2
308.397	552.4
308.789	557.2
309.181	553
309.573	543.8
309.965	543.2
310.357	533.8
310.749	543.8
311.142	527.4
311.534	534.6
311.926	542.4
312.319	534
312.711	525.8
313.104	539.4
313.497	535
313.889	565.8
314.282	554.8
314.675	563
315.068	540.2
315.461	544.8
315.854	559.8
316.247	548
316.64	532
317.033	535.2
317.405	535.4
317.798	536.8
318.192	537.4
318.585	533
318.979	546.4
319.372	533.8
319.766	535.6
320.16	544
320.553	551
320.947	546
321.341	528.2
321.735	536.4
322.129	527.6
322.523	550.2
322.917	535.4
323.311	541.4
323.705	539.6
324.099	540.2
324.494	542
324.888	549.4
325.282	534.2
325.677	546.6
326.071	536.6
326.466	553.2
326.861	538.8
327.255	553
327.65	536.4
328.045	549
328.44	536.4
328.835	536
329.23	538.4
329.625	552.4
330.02	536.4
330.415	548.4
330.81	544
331.206	541
331.601	529.2
331.996	546.6
332.37	545
332.766	524.2
333.161	549
333.557	529
333.953	535
334.348	827.6
334.744	532
335.14	532.2
335.536	535.8
335.932	551.4
336.328	539
336.724	552.6
337.12	539.8
337.516	542.8
337.913	533
338.309	539.4
338.705	534.8
339.102	543
339.498	530.2
339.895	547.4
340.291	520
340.688	538.8
341.085	532.6
341.481	533.4
341.878	539
342.275	544.4
342.672	520.2
343.069	528.4
343.466	529.6
343.842	541.6
344.239	522.4
344.636	532.2
345.033	518.4
345.431	528.6
345.828	531.4
346.225	535.8
346.623	556
347.02	529.2
347.418	543
347.816	542.4
348.213	515.4
348.611	531.4
349.009	528
349.407	536.4
349.805	519.4
350.203	524
350.601	536
350.999	526.4
351.397	585.4
351.795	522
352.193	531.4
352.57	534.8
352.969	538.6
353.367	534.4
353.766	532.4
354.164	526.2
354.563	540.4
354.961	532.2
355.36	525
355.759	528.8
356.158	527.6
356.557	520.6
356.956	520.8
357.355	531
357.754	533.2
358.153	530.8
358.552	548.2
358.951	533.2
359.35	541.8
359.75	525
360.149	522.4
360.527	515.6
360.926	523.4
361.326	529.4
361.726	528.6
362.125	517
362.525	532.4
362.925	532.6
363.325	536.4
363.724	533.4
364.124	525.4
364.524	523.2
364.924	533.2
365.324	544
365.725	516.4
366.125	531.8
366.525	527.6
366.904	524.6
367.304	516.8
367.705	537
368.105	539.4
368.506	525.8
368.906	530.4
369.307	527.6
369.708	531.6
370.108	514.4
370.509	531.4
370.91	522.4
371.311	528.6
371.712	536.6
372.113	530.4
372.514	524.2
372.894	535.6
373.295	522.2
373.696	539
374.097	536.6
374.499	545
374.9	527
375.301	521.2
375.703	533.2
376.105	519.8
376.506	529.4
376.908	533
377.309	527.6
377.711	525.2
378.113	515.2
378.493	521
378.895	521.2
379.297	530
379.699	510.2
380.102	524.8
380.504	522.6
380.906	520.2
381.308	545.8
381.71	526
382.113	536.8
382.515	522.4
382.918	531.6
383.299	521.4
383.701	529.6
384.104	524.2
384.507	511
384.909	529.4
385.312	514.2
385.715	510.8
386.118	528.8
386.521	515.4
386.924	543.2
387.327	521.4
387.709	518
388.112	512.8
388.515	531.6
388.918	521.8
389.322	535.4
389.725	524
390.129	546
390.532	533.6
390.936	523.6
391.339	527.2
391.743	526.8
392.125	525.8
392.529	532.8
392.933	535.6
393.337	515.8
393.74	528.6
394.144	525.6
394.548	517.4
394.953	518
395.357	526.6
395.761	525.6
396.144	527.2
396.548	526.4
396.952	521.8
397.357	532.4
397.761	523.4
398.166	525.4
398.57	520.4
398.975	521
399.379	536.4
399.763	562.6
400.168	519
400.572	530
400.977	527.4
401.382	534.2
401.787	532.8
402.192	542.6
402.597	543.8
403.002	516.2
403.386	536.6
403.791	536
404.197	522.2
404.602	524
405.007	520.8
405.413	531.2
405.818	529
406.224	521.2
406.608	521.6
407.014	514
407.42	535.4
407.825	526.8
408.231	528
408.637	526
409.043	540.4
409.449	520
409.834	518
410.24	525
410.646	534.6
411.052	529.4
411.458	518.6
411.865	540.6
412.271	538.8
412.677	523.8
413.062	529
413.469	522.4
413.875	544
414.282	534.6
414.689	529
415.095	532.6
415.502	528.4
415.888	532.8
416.294	520.6
416.701	563
417.108	520.4
417.515	536
417.923	531
418.33	544.8
418.715	541.8
419.123	531.4
419.53	524
419.937	529.4
420.345	543.4
420.752	524.8
421.16	537
421.546	537.4
421.953	542.8
422.361	521.6
422.769	529.8
423.177	525
423.585	550.8
423.992	543
424.379	538.8
424.787	527.8
425.195	545.2
425.603	527.8
426.011	532.2
426.419	540.6
426.806	536.6
427.214	525
427.623	543
428.031	539.2
428.44	528.2
428.848	533.6
429.235	546
429.644	530
430.053	535.4
430.461	541
430.87	558.6
431.279	536.2
431.666	525.8
432.075	524.2
432.484	535.8
432.893	532
433.302	537.4
433.711	549.8
434.099	528
434.508	522.2
434.918	517.4
435.327	541.6
435.737	539.4
436.125	530.2
436.534	530.2
436.944	529
437.353	534
437.763	546.4
438.173	526.8
438.561	533.6
438.971	512.2
439.381	526
439.791	528.2
440.201	505.2
440.589	520.8
440.999	526.6
441.409	528.2
441.819	523.6
442.23	531.8
442.619	538.6
443.029	524.8
443.439	530
443.85	529.8
444.26	545.4
444.649	531.8
445.06	530.2
445.471	522
445.881	521.2
446.292	527.6
446.682	533
447.092	509.2
447.503	562.4
447.914	530.8
448.325	520.8
448.715	525.6
449.126	516.4
449.537	517.4
449.948	527
450.338	522.4
450.75	526.6
451.161	524.4
451.572	527.2
451.984	520.8
452.374	517.8
452.786	521.6
453.197	524.4
453.609	528.6
453.999	513.6
454.411	511.4
454.823	530.2
455.235	530.4
455.647	529.8
456.037	527
456.449	508
456.862	522.6
457.274	524.8
457.665	522.8
458.077	534
458.489	539.4
458.902	518.8
459.293	526
459.705	518.8
460.118	517.2
460.53	535.8
460.921	526.4
461.334	522.6
461.747	523.6
462.16	535.2
462.551	529.2
462.964	530.8
463.377	519.4
463.79	520.2
464.182	531.2
464.595	519.4
465.008	514.4
465.421	527.4
465.813	516.6
466.226	522
466.64	520.4
467.053	562.8
467.445	532.4
467.859	538.6
468.272	524.6
468.686	535
469.078	519
469.492	514.2
469.906	525
470.298	522.6
470.712	519.6
471.126	545.2
471.54	510.2
471.933	514.4
472.347	518.2
472.761	509.6
473.175	508.6
473.568	519.2
473.982	513.2
474.397	518
474.79	514.6
475.204	524.4
475.619	513.2
476.033	523.8
476.426	517.6
476.841	511.8
477.256	530.4
477.649	514.8
478.064	517.2
478.479	511.4
478.872	509.8
479.287	505.4
479.702	517.8
480.118	517.4
480.511	516.4
480.927	513.4
481.342	509.8
481.736	528.2
482.151	510
482.566	523
482.96	517.2
483.376	527.8
483.792	508
484.186	516.8
484.602	509.6
485.017	514.8
485.412	523.8
485.827	522.4
486.243	518.4
486.638	545
487.054	525
487.47	531.8
487.865	515.8
488.281	517.4
488.697	513.6
489.092	516.2
489.508	513.4
489.925	525.6
490.32	514.4
490.736	516.4
491.153	525.6
491.548	520.2
491.964	530.4
492.381	507.6
492.776	516
493.193	521.6
493.61	525
494.006	524
494.422	519.8
494.84	512.6
495.235	520.8
495.652	515.2
496.069	521.8
496.465	501.8
496.883	515.6
497.3	547.4
497.696	510
498.113	515.4
498.509	508.6
498.927	506.8
499.344	510.8
499.741	516.2
500.158	522.4
500.576	527
500.973	521.4
501.39	515.2
501.787	508.8
502.205	523.2
502.623	521
503.02	506.8
503.438	510.8
503.856	519
504.253	524.6
504.671	515.4
505.068	516.8
505.486	518
505.905	532.6
506.302	518.8
506.72	515.6
507.118	510.6
507.536	519.8
507.955	509.2
508.352	521.2
508.771	518.4
509.169	524.2
509.587	514.6
510.006	516.8
510.404	501.6
510.823	513
511.221	517.4
511.64	510.8
512.038	528.6
512.457	518
512.877	514.2
513.275	509
513.694	508.6
514.092	505.8
514.512	515.8
514.91	519.6
515.33	515.6
515.749	521.4
516.148	520.6
516.568	516.4
516.966	509.4
517.386	513
517.785	512
518.205	512.4
518.603	507
519.024	516
519.444	517
519.843	528.4
520.263	520
520.662	522.4
521.082	509.6
521.481	519.2
521.902	517
522.301	517
522.722	511.2
523.121	513.2
523.542	510.6
523.963	514
524.362	515
524.783	512.2
525.183	518.6
525.604	516.2
526.003	501.8
526.425	514.6
526.824	514.6
527.246	523.4
527.646	527
528.067	515.6
528.467	518
528.888	516
529.289	519
529.71	517.8
530.11	508.4
530.532	508.8
530.932	509.6
531.354	506.8
531.755	543.4
532.176	518
532.577	511.4
532.999	523
533.4	516.8
533.822	520.2
534.223	514.4
534.645	516.2
535.046	506.6
535.468	518.2
535.869	527.4
536.292	512.6
536.693	544.8
537.115	513.2
537.516	504.4
537.939	511.8
538.34	524.8
538.742	522
539.165	515
539.566	514
539.989	506.8
540.391	510.4
540.814	516.8
541.216	515.4
541.639	515
542.041	514.6
542.464	501.6
542.866	507.2
543.268	504
543.691	511
544.093	520.2
544.517	527.4
544.919	509.8
545.343	535.2
545.745	503.2
546.147	511.4
546.571	513.2
546.974	507.6
547.398	514.2
547.8	521
548.224	510.2
548.627	504.8
549.03	516
549.454	504.4
549.857	508.2
550.281	507.6
550.684	507
551.087	512.2
551.512	512.6
551.915	521.4
552.34	513
552.743	507.6
553.146	516
553.571	509.4
553.975	521.8
554.399	514
554.803	554.6
555.207	510.8
555.632	508.4
556.036	517
556.461	505.4
556.865	515.4
557.268	516
557.694	511.8
558.098	525
558.502	513.4
558.927	511.2
559.332	513
559.736	513.2
560.162	522.2
560.566	514
560.992	522.8
561.396	511.2
561.801	508.4
562.227	513
562.631	517.2
563.036	515.8
563.462	528.2
563.867	513.6
564.272	499.4
564.698	519.4
565.103	505
565.508	531.2
565.935	510.8
566.34	511.4
566.745	521.8
567.172	509.2
567.577	525.2
567.982	521.2
568.409	513
568.815	506.6
569.22	515.4
569.626	520.2
570.053	495.8
570.459	511
570.865	503.4
571.292	513.2
571.698	513
572.104	493.8
572.531	509.2
572.937	512.2
573.343	502.4
573.75	508
574.177	511
574.583	512
574.99	510.4
575.396	520.8
575.824	508.6
576.231	514.4
576.637	504.6
577.065	530.2
577.472	509.2
577.879	513.6
578.286	521.6
578.714	504.6
579.121	507
579.528	516
579.935	525.4
580.364	509.2
580.771	497
581.178	508.6
581.585	513.8
582.014	511.6
582.421	511.2
582.829	504.6
583.236	507.6
583.644	500.4
584.073	508.2
584.481	508.6
584.889	504.6
585.296	511.2
585.726	507.2
586.134	500.8
586.542	501.8
586.95	517.6
587.358	501.6
587.787	510.8
588.196	501.2
588.604	509.2
589.012	513.2
589.421	500.8
589.851	509
590.259	510.2
590.668	505.6
591.076	544
591.485	504.4
591.894	512.2
592.324	516.2
592.733	524.6
593.142	502.6
593.551	511
593.96	537.6
594.369	501.8
594.8	507.2
595.209	507.6
595.618	499.8
596.028	513
596.437	508
596.847	508
597.256	516.2
597.687	517
598.097	512
598.507	506.2
598.917	515
599.327	519.2
599.736	512.4
600.146	525.6
600.556	505.8
600.988	521.4
601.398	509.8
601.808	520.6
602.219	503.2
602.629	514.6
603.039	508.4
603.45	534.2
603.86	515.6
604.271	526.2
604.703	512.2
605.114	518.2
605.525	518.8
605.935	520
606.346	535.8
606.757	520.4
607.168	515.2
607.579	510.6
607.99	523.2
608.402	512.4
608.813	529.2
609.224	516.8
609.636	513
610.047	515.8
610.48	528.4
610.892	523.6
611.303	529
611.715	510.2
612.127	513.2
612.539	519.2
612.95	513
613.362	517.4
613.774	514
614.186	516
614.599	516.6
615.011	522
615.423	515.2
615.835	522.2
616.248	508.4
616.66	524.6
617.073	515.8
617.485	518
617.898	527.2
618.311	515.2
618.723	519.4
619.136	539
619.549	535.8
619.962	541.4
620.375	525.6
620.788	521.8
621.201	519.4
621.614	524.6
622.028	525.6
622.441	526.6
622.854	536.4
623.268	516.2
623.681	525
624.095	522.4
624.509	530.8
624.922	531.8
625.336	518
625.728	522.8
626.142	534.4
626.556	536
626.97	529.6
627.384	526.8
627.799	530.2
628.213	536.4
628.627	528.4
629.041	525.8
629.456	525.2
629.87	515.6
630.285	533.2
630.699	526.6
631.093	518.8
631.507	524
631.922	523.8
632.337	524.4
632.752	519
633.167	514.8
633.582	520
633.997	525.8
634.412	516.2
634.806	519.2
635.221	516.8
635.637	529.4
636.052	514.6
636.468	520.2
636.883	533.6
637.299	515.2
637.715	513.2
638.109	510.4
638.525	515
638.941	532.4
639.357	526
639.773	525
640.189	515.2
640.584	518.4
641	517.4
641.416	498.2
641.832	514.6
642.249	509.8
642.665	521.4
643.06	525.6
643.477	523.2
643.894	506
644.31	516.2
644.727	516.2
645.123	515.8
645.54	501
645.957	517.4
646.374	524
646.77	504
647.187	534.2
647.604	513.2
648.021	502.2
648.439	511.6
648.835	508
649.252	521
649.67	510.8
650.088	520.8
650.484	517.6
650.902	521.8
651.32	524
651.738	507.6
652.134	511.8
652.552	530.2
652.971	509.4
653.389	512.4
653.786	531
654.204	518.6
654.622	507.2
655.019	514.4
655.438	509.8
655.857	512.2
656.275	515.2
656.673	515.8
657.091	522.8
657.51	508.4
657.908	519.2
658.327	526.4
658.746	501
659.144	505.4
659.563	517
659.982	512.8
660.38	499
660.8	518.2
661.219	515.4
661.617	512.4
662.037	500.8
662.457	520.8
662.855	506
663.275	532.2
663.695	512.8
664.094	514.2
664.514	508.8
664.934	508.2
665.333	517.4
665.753	497.4
666.152	503
666.572	504.2
666.993	522
667.392	500.4
667.812	502.6
668.212	495.4
668.632	509.4
669.053	498.2
669.453	511
669.874	506.8
670.273	503
670.694	499.2
671.116	517
671.515	518.6
671.937	504.4
672.337	500.2
672.758	502.6
673.158	514.6
673.58	497.2
673.98	506.8
674.402	512.2
674.824	509.2
675.224	505.8
675.646	505.2
676.047	507.6
676.469	505.8
676.869	513.6
677.292	507.2
677.693	501.4
678.115	510.2
678.516	505.4
678.939	508
679.34	507.4
679.762	509.2
680.164	513.6
680.586	498.6
680.988	512.2
681.411	526.8
681.812	508.6
682.236	500.4
682.637	498.2
683.061	495.6
683.462	512.4
683.864	499
684.288	506
684.69	493.6
685.114	511.6
685.516	506.6
685.94	504.2
686.342	503.6
686.766	505
687.168	498
687.571	522.4
687.995	495
688.398	497.6
688.822	504.4
689.225	514.6
689.628	526
690.052	507.6
690.456	509.6
690.88	507.8
691.284	496.8
691.687	499.4
692.112	494.4
692.515	491.4
692.919	501
693.344	500.4
693.747	497
694.173	496.2
694.577	516
694.98	503
695.406	500
695.81	507.8
696.214	513.2
696.64	502
697.044	507.2
697.448	506.6
697.874	504.6
698.279	502.8
698.684	490
699.11	497.6
699.514	500.2
699.919	502.6
700.324	494.4
700.75	507.4
701.156	503.2
701.561	512.4
701.987	514.8
702.393	512.6
702.798	513.8
703.203	506
703.63	498.2
704.036	507.2
704.442	499.2
704.847	497.8
705.274	510.4
705.68	508
706.086	514.2
706.492	500.6
706.92	504.2
707.326	511.8
707.732	502
708.139	488.2
708.545	499.2
708.973	505.8
709.38	509.2
709.786	503.4
710.193	519
710.6	504.8
711.028	501.6
711.435	509.4
711.842	501.6
712.249	501.2
712.656	503
713.064	508.8
713.492	498.6
713.9	501.8
714.307	507
714.715	502.6
715.123	505.4
715.53	507.2
715.938	510.6
716.367	506.2
716.775	496
717.184	499.4
717.592	503.6
718	516.2
718.408	528.6
718.816	546
719.225	511.8
719.633	499.8
720.042	488.2
720.472	501.4
720.881	518.4
721.29	508
721.699	495
722.108	506.6
722.517	504
722.926	495.4
723.335	503.6
723.744	500.4
724.154	504
724.563	503
724.973	510.4
725.382	501.6
725.792	511.6
726.202	499
726.612	507.4
727.022	500
727.432	494.8
779.813	497
780.223	537.6
780.634	498.2
781.044	493.2
781.454	510
781.865	513.4
782.276	491.2
782.686	509.4
783.097	501.8
783.508	503.4
783.919	504
784.33	509.2
784.741	509.4
785.152	497
785.563	491.8
785.974	495.2
786.386	506.6
786.776	501.2
787.188	503.6
787.599	493.8
788.011	497.8
788.423	503.2
788.835	495.6
789.247	480.8
789.659	493.2
790.071	492.6
790.483	533
790.874	498.8
791.286	496.4
791.699	493.8
792.111	499.2
792.524	506
792.937	497.8
793.349	493.8
793.741	495.2
794.154	494
794.567	514.2
794.98	503.8
795.393	493.6
795.785	507.2
796.198	500
796.612	500
797.026	497.4
797.439	484
797.831	495.6
798.245	487.8
798.659	500.4
799.073	503.2
799.487	494
799.88	500
800.294	499
800.708	508
801.123	507.4
801.516	522
801.93	495.2
802.345	492.6
802.76	497.4
803.153	510.6
803.568	512.6
803.983	515.4
804.377	508.4
804.792	495.6
805.207	493.4
805.601	502.6
806.016	529
806.432	499.6
806.826	524.2
807.242	500
807.658	506.2
808.052	499.6
808.468	500.8
808.884	498
809.279	500
809.695	512
810.111	517.2
810.506	506.4
810.922	519.8
811.339	501
811.734	511.6
812.151	495.8
812.546	497
812.963	494.4
813.38	508.8
813.776	501
814.193	518
814.589	493.8
815.006	496
815.402	492.6
815.82	489.6
816.237	496.8
816.633	497.2
817.051	491.4
817.448	500.2
817.866	496.8
818.262	512.2
818.68	492.4
819.077	494.8
819.495	499
819.892	530.8
820.311	495.8
820.708	499.2
821.127	497
821.524	504.6
821.943	505
822.34	518
822.759	504.2
823.157	498.4
823.576	512.6
823.974	505
824.393	588.6
824.791	495.6
825.189	497.6
825.609	496.8
826.007	513
826.427	494.6
826.826	500
827.246	504.6
827.644	488.4
828.043	508
828.463	490.8
828.862	501.8
829.261	494.8
829.682	488.8
830.081	501.4
830.502	492.4
830.901	495.4
831.301	498.2
831.722	498.6
832.121	498.2
832.521	493.8
832.943	493.6
833.342	494.8
833.742	493.2
834.164	501.2
834.564	491
834.965	489.8
835.386	494.2
835.787	501.4
836.188	495.4
836.588	506
837.01	499.6
837.411	488.8
837.812	503.2
838.213	500.4
838.636	495.4
839.037	554.2
839.438	503.2
839.84	492.8
840.263	503.2
840.664	500.4
841.066	500.8
841.468	502.6
841.891	490.2
842.293	510
842.695	502.8
843.098	507
843.5	488
843.902	503
844.326	496.8
844.729	501
845.131	511.8
845.534	502.6
845.937	505.6
846.34	518
846.764	494.2
847.167	503.6
847.571	492.4
847.974	491
848.377	494.8
848.781	535
849.184	510.4
849.588	504.6
849.992	500.8
850.396	501.8
850.821	512.4
851.225	506
851.63	492.2
852.034	509
852.438	501
852.843	568.6
853.247	501.4
853.652	497.4
854.057	515.8
854.462	496.6
854.867	506.4
855.272	523
855.677	504.8
856.082	491.4
856.487	489.6
856.893	498.2
857.298	499
857.704	487.6
858.11	501.8
858.516	504.8
858.922	513
