#lambda/nm	C1
208.295	465.4
208.67	433.8
209.045	390.6
209.419	397.4
209.794	543
210.169	523.4
210.544	627.4
210.919	540.8
211.295	526.4
211.67	540.6
212.045	532.4
212.421	534.8
212.796	558.6
213.172	528.4
213.547	535
213.923	532.4
214.299	534.4
214.675	541.2
215.051	543.2
215.427	547.8
215.803	558.6
216.179	542.6
216.555	531.4
216.932	547.2
217.308	539
217.684	534.8
218.061	543.8
218.438	542.4
218.814	530.8
219.191	541.4
219.568	529
219.945	534.8
220.322	538
220.699	542.6
221.076	541.6
221.453	537.4
221.83	525.2
222.208	531.6
222.585	534
222.962	531.8
223.34	539.8
223.717	534.4
224.095	530.4
224.473	536.6
224.851	526.2
225.229	521
225.607	550.8
225.985	524.8
226.363	536.6
226.741	535
227.119	531.4
227.497	553.4
227.876	528.6
228.254	543.4
228.633	540.2
229.011	536.4
229.39	542.8
229.769	529.8
230.148	533.8
230.527	553
230.905	540.4
231.284	543
231.664	534.4
232.043	541.4
232.422	543.2
232.801	536.4
233.181	537.6
233.56	530.6
233.94	534
234.319	525.2
234.699	531.8
235.079	564.6
235.458	563
235.838	542.2
236.218	535.8
236.598	531.2
236.978	523.2
237.358	526.8
237.738	530
238.119	538
238.499	529
238.88	536
239.26	557.2
239.641	527.8
240.021	527.2
240.402	532.8
240.783	530.6
241.163	535.6
241.544	538
241.925	535.6
242.306	548.4
242.687	531.4
243.069	541.4
243.45	543.4
243.831	532.2
244.212	527.8
244.594	565.8
244.975	543
245.357	537.4
245.739	534.4
246.12	535.8
246.502	544
246.884	532.6
247.266	534.2
247.648	543
248.03	552.6
248.412	547.4
248.794	540.2
249.176	541.6
249.559	539.6
249.941	530.6
250.323	523.8
250.706	526
251.089	542
251.471	545.2
251.854	537
252.237	544.8
252.62	547.8
253.002	540.2
253.385	538.6
253.769	545.6
254.152	540.8
254.535	540.8
254.918	534.4
255.301	533
255.685	537.4
256.068	532.6
256.452	553.4
256.835	550.2
257.219	540.6
257.603	544.8
257.986	532.2
258.37	537.6
258.754	531.6
259.138	541.8
259.522	546.8
259.906	539
260.29	546.2
260.675	539.2
261.059	544.2
261.443	523.2
261.828	540
262.212	543.8
262.597	533
262.981	538.2
263.366	544.4
263.751	535
264.136	534.8
264.521	537
264.906	531.4
265.291	551.2
265.676	538.2
266.061	543.2
266.446	555.2
266.831	537.6
267.217	553.2
267.602	539
267.987	546
268.373	535.8
268.759	544.6
269.144	542.2
269.53	541.6
269.916	535.8
270.302	531.4
270.688	541.8
271.074	543.4
271.46	547
271.846	564.8
272.232	531.4
272.618	532.8
273.004	529.2
273.391	542.4
273.777	546.2
274.164	542.2
274.55	545
274.937	536.8
275.324	528.4
275.71	546.8
276.097	543
276.484	529
276.871	540.4
277.258	542.4
277.645	529.2
278.032	530.8
278.419	537.6
278.807	537
279.194	524
279.581	533.6
279.969	541.2
280.356	535
280.744	537.8
281.131	551.4
281.519	544.8
281.907	535.8
282.295	539.8
282.682	549
283.07	539.4
283.458	542.2
283.846	548.2
284.235	546.4
284.623	548
285.011	532.4
285.399	543
285.788	540.4
286.176	526.8
286.565	545.2
286.953	528.2
287.342	528.4
287.731	528
288.119	529.6
288.508	532.4
288.897	538.6
289.286	529
289.675	533.4
290.064	545.6
290.453	532.8
290.821	534.4
291.21	554
291.599	535.2
291.989	537
292.378	546.2
292.768	547.4
293.157	539.6
293.547	542.2
293.936	537
294.326	535.4
294.716	540
295.106	533.6
295.496	540
295.886	541
296.276	534.8
296.666	528.2
297.056	521.2
297.446	523.2
297.836	546
298.227	535.6
298.617	534
299.008	544.4
299.398	532
299.789	535.2
300.179	540.2
300.57	550.2
300.961	540.2
301.352	528.8
301.742	540.2
302.133	540.6
302.524	539.8
302.915	540.2
303.307	528.2
303.698	545
304.089	537.2
304.48	535.8
304.872	543
305.263	542.4
305.655	528.8
306.046	542.6
306.438	534.6
306.829	533.2
307.221	548.2
307.613	555.6
308.005	544.2
308.397	542.8
308.789	553.6
309.181	558
309.573	553.8
309.965	550
310.357	535.8
310.749	544.4
311.142	531.8
311.534	534.8
311.926	545.2
312.319	533.2
312.711	532.8
313.104	552.8
313.497	541.2
313.889	569
314.282	540.2
314.675	556.4
315.068	541.4
315.461	543.4
315.854	558.4
316.247	545.8
316.64	540.8
317.033	538
317.405	538
317.798	541
318.192	536.6
318.585	531.8
318.979	539.2
319.372	530.6
319.766	533.8
320.16	546.4
320.553	556
320.947	554.2
321.341	539.2
321.735	541.4
322.129	531.2
322.523	549.2
322.917	534.8
323.311	545.2
323.705	544.2
324.099	541
324.494	543
324.888	544.8
325.282	532.6
325.677	551.4
326.071	545.8
326.466	546.8
326.861	540
327.255	544.8
327.65	550.8
328.045	550.8
328.44	534.8
328.835	534
329.23	536.6
329.625	546.2
330.02	525.8
330.415	555.2
330.81	546.4
331.206	534
331.601	531.8
331.996	541.2
332.37	554.6
332.766	528.6
333.161	556.2
333.557	528.8
333.953	534.6
334.348	818.4
334.744	536.2
335.14	540.4
335.536	533.2
335.932	544
336.328	544
336.724	544.8
337.12	541.6
337.516	535.6
337.913	534
338.309	546.2
338.705	538.6
339.102	544.6
339.498	526.8
339.895	551.6
340.291	534
340.688	550
341.085	528.4
341.481	542.4
341.878	532
342.275	557.2
342.672	527.6
343.069	537.8
343.466	526
343.842	543.4
344.239	534
344.636	534.2
345.033	537.2
345.431	531.8
345.828	541
346.225	538.6
346.623	563.4
347.02	526.8
347.418	539.2
347.816	544.8
348.213	529.2
348.611	534.4
349.009	530.4
349.407	541.8
349.805	532.2
350.203	536.4
350.601	544.4
350.999	537.2
351.397	583.2
351.795	533.6
352.193	545.8
352.57	545.4
352.969	534
353.367	530.6
353.766	529.6
354.164	537.4
354.563	537.2
354.961	534.4
355.36	535.8
355.759	530.4
356.158	525.6
356.557	530.2
356.956	528.2
357.355	529.2
357.754	535.2
358.153	537
358.552	555.4
358.951	540.2
359.35	545.2
359.75	529.2
360.149	530.2
360.527	528
360.926	524
361.326	534.2
361.726	535.6
362.125	525.2
362.525	532.8
362.925	521.8
363.325	537
363.724	536.8
364.124	526.4
364.524	527.6
364.924	529.6
365.324	537.8
365.725	517.2
366.125	535.6
366.525	531.2
366.904	528
367.304	514.4
367.705	544.8
368.105	543.8
368.506	527.6
368.906	536
369.307	535.4
369.708	535.2
370.108	524.2
370.509	536.6
370.91	529.2
371.311	532
371.712	517.4
372.113	526.8
372.514	519.2
372.894	527
373.295	518.2
373.696	542.8
374.097	534
374.499	551.4
374.9	537.4
375.301	518
375.703	527.8
376.105	512.6
376.506	532.8
376.908	532.4
377.309	525.6
377.711	528.8
378.113	532.4
378.493	533.6
378.895	520
379.297	539.4
379.699	516.2
380.102	524.6
380.504	528.4
380.906	527.4
381.308	543.4
381.71	534.8
382.113	538.4
382.515	527.4
382.918	531
383.299	525.2
383.701	538
384.104	530.6
384.507	514.6
384.909	529.2
385.312	520.8
385.715	519.2
386.118	523.4
386.521	521.8
386.924	526.6
387.327	521.2
387.709	516
388.112	516.4
388.515	522.6
388.918	522.6
389.322	539.4
389.725	516.8
390.129	542.4
390.532	532
390.936	521.4
391.339	521.4
391.743	522.6
392.125	526
392.529	537.6
392.933	535.2
393.337	526.8
393.74	523.4
394.144	525.2
394.548	523.4
394.953	528
395.357	538.2
395.761	529
396.144	528.8
396.548	524
396.952	521.2
397.357	526.4
397.761	519
398.166	519.2
398.57	527
398.975	513.4
399.379	520.6
399.763	574
400.168	529.8
400.572	526.8
400.977	516
401.382	541.8
401.787	535.4
402.192	542.2
402.597	540
403.002	516.6
403.386	543
403.791	538.8
404.197	518
404.602	526.8
405.007	525.4
405.413	526.8
405.818	532.8
406.224	525.4
406.608	527.8
407.014	527
407.42	539.2
407.825	522.6
408.231	538.2
408.637	530
409.043	538.2
409.449	522.2
409.834	525.8
410.24	529.2
410.646	536.8
411.052	542.2
411.458	536.4
411.865	528
412.271	541
412.677	535.8
413.062	538.8
413.469	524.4
413.875	548
414.282	540.8
414.689	538.8
415.095	525
415.502	523.4
415.888	529
416.294	518.2
416.701	566.4
417.108	531.8
417.515	538
417.923	528.6
418.33	552
418.715	538.8
419.123	532.2
419.53	531.2
419.937	533
420.345	543
420.752	527.6
421.16	548.4
421.546	526.6
421.953	543.8
422.361	520
422.769	530.4
423.177	527.2
423.585	543
423.992	538.8
424.379	541.6
424.787	532.8
425.195	552
425.603	535
426.011	543.8
426.419	548
426.806	530.4
427.214	534.2
427.623	539.4
428.031	544.2
428.44	533.6
428.848	537.8
429.235	537
429.644	532.2
430.053	527.6
430.461	548.4
430.87	554.8
431.279	535.4
431.666	518.8
432.075	533
432.484	531.4
432.893	529.4
433.302	537
433.711	565
434.099	535
434.508	529
434.918	520.4
435.327	538.6
435.737	536.2
436.125	531.4
436.534	538.2
436.944	534
437.353	528.4
437.763	544.2
438.173	519.8
438.561	542.4
438.971	517.4
439.381	528.8
439.791	531.4
440.201	515
440.589	526.4
440.999	541.8
441.409	528.4
441.819	523.2
442.23	529.2
442.619	534.4
443.029	529.2
443.439	530
443.85	545.6
444.26	539
444.649	535.4
445.06	531
445.471	526.8
445.881	528
446.292	538.2
446.682	536.8
447.092	513.2
447.503	571
447.914	535
448.325	531.8
448.715	530.4
449.126	523
449.537	531.8
449.948	527.2
450.338	525
450.75	529.6
451.161	533.2
451.572	531.2
451.984	518
452.374	511.8
452.786	534.8
453.197	528.6
453.609	524
453.999	512.2
454.411	520
454.823	536
455.235	531
455.647	530.2
456.037	531.8
456.449	513
456.862	531.4
457.274	529.8
457.665	525.6
458.077	530.8
458.489	548
458.902	525.4
459.293	520
459.705	531.6
460.118	519.2
460.53	533.2
460.921	531.6
461.334	529.2
461.747	530
462.16	537.8
462.551	536.4
462.964	525.6
463.377	507.8
463.79	525.6
464.182	523.6
464.595	516.8
465.008	527.4
465.421	531.4
465.813	519.2
466.226	535
466.64	525.2
467.053	560.2
467.445	536
467.859	538.6
468.272	528
468.686	538.4
469.078	519
469.492	513.4
469.906	527.4
470.298	529.6
470.712	513.2
471.126	537.4
471.54	503.4
471.933	508.2
472.347	524.2
472.761	520
473.175	516
473.568	515.8
473.982	508.6
474.397	515.8
474.79	520.2
475.204	521.8
475.619	515.8
476.033	521.4
476.426	513.4
476.841	512.4
477.256	543.8
477.649	519.6
478.064	518.8
478.479	516.4
478.872	521.6
479.287	506.4
479.702	518
480.118	512.6
480.511	520.2
480.927	522
481.342	520.6
481.736	523
482.151	519.2
482.566	524.8
482.96	524.2
483.376	527
483.792	512.4
484.186	529.2
484.602	513.4
485.017	528.4
485.412	513.6
485.827	527.2
486.243	514.8
486.638	540.4
487.054	526.4
487.47	531.4
487.865	511.8
488.281	513.4
488.697	507.6
489.092	518
489.508	505.6
489.925	523.2
490.32	514.8
490.736	528
491.153	526
491.548	527
491.964	524.4
492.381	514.2
492.776	522.6
493.193	511.4
493.61	525.8
494.006	520.2
494.422	523
494.84	511.8
495.235	521.4
495.652	516.2
496.069	513
496.465	516
496.883	519.4
497.3	539
497.696	516.8
498.113	525.6
498.509	511.6
498.927	512.8
499.344	516.8
499.741	518.2
500.158	526
500.576	524.4
500.973	518.4
501.39	514.2
501.787	510.2
502.205	524
502.623	518.6
503.02	508
503.438	516.6
503.856	515.6
504.253	522
504.671	518.8
505.068	514.8
505.486	519.8
505.905	533.4
506.302	523
506.72	529.4
507.118	514
507.536	515.8
507.955	518
508.352	518.8
508.771	529.2
509.169	522.4
509.587	516
510.006	521.4
510.404	516.4
510.823	516.8
511.221	517
511.64	518
512.038	525.6
512.457	520.8
512.877	518.4
513.275	514
513.694	520
514.092	518.8
514.512	519.4
514.91	527.2
515.33	514.2
515.749	521.6
516.148	523.4
516.568	516
516.966	514.4
517.386	516.8
517.785	520.6
518.205	513.2
518.603	515.6
519.024	508.2
519.444	516.4
519.843	521.6
520.263	524.2
520.662	514.6
521.082	516.6
521.481	515.4
521.902	510
522.301	517.4
522.722	516.2
523.121	516.2
523.542	512.8
523.963	510
524.362	517.4
524.783	516.6
525.183	511.8
525.604	517.2
526.003	518.6
526.425	509.2
526.824	524
527.246	520.8
527.646	520
528.067	524.6
528.467	510.6
528.888	518.8
529.289	514.6
529.71	509.4
530.11	518.6
530.532	514.4
530.932	512.6
531.354	509
531.755	544.4
532.176	519
532.577	523.8
532.999	517
533.4	516.4
533.822	521
534.223	520
534.645	514
535.046	517.4
535.468	514.6
535.869	528.6
536.292	512.4
536.693	546.8
537.115	515.2
537.516	508.2
537.939	516
538.34	529.2
538.742	526.4
539.165	511.8
539.566	522.2
539.989	512.8
540.391	511.2
540.814	525.4
541.216	518.4
541.639	517.8
542.041	517
542.464	514.4
542.866	506.8
543.268	512.6
543.691	518.6
544.093	523.4
544.517	532.8
544.919	510.6
545.343	540.8
545.745	514.8
546.147	523.4
546.571	507
546.974	514.2
547.398	516.2
547.8	530.8
548.224	517.6
548.627	513.6
549.03	523.8
549.454	515.8
549.857	508.4
550.281	513.2
550.684	509.2
551.087	525.2
551.512	515.2
551.915	519.8
552.34	514.6
552.743	513.2
553.146	521.6
553.571	513
553.975	525.2
554.399	508.4
554.803	565.4
555.207	516.6
555.632	513
556.036	522.6
556.461	511.6
556.865	523.2
557.268	510.2
557.694	512
558.098	515.2
558.502	519.6
558.927	507.2
559.332	514.4
559.736	521
560.162	519.8
560.566	514.4
560.992	521.2
561.396	514
561.801	512
562.227	515.2
562.631	516.2
563.036	518.6
563.462	524.4
563.867	520.4
564.272	507.2
564.698	527
565.103	512.2
565.508	531.4
565.935	514.4
566.34	518
566.745	513.6
567.172	512.4
567.577	529
567.982	527.2
568.409	513.2
568.815	513.8
569.22	514.8
569.626	513.4
570.053	506.8
570.459	509.8
570.865	516.4
571.292	517.6
571.698	515.4
572.104	505.2
572.531	510.8
572.937	517.8
573.343	514.6
573.75	510.6
574.177	511
574.583	524
574.99	513.6
575.396	524.2
575.824	521.8
576.231	516.4
576.637	506
577.065	543.6
577.472	509
577.879	506.4
578.286	526
578.714	505.2
579.121	512.6
579.528	515.2
579.935	520.8
580.364	510.2
580.771	503.6
581.178	510.8
581.585	515.6
582.014	514
582.421	513.8
582.829	510
583.236	525.8
583.644	507.2
584.073	511.4
584.481	512
584.889	511.4
585.296	523.8
585.726	511
586.134	507.4
586.542	510.6
586.95	526
587.358	506.6
587.787	515.8
588.196	498.8
588.604	500.8
589.012	514
589.421	507.2
589.851	498.6
590.259	513.6
590.668	506.6
591.076	546
591.485	498.4
591.894	513.2
592.324	512
592.733	515.2
593.142	506
593.551	501.2
593.96	544.2
594.369	501.2
594.8	508.8
595.209	510.6
595.618	502.4
596.028	500.2
596.437	506
596.847	514.2
597.256	513.8
597.687	517.6
598.097	513.6
598.507	499.4
598.917	510.6
599.327	517.8
599.736	520
600.146	517.4
600.556	516.8
600.988	522.4
601.398	513
601.808	518.6
602.219	506
602.629	516.6
603.039	513.4
603.45	542.4
603.86	517
604.271	524.2
604.703	514.4
605.114	518.8
605.525	516.4
605.935	517.6
606.346	529.8
606.757	517
607.168	513.4
607.579	502.6
607.99	533
608.402	520.8
608.813	513.8
609.224	509.6
609.636	512
610.047	510.8
610.48	516.6
610.892	523
611.303	519.6
611.715	515.8
612.127	506.4
612.539	518.4
612.95	517.8
613.362	504.6
613.774	515.4
614.186	512.4
614.599	516.2
615.011	526.2
615.423	521.4
615.835	504
616.248	500.6
616.66	516.4
617.073	512
617.485	514.4
617.898	514
618.311	513.4
618.723	515.6
619.136	539.4
619.549	531.4
619.962	536.2
620.375	517.8
620.788	511.8
621.201	514
621.614	525
622.028	512.2
622.441	519.6
622.854	526.4
623.268	510.4
623.681	517.4
624.095	516.2
624.509	519.8
624.922	523.4
625.336	510.8
625.728	516.2
626.142	530.8
626.556	531.8
626.97	523.4
627.384	517.4
627.799	516.4
628.213	528.2
628.627	516.6
629.041	522
629.456	517
629.87	515.6
630.285	532
630.699	530.8
631.093	520.2
631.507	522.2
631.922	525.6
632.337	529
632.752	510
633.167	514
633.582	512.6
633.997	510.2
634.412	513.6
634.806	527.2
635.221	516.8
635.637	526.4
636.052	517
636.468	519.2
636.883	532.6
637.299	520.4
637.715	508
638.109	515.2
638.525	508.2
638.941	527.2
639.357	520.6
639.773	534
640.189	514
640.584	520
641	516.6
641.416	512.4
641.832	510.4
642.249	517.8
642.665	513.8
643.06	523.8
643.477	520.2
643.894	510.8
644.31	512.6
644.727	517.8
645.123	510
645.54	518.4
645.957	519.8
646.374	528.6
646.77	513.8
647.187	536.8
647.604	512.4
648.021	507.2
648.439	509.4
648.835	516
649.252	522.4
649.67	514.8
650.088	516
650.484	510.4
650.902	518.4
651.32	519
651.738	516.4
652.134	511.4
652.552	536.8
652.971	521.8
653.389	520.4
653.786	525.8
654.204	515.6
654.622	504.4
655.019	513.6
655.438	519.2
655.857	511.8
656.275	520
656.673	508.6
657.091	523.4
657.51	511.8
657.908	517.8
658.327	526.2
658.746	512.8
659.144	511.2
659.563	519
659.982	517.8
660.38	502.4
660.8	514
661.219	512.6
661.617	503.2
662.037	508.6
662.457	513.4
662.855	503
663.275	538.6
663.695	510.4
664.094	506.2
664.514	511.2
664.934	504.2
665.333	512.8
665.753	508
666.152	503.2
666.572	498.8
666.993	515
667.392	506.6
667.812	503.2
668.212	509.2
668.632	514.8
669.053	505.4
669.453	509.2
669.874	517
670.273	510.8
670.694	499.4
671.116	513.2
671.515	513.4
671.937	511
672.337	504
672.758	505.4
673.158	517.2
673.58	497.4
673.98	518.2
674.402	516.4
674.824	509.4
675.224	510.4
675.646	507.8
676.047	505
676.469	507.6
676.869	515
677.292	509.8
677.693	504.6
678.115	503.6
678.516	519.4
678.939	514.6
679.34	509
679.762	520
680.164	515.4
680.586	498.4
680.988	513.4
681.411	518
681.812	508.2
682.236	506.4
682.637	497.6
683.061	498
683.462	504.6
683.864	505.8
684.288	513.8
684.69	505
685.114	511.4
685.516	517.4
685.94	491.4
686.342	504.6
686.766	505
687.168	493.6
687.571	515.4
687.995	506.2
688.398	490
688.822	509
689.225	517.8
689.628	521
690.052	496.8
690.456	514.8
690.88	514.2
691.284	500.8
691.687	509.6
692.112	499.6
692.515	504.2
692.919	507.4
693.344	514.4
693.747	505
694.173	505.6
694.577	523.2
694.98	510.4
695.406	496.8
695.81	518.4
696.214	507.2
696.64	507.2
697.044	503.8
697.448	518.2
697.874	510
698.279	509
698.684	500
699.11	499.8
699.514	503.6
699.919	500.8
700.324	500.6
700.75	507.8
701.156	509.2
701.561	513.4
701.987	507.6
702.393	509.6
702.798	517.6
703.203	506.4
703.63	504.8
704.036	505
704.442	516
704.847	499.2
705.274	507.6
705.68	508.4
706.086	510.2
706.492	494.8
706.92	512.8
707.326	514.2
707.732	503
708.139	504.4
708.545	500.8
708.973	505.4
709.38	509.2
709.786	496.2
710.193	523.2
710.6	507.2
711.028	496.6
711.435	503.4
711.842	506.8
712.249	499.2
712.656	501.6
713.064	510
713.492	496.8
713.9	502
714.307	510.6
714.715	500.6
715.123	504.6
715.53	508.6
715.938	503.4
716.367	506.2
716.775	500.2
717.184	505.2
717.592	509.6
718	509.2
718.408	535.2
718.816	538.4
719.225	505.2
719.633	499.2
720.042	486.2
720.472	503
720.881	519
721.29	507.8
721.699	495.8
722.108	504.8
722.517	504.4
722.926	504
723.335	506
723.744	502.4
724.154	506
724.563	509.4
724.973	509.8
725.382	513
725.792	513.8
726.202	502.8
726.612	510
727.022	501.8
727.432	505.4
779.813	493
780.223	547.8
780.634	506.8
781.044	506.4
781.454	501.6
781.865	518.8
782.276	501.2
782.686	513.2
783.097	498.6
783.508	505.8
783.919	506
784.33	514.8
784.741	517.2
785.152	497
785.563	491.6
785.974	497
786.386	513.8
786.776	502.6
787.188	509.2
787.599	496.6
788.011	510.6
788.423	502
788.835	496.6
789.247	494.4
789.659	499.4
790.071	504.8
790.483	530.6
790.874	507.8
791.286	513.6
791.699	507.2
792.111	498.4
792.524	504
792.937	505.8
793.349	504.8
793.741	501.2
794.154	496.8
794.567	524.6
794.98	502.4
795.393	507.4
795.785	518.8
796.198	506.2
796.612	502.6
797.026	500.4
797.439	491.6
797.831	503.8
798.245	500.6
798.659	500.8
799.073	503
799.487	500.2
799.88	502.6
800.294	504.4
800.708	505.4
801.123	506.6
801.516	521
801.93	497.6
802.345	496.6
802.76	509.8
803.153	516.8
803.568	510.2
803.983	510.4
804.377	502.6
804.792	494.4
805.207	494
805.601	513.6
806.016	532.8
806.432	501.2
806.826	529.6
807.242	517.4
807.658	507.6
808.052	507
808.468	504.8
808.884	498
809.279	504.8
809.695	513.6
810.111	519.8
810.506	508
810.922	511.2
811.339	501.2
811.734	510
812.151	493.8
812.546	494.6
812.963	501.2
813.38	507
813.776	500.8
814.193	518
814.589	498.4
815.006	497.2
815.402	488.8
815.82	495.6
816.237	497.4
816.633	510.8
817.051	497.4
817.448	497
817.866	494.6
818.262	512.6
818.68	496
819.077	491
819.495	505.4
819.892	534.6
820.311	490.8
820.708	499.6
821.127	497.8
821.524	514.8
821.943	502.2
822.34	529.4
822.759	504.8
823.157	503.8
823.576	519.2
823.974	512.2
824.393	562
824.791	500
825.189	487.2
825.609	500
826.007	497.8
826.427	489.8
826.826	504.8
827.246	505.8
827.644	492.2
828.043	513.8
828.463	500.4
828.862	507
829.261	505.4
829.682	492.4
830.081	503.8
830.502	493.6
830.901	506.8
831.301	495.4
831.722	491.8
832.121	496.6
832.521	498.6
832.943	497
833.342	492.8
833.742	491.4
834.164	492.6
834.564	490.8
834.965	498.2
835.386	503
835.787	498.4
836.188	504.6
836.588	508.8
837.01	506.2
837.411	495.8
837.812	502.8
838.213	506.2
838.636	492.6
839.037	552.4
839.438	503
839.84	505
840.263	508.2
840.664	504.6
841.066	500.2
841.468	501
841.891	493.4
842.293	509
842.695	502.4
843.098	510.6
843.5	499.4
843.902	503.8
844.326	506.8
844.729	497.2
845.131	510.2
845.534	496
845.937	511.6
846.34	511
846.764	498.6
847.167	498
847.571	494.2
847.974	502.6
848.377	500.6
848.781	543
849.184	521.6
849.588	500.6
849.992	499.2
850.396	504.6
850.821	521.4
851.225	503
851.63	498.2
852.034	503
852.438	496.6
852.843	567.2
853.247	492
853.652	499.4
854.057	513.4
854.462	506.4
854.867	506.4
855.272	528.6
855.677	501.6
856.082	499.2
856.487	500.8
856.893	504.4
857.298	500.6
857.704	504
