#lambda/nm	C1
208.295	471.2
208.67	436.8
209.045	396.2
209.419	399
209.794	540.8
210.169	517.6
210.544	628.6
210.919	535.6
211.295	524
211.67	534.4
212.045	531.4
212.421	526.8
212.796	566.4
213.172	532.2
213.547	528.6
213.923	533.4
214.299	530.8
214.675	538
215.051	535.8
215.427	537.8
215.803	552
216.179	546.2
216.555	532.4
216.932	547.6
217.308	536.6
217.684	541
218.061	545
218.438	534.2
218.814	531.4
219.191	544.4
219.568	532.6
219.945	535
220.322	540.6
220.699	536.2
221.076	544.6
221.453	537.2
221.83	524.2
222.208	534.4
222.585	531.6
222.962	533.6
223.34	542.2
223.717	529.8
224.095	535.4
224.473	537
224.851	530.6
225.229	533
225.607	543.4
225.985	530.8
226.363	531.8
226.741	539.4
227.119	534.6
227.497	551.8
227.876	531.8
228.254	540.8
228.633	544
229.011	542.8
229.39	541
229.769	537.4
230.148	544.8
230.527	552.8
230.905	542.2
231.284	540.4
231.664	541.2
232.043	542
232.422	553.6
232.801	535.2
233.181	538
233.56	535.4
233.94	542
234.319	527.2
234.699	536.2
235.079	577
235.458	566.6
235.838	549.2
236.218	528.4
236.598	519.2
236.978	535
237.358	527.2
237.738	531
238.119	543.4
238.499	531.4
238.88	538.8
239.26	543.4
239.641	527
240.021	533.8
240.402	532.4
240.783	536.6
241.163	529.6
241.544	540.6
241.925	537
242.306	548.6
242.687	528.6
243.069	533.4
243.45	548
243.831	528.4
244.212	537.6
244.594	563.4
244.975	551
245.357	541.6
245.739	525
246.12	540.2
246.502	550.8
246.884	535.8
247.266	537
247.648	534.8
248.03	560.4
248.412	548
248.794	541.4
249.176	529
249.559	538.4
249.941	530.6
250.323	534.2
250.706	529.2
251.089	536.6
251.471	530.4
251.854	530.8
252.237	538.4
252.62	549
253.002	532.8
253.385	529
253.769	543.4
254.152	532.8
254.535	547.2
254.918	532.4
255.301	541
255.685	536.6
256.068	525.4
256.452	562.2
256.835	547
257.219	543.8
257.603	544.2
257.986	527.8
258.37	542.4
258.754	535.2
259.138	540.4
259.522	548.8
259.906	527.6
260.29	538
260.675	529.4
261.059	530.8
261.443	530.6
261.828	536
262.212	538.6
262.597	531.4
262.981	525
263.366	546.8
263.751	531.8
264.136	521.4
264.521	529.4
264.906	529.6
265.291	546.8
265.676	535.2
266.061	544.6
266.446	550
266.831	538
267.217	555.4
267.602	534.6
267.987	539.4
268.373	531.4
268.759	547.6
269.144	537.6
269.53	542.6
269.916	541.8
270.302	536.6
270.688	537.2
271.074	530.4
271.46	544
271.846	566
272.232	532
272.618	522.2
273.004	530.8
273.391	543.8
273.777	544.2
274.164	534.4
274.55	546.6
274.937	535.4
275.324	534.6
275.71	539.2
276.097	531
276.484	529.6
276.871	532.8
277.258	533.4
277.645	524.2
278.032	530.2
278.419	532
278.807	537.8
279.194	530.4
279.581	529.8
279.969	545.8
280.356	539.4
280.744	533.4
281.131	554
281.519	550
281.907	528.2
282.295	532.8
282.682	549.6
283.07	536.6
283.458	543.2
283.846	542.6
284.235	545.8
284.623	544.8
285.011	531.4
285.399	542.2
285.788	534.6
286.176	531.8
286.565	549.2
286.953	528.4
287.342	547.8
287.731	531.2
288.119	530.6
288.508	537.6
288.897	536.8
289.286	524.2
289.675	540.4
290.064	546.4
290.453	534.6
290.821	544.2
291.21	547.4
291.599	539.8
291.989	530.8
292.378	544.8
292.768	549.2
293.157	537.6
293.547	543
293.936	532
294.326	533
294.716	534.8
295.106	531.6
295.496	542.6
295.886	551
296.276	536.6
296.666	539
297.056	529.8
297.446	527
297.836	543.6
298.227	531.4
298.617	541
299.008	546.8
299.398	534
299.789	534.6
300.179	532.4
300.57	535.4
300.961	523.2
301.352	539.4
301.742	543.4
302.133	535
302.524	532.2
302.915	542.8
303.307	527.6
303.698	540.2
304.089	540.8
304.48	532.8
304.872	540.2
305.263	544.4
305.655	535.6
306.046	538
306.438	543.2
306.829	532.4
307.221	551.6
307.613	528.6
308.005	545.4
308.397	551.2
308.789	554.8
309.181	557
309.573	550.2
309.965	549.2
310.357	536
310.749	551.6
311.142	532.6
311.534	527.4
311.926	537.8
312.319	531.2
312.711	532.4
313.104	545.6
313.497	532.6
313.889	566.2
314.282	545.8
314.675	555.4
315.068	537
315.461	541.6
315.854	561.6
316.247	544
316.64	531.6
317.033	536.4
317.405	547
317.798	534.6
318.192	540.2
318.585	529.4
318.979	542.8
319.372	529.8
319.766	539.4
320.16	541.2
320.553	549.8
320.947	551.2
321.341	530.4
321.735	537.2
322.129	525
322.523	556.8
322.917	531.6
323.311	543.8
323.705	542.4
324.099	537.4
324.494	547.4
324.888	543
325.282	541.2
325.677	540.6
326.071	541.4
326.466	539.4
326.861	535.4
327.255	543
327.65	548.8
328.045	544.2
328.44	539.6
328.835	541.2
329.23	539.2
329.625	561.4
330.02	533.6
330.415	554.2
330.81	538.4
331.206	535.2
331.601	535.6
331.996	544.2
332.37	548.2
332.766	534.4
333.161	555
333.557	531.6
333.953	530.6
334.348	835.2
334.744	535.8
335.14	529.8
335.536	526.8
335.932	542.8
336.328	531.8
336.724	547.6
337.12	530
337.516	538.6
337.913	538.8
338.309	546.4
338.705	536.8
339.102	541.6
339.498	525.2
339.895	547.2
340.291	523.6
340.688	543.6
341.085	529.2
341.481	532.6
341.878	536
342.275	556.2
342.672	533
343.069	527
343.466	529.6
343.842	541.8
344.239	531.4
344.636	536.2
345.033	526.4
345.431	534.8
345.828	541.6
346.225	531.6
346.623	561.8
347.02	535.6
347.418	537.8
347.816	550.6
348.213	524.4
348.611	541.2
349.009	531.6
349.407	540.2
349.805	525.4
350.203	523.4
350.601	543
350.999	532.8
351.397	584.4
351.795	533.8
352.193	534.6
352.57	537.4
352.969	544
353.367	526.6
353.766	533.2
354.164	533.6
354.563	543
354.961	530.6
355.36	526.4
355.759	529.6
356.158	521
356.557	524
356.956	521.8
357.355	523.2
357.754	542.8
358.153	541.6
358.552	551
358.951	534.6
359.35	543.2
359.75	527.2
360.149	521.2
360.527	520.8
360.926	518.8
361.326	535
361.726	531.4
362.125	522
362.525	532.2
362.925	528.8
363.325	528.6
363.724	528.8
364.124	531.2
364.524	520.4
364.924	535
365.324	531.4
365.725	521.4
366.125	527.2
366.525	527.2
366.904	520.8
367.304	516
367.705	545
368.105	535
368.506	533.6
368.906	530.4
369.307	535.2
369.708	532.4
370.108	513.4
370.509	538
370.91	519.2
371.311	528.4
371.712	528.2
372.113	521.2
372.514	519.4
372.894	522.2
373.295	522.2
373.696	532
374.097	531.8
374.499	552.8
374.9	525.8
375.301	516.6
375.703	532.6
376.105	527
376.506	530.2
376.908	539.8
377.309	523.2
377.711	531.6
378.113	520.8
378.493	526.6
378.895	528.6
379.297	534
379.699	513.6
380.102	533
380.504	531.6
380.906	525.6
381.308	550.8
381.71	527.6
382.113	532.8
382.515	525.6
382.918	530
383.299	531.4
383.701	538.2
384.104	525
384.507	516.8
384.909	524
385.312	518
385.715	519
386.118	519
386.521	519.8
386.924	532.4
387.327	524.4
387.709	521.6
388.112	519.4
388.515	525.4
388.918	526.4
389.322	527.2
389.725	525
390.129	539.2
390.532	530.6
390.936	526.8
391.339	524.6
391.743	528.2
392.125	522.2
392.529	533.4
392.933	537.8
393.337	527
393.74	523
394.144	532
394.548	529.4
394.953	528.6
395.357	533.2
395.761	527.6
396.144	537
396.548	526.2
396.952	527.8
397.357	528.4
397.761	522.4
398.166	533.2
398.57	521
398.975	522.8
399.379	533.8
399.763	571.4
400.168	529.6
400.572	535.4
400.977	528.6
401.382	549.8
401.787	534.6
402.192	531.6
402.597	542.4
403.002	520.8
403.386	536.8
403.791	540.2
404.197	523.8
404.602	527.8
405.007	526.2
405.413	519.6
405.818	533.4
406.224	524
406.608	519.8
407.014	527.2
407.42	540.4
407.825	526
408.231	532.8
408.637	535.8
409.043	543.6
409.449	523.8
409.834	520.4
410.24	522.4
410.646	540.2
411.052	532.8
411.458	530.2
411.865	534.8
412.271	531.4
412.677	529.4
413.062	541.4
413.469	518.2
413.875	549.6
414.282	537.6
414.689	538.4
415.095	527.2
415.502	517.6
415.888	533.8
416.294	515.2
416.701	566.4
417.108	519
417.515	531.8
417.923	536.2
418.33	550.4
418.715	536.4
419.123	520.6
419.53	522.8
419.937	534
420.345	536.6
420.752	519.8
421.16	539.4
421.546	529.2
421.953	528.6
422.361	524.8
422.769	522.6
423.177	527.4
423.585	537.6
423.992	541.4
424.379	542.2
424.787	537
425.195	544.6
425.603	535.8
426.011	543.2
426.419	546
426.806	531.4
427.214	534
427.623	526.6
428.031	540.6
428.44	542.2
428.848	540.8
429.235	546
429.644	532.4
430.053	531.4
430.461	540
430.87	548.8
431.279	543.4
431.666	526.6
432.075	534.4
432.484	534.2
432.893	531.4
433.302	535.6
433.711	560.2
434.099	532
434.508	534.8
434.918	521.8
435.327	533
435.737	522.4
436.125	523.4
436.534	533
436.944	527.2
437.353	533.6
437.763	546.4
438.173	517.4
438.561	534.8
438.971	516
439.381	526.4
439.791	522.4
440.201	514
440.589	530.4
440.999	534.8
441.409	532.4
441.819	522.4
442.23	530
442.619	535.8
443.029	526
443.439	530.2
443.85	532.4
444.26	540.2
444.649	535.8
445.06	521.4
445.471	525.4
445.881	523.2
446.292	533.2
446.682	539.6
447.092	513.2
447.503	562.2
447.914	523.6
448.325	526.4
448.715	523.2
449.126	514
449.537	523.2
449.948	523
450.338	525
450.75	530.4
451.161	521.2
451.572	529.2
451.984	519.2
452.374	513.2
452.786	515
453.197	531.6
453.609	525.6
453.999	521.2
454.411	526.4
454.823	537
455.235	529
455.647	521.8
456.037	523
456.449	514.8
456.862	524.2
457.274	521.2
457.665	514.8
458.077	535
458.489	545.4
458.902	523.8
459.293	525.2
459.705	530
460.118	515.2
460.53	529.2
460.921	520.4
461.334	530
461.747	521.6
462.16	531.4
462.551	526
462.964	533.6
463.377	506
463.79	519.4
464.182	531.2
464.595	518.8
465.008	520.8
465.421	526.2
465.813	519.6
466.226	526.2
466.64	519.6
467.053	556.8
467.445	532.4
467.859	540.4
468.272	515.8
468.686	527.8
469.078	521.6
469.492	515.6
469.906	517
470.298	522.2
470.712	519.6
471.126	549.4
471.54	508.6
471.933	519.2
472.347	521.6
472.761	518.8
473.175	509.2
473.568	520.4
473.982	509.6
474.397	517.8
474.79	522
475.204	525.6
475.619	523.4
476.033	528
476.426	531.6
476.841	518.2
477.256	540.2
477.649	518.6
478.064	515.6
478.479	513
478.872	512.4
479.287	504.8
479.702	516
480.118	523.6
480.511	518.6
480.927	521.6
481.342	522.4
481.736	523.4
482.151	517.2
482.566	534.4
482.96	520.4
483.376	522.2
483.792	517.8
484.186	531.6
484.602	519.8
485.017	525.2
485.412	514.8
485.827	526.8
486.243	525.4
486.638	541.8
487.054	522.6
487.47	522
487.865	517
488.281	519
488.697	516.2
489.092	520.8
489.508	515.6
489.925	520.6
490.32	515.8
490.736	531.6
491.153	520.6
491.548	527.4
491.964	533.4
492.381	512.4
492.776	519.2
493.193	519.2
493.61	526.4
494.006	516.6
494.422	519.8
494.84	509.4
495.235	531
495.652	518.4
496.069	521.6
496.465	513.6
496.883	515.6
497.3	546.2
497.696	515.4
498.113	521.6
498.509	509.2
498.927	510.4
499.344	515.8
499.741	518
500.158	525.6
500.576	517.8
500.973	512.6
501.39	513.4
501.787	508.8
502.205	515.4
502.623	520.2
503.02	518.2
503.438	511
503.856	515.2
504.253	515.8
504.671	529.6
505.068	512.6
505.486	516.8
505.905	534
506.302	525.2
506.72	527.2
507.118	504.8
507.536	512
507.955	516
508.352	520.6
508.771	526.4
509.169	522.6
509.587	514.2
510.006	524.8
510.404	508.4
510.823	510.4
511.221	521
511.64	512.8
512.038	527
512.457	515.6
512.877	516.6
513.275	513.6
513.694	514.2
514.092	517.8
514.512	515.4
514.91	523.6
515.33	510
515.749	519.6
516.148	512
516.568	518.2
516.966	511.6
517.386	510.4
517.785	515.6
518.205	512.2
518.603	508.8
519.024	503.4
519.444	517.2
519.843	523.6
520.263	526.8
520.662	519.8
521.082	518
521.481	522
521.902	514
522.301	518.4
522.722	517.8
523.121	516.4
523.542	509.2
523.963	516.6
524.362	520
524.783	522.8
525.183	513.2
525.604	519.6
526.003	512.8
526.425	514.4
526.824	516.8
527.246	524
527.646	526.4
528.067	513.8
528.467	516.2
528.888	517.8
529.289	517
529.71	519.4
530.11	511
530.532	514.2
530.932	511.2
531.354	507
531.755	542.2
532.176	521.2
532.577	507.8
532.999	518
533.4	507.8
533.822	529.6
534.223	512.4
534.645	512.6
535.046	511.6
535.468	518.6
535.869	532
536.292	514.6
536.693	547.4
537.115	510.6
537.516	514.2
537.939	513.8
538.34	531
538.742	527
539.165	516.6
539.566	519.8
539.989	503.6
540.391	510.4
540.814	515.8
541.216	512.6
541.639	512.2
542.041	522
542.464	507.4
542.866	507.4
543.268	498.2
543.691	516.4
544.093	519.4
544.517	535.6
544.919	510.6
545.343	528
545.745	510.2
546.147	517.4
546.571	503.8
546.974	503
547.398	503
547.8	533.8
548.224	516
548.627	519.6
549.03	515.4
549.454	502.6
549.857	504.8
550.281	516.4
550.684	511
551.087	524.6
551.512	521.6
551.915	515.8
552.34	512.2
552.743	508.4
553.146	517.4
553.571	519
553.975	526.8
554.399	519.4
554.803	554
555.207	516.4
555.632	507.4
556.036	523.8
556.461	520.2
556.865	528.2
557.268	511.6
557.694	519.4
558.098	525.8
558.502	522.2
558.927	518.2
559.332	522.8
559.736	525.6
560.162	524
560.566	521.6
560.992	522.2
561.396	525.6
561.801	518.8
562.227	523.2
562.631	524.8
563.036	510.8
563.462	529.6
563.867	522.4
564.272	514.8
564.698	526.2
565.103	510.6
565.508	539
565.935	522.4
566.34	518.6
566.745	528.4
567.172	512.8
567.577	526.6
567.982	527.4
568.409	516.8
568.815	507
569.22	521
569.626	531.4
570.053	507.6
570.459	518.6
570.865	525.6
571.292	530.6
571.698	522.8
572.104	514.4
572.531	517
572.937	530.8
573.343	523.6
573.75	514.8
574.177	522.4
574.583	523.6
574.99	516.2
575.396	520.4
575.824	510.8
576.231	525
576.637	512.2
577.065	538.6
577.472	521
577.879	522
578.286	536.2
578.714	512.6
579.121	506.4
579.528	521.4
579.935	521.8
580.364	518
580.771	503.4
581.178	513.2
581.585	520.8
582.014	516.4
582.421	516.8
582.829	511.2
583.236	524.4
583.644	508.6
584.073	513.8
584.481	517.6
584.889	519.6
585.296	520.8
585.726	513.8
586.134	512.2
586.542	517.6
586.95	531.6
587.358	509
587.787	514.2
588.196	502.2
588.604	515.4
589.012	514.2
589.421	510.2
589.851	509.8
590.259	522
590.668	510
591.076	545.6
591.485	509.2
591.894	505.2
592.324	517.6
592.733	522
593.142	502.4
593.551	512.4
593.96	512.2
594.369	503
594.8	507
595.209	513
595.618	499.6
596.028	511.6
596.437	504.2
596.847	521.4
597.256	516.8
597.687	514.2
598.097	514
598.507	503.6
598.917	507.6
599.327	522
599.736	522.6
600.146	521.4
600.556	509.6
600.988	517.8
601.398	514.6
601.808	526
602.219	504.6
602.629	516.6
603.039	516.2
603.45	534.2
603.86	514.2
604.271	525.4
604.703	519.6
605.114	523.8
605.525	517.8
605.935	516.4
606.346	529.6
606.757	519.4
607.168	526
607.579	516.2
607.99	520.8
608.402	512.4
608.813	510.4
609.224	511.8
609.636	505.6
610.047	508.2
610.48	514.8
610.892	520.6
611.303	521.6
611.715	514.8
612.127	508.6
612.539	512.8
612.95	510.4
613.362	500.8
613.774	504.8
614.186	506.6
614.599	515.4
615.011	515.4
615.423	508.2
615.835	510.6
616.248	501.2
616.66	517.2
617.073	501.6
617.485	509.2
617.898	517.6
618.311	516
618.723	509.4
619.136	534.4
619.549	518.8
619.962	529
620.375	511
620.788	514.6
621.201	509.2
621.614	517.8
622.028	511.8
622.441	520.8
622.854	528
623.268	509
623.681	513.8
624.095	513
624.509	524
624.922	515.2
625.336	504.2
625.728	512.8
626.142	513.8
626.556	533.6
626.97	521
627.384	512.6
627.799	515.8
628.213	520.2
628.627	512
629.041	512.4
629.456	507
629.87	515.6
630.285	520.2
630.699	514.8
631.093	512
631.507	518
631.922	517.4
632.337	518.6
632.752	502.2
633.167	514.4
633.582	504.4
633.997	503.4
634.412	509.8
634.806	514.4
635.221	501.2
635.637	523.8
636.052	505.2
636.468	511.8
636.883	532.8
637.299	513.8
637.715	498.6
638.109	518
638.525	504.2
638.941	523.2
639.357	512.8
639.773	525.2
640.189	511.4
640.584	512
641	517.8
641.416	500.4
641.832	514.8
642.249	510.8
642.665	510
643.06	513.6
643.477	513.8
643.894	507.6
644.31	513.8
644.727	499.8
645.123	505.4
645.54	506.2
645.957	513.6
646.374	520.2
646.77	511.4
647.187	532.6
647.604	511.2
648.021	501.6
648.439	504.8
648.835	508.8
649.252	513.6
649.67	507
650.088	507.6
650.484	507.6
650.902	516.4
651.32	515.4
651.738	499.8
652.134	504.2
652.552	524
652.971	514.4
653.389	507.6
653.786	513.4
654.204	512.2
654.622	501.4
655.019	514.2
655.438	516.2
655.857	512.4
656.275	506.4
656.673	503
657.091	510
657.51	505.6
657.908	514
658.327	517.8
658.746	502
659.144	507.4
659.563	526
659.982	505.8
660.38	502.6
660.8	501
661.219	516
661.617	508.8
662.037	504.2
662.457	507.8
662.855	492
663.275	524.8
663.695	509.6
664.094	504.8
664.514	509
664.934	496.6
665.333	513.4
665.753	503.2
666.152	511.8
666.572	502
666.993	513.2
667.392	507.2
667.812	508.4
668.212	499.8
668.632	517.2
669.053	507
669.453	513.2
669.874	510.6
670.273	505
670.694	497
671.116	515.2
671.515	508.2
671.937	511.8
672.337	497.8
672.758	507.4
673.158	520.2
673.58	497.6
673.98	507.4
674.402	516.4
674.824	510.2
675.224	505.6
675.646	500
676.047	511
676.469	515
676.869	514
677.292	508
677.693	501.6
678.115	504.8
678.516	508.2
678.939	513
679.34	512.6
679.762	519
680.164	518.8
680.586	502.6
680.988	514.6
681.411	535
681.812	502.2
682.236	502.8
682.637	496.6
683.061	505
683.462	506.6
683.864	507.8
684.288	513.8
684.69	493.4
685.114	516.8
685.516	513
685.94	501
686.342	510.2
686.766	499.4
687.168	500.8
687.571	521.8
687.995	503.6
688.398	502.4
688.822	505.8
689.225	517.2
689.628	521
690.052	506.6
690.456	511.8
690.88	512.2
691.284	501.4
691.687	512
692.112	502.4
692.515	495.4
692.919	508
693.344	518.4
693.747	506.2
694.173	500.4
694.577	516.6
694.98	510.2
695.406	501
695.81	509.2
696.214	507.8
696.64	502.4
697.044	514.6
697.448	508.4
697.874	499
698.279	509.6
698.684	497.6
699.11	504.6
699.514	502
699.919	503.6
700.324	506.4
700.75	508.8
701.156	510.8
701.561	509.6
701.987	507.2
702.393	515
702.798	508
703.203	510.6
703.63	510.6
704.036	501
704.442	506
704.847	499.2
705.274	507
705.68	511.2
706.086	516.8
706.492	502.4
706.92	504.6
707.326	515.4
707.732	502.2
708.139	503.8
708.545	502.6
708.973	500.2
709.38	504
709.786	498
710.193	514
710.6	514.4
711.028	508.2
711.435	498.2
711.842	496.2
712.249	496.4
712.656	500.2
713.064	513.2
713.492	498.4
713.9	499.8
714.307	500.4
714.715	500
715.123	508.8
715.53	508.4
715.938	515
716.367	510
716.775	503.2
717.184	494.6
717.592	502.2
718	509
718.408	537.8
718.816	540.4
719.225	511.2
719.633	505.6
720.042	497
720.472	495.2
720.881	516.4
721.29	501.4
721.699	495
722.108	507.4
722.517	502.8
722.926	500.8
723.335	507.8
723.744	500.2
724.154	498
724.563	506.4
724.973	509.2
725.382	500
725.792	509.2
726.202	494.4
726.612	511.6
727.022	501.4
727.432	494.4
779.813	504.8
780.223	540.6
780.634	496.6
781.044	494.2
781.454	501.8
781.865	506.4
782.276	505
782.686	509.6
783.097	500.4
783.508	495
783.919	502.4
784.33	511.4
784.741	514.8
785.152	499.4
785.563	493.2
785.974	501.4
786.386	508.6
786.776	500
787.188	501
787.599	493.8
788.011	514
788.423	500.6
788.835	494.2
789.247	496.4
789.659	500
790.071	499.4
790.483	537
790.874	499.6
791.286	508.6
791.699	497.6
792.111	500.8
792.524	499.8
792.937	498
793.349	495.2
793.741	497
794.154	496.8
794.567	516.4
794.98	495.2
795.393	495.8
795.785	514.8
796.198	500
796.612	509.8
797.026	494.8
797.439	492.2
797.831	501.2
798.245	499.4
798.659	500.4
799.073	495.2
799.487	487.4
799.88	497.2
800.294	498.8
800.708	498.2
801.123	497
801.516	523.4
801.93	492
802.345	487.6
802.76	499.6
803.153	513.6
803.568	510.2
803.983	508.2
804.377	501.4
804.792	494.4
805.207	492.4
805.601	502
806.016	524
806.432	495
806.826	519.4
807.242	505.6
807.658	507.2
808.052	503.6
808.468	494.6
808.884	494.6
809.279	500
809.695	508.6
810.111	520.8
810.506	505.8
810.922	508
811.339	501.2
811.734	502.2
812.151	497.8
812.546	492.6
812.963	497
813.38	496
813.776	498.6
814.193	512.8
814.589	499.6
815.006	495.2
815.402	499
815.82	502
816.237	499.4
816.633	497.6
817.051	493.8
817.448	500.6
817.866	495.2
818.262	516.4
818.68	495
819.077	500.2
819.495	498.2
819.892	534
820.311	495.4
820.708	494
821.127	493.2
821.524	502.2
821.943	498.4
822.34	512.4
822.759	504.6
823.157	501.2
823.576	509.2
823.974	504.8
824.393	585.2
824.791	497.6
825.189	498.8
825.609	500.8
826.007	503.6
826.427	482.8
826.826	498
827.246	506.8
827.644	490.4
828.043	513.6
828.463	501
828.862	500.8
829.261	506
829.682	493.4
830.081	505.2
830.502	499.4
830.901	496.8
831.301	500.8
831.722	498
832.121	499.2
832.521	499.6
832.943	497.6
833.342	499.4
833.742	497.4
834.164	505.6
834.564	503.2
834.965	492.6
835.386	498.4
835.787	502
836.188	497.4
836.588	492
837.01	497.2
837.411	501.4
837.812	502.8
838.213	504.2
838.636	500
839.037	556.2
839.438	502.8
839.84	503.6
840.263	504.6
840.664	495
841.066	498.6
841.468	499.6
841.891	511.6
842.293	512.8
842.695	499.2
843.098	505.6
843.5	498.6
843.902	508.8
844.326	505.4
844.729	496.4
845.131	520.4
845.534	501.4
845.937	509
846.34	520.4
846.764	496.8
847.167	511
847.571	498
847.974	492.2
848.377	500.4
848.781	539
849.184	508.6
849.588	501
849.992	490.4
850.396	509.2
850.821	517.4
851.225	506.6
851.63	497.2
852.034	505.4
852.438	507.4
852.843	518.8
853.247	494.4
853.652	498.4
854.057	518
854.462	506.2
854.867	502.4
855.272	529.8
855.677	509.2
