#lambda/nm	C1
208.295	464.6
208.67	432.8
209.045	394.6
209.419	401.4
209.794	543.6
210.169	520.2
210.544	625.8
210.919	535.6
211.295	518.6
211.67	535.4
212.045	529
212.421	536.2
212.796	571.2
213.172	528.2
213.547	529.4
213.923	528.8
214.299	531.4
214.675	541.2
215.051	540
215.427	548.4
215.803	547.2
216.179	536.2
216.555	533
216.932	537.6
217.308	537.8
217.684	541.8
218.061	542.4
218.438	538.4
218.814	527
219.191	538.6
219.568	531.4
219.945	528.2
220.322	541.6
220.699	538.8
221.076	541.4
221.453	536.4
221.83	525.6
222.208	541.4
222.585	529.8
222.962	528
223.34	532.4
223.717	536
224.095	531.4
224.473	538.4
224.851	531.4
225.229	527.6
225.607	544.4
225.985	524.2
226.363	537.6
226.741	536.6
227.119	530.4
227.497	546.4
227.876	528.2
228.254	539.2
228.633	535.4
229.011	539.2
229.39	539
229.769	539.4
230.148	535.8
230.527	552.2
230.905	535.8
231.284	533.6
231.664	528.6
232.043	546.4
232.422	538
232.801	533.2
233.181	544.8
233.56	533
233.94	535.8
234.319	527.4
234.699	528.4
235.079	565.4
235.458	563.6
235.838	542.4
236.218	530.4
236.598	530.8
236.978	531.2
237.358	532.6
237.738	527.8
238.119	543.2
238.499	531.2
238.88	535.6
239.26	551.6
239.641	528.8
240.021	531.4
240.402	531.4
240.783	532
241.163	536.4
241.544	540
241.925	534
242.306	543.6
242.687	525.4
243.069	534.6
243.45	543.8
243.831	526.2
244.212	530.2
244.594	569.2
244.975	543.4
245.357	535.8
245.739	532.6
246.12	536.4
246.502	545.8
246.884	535
247.266	532
247.648	538
248.03	554
248.412	543.2
248.794	543.4
249.176	536
249.559	543
249.941	526.6
250.323	524.6
250.706	533.8
251.089	532.6
251.471	536.2
251.854	539.6
252.237	530.6
252.62	548.6
253.002	531.4
253.385	535.8
253.769	550.8
254.152	539
254.535	546.6
254.918	527
255.301	540.2
255.685	531.4
256.068	535.6
256.452	548.6
256.835	531.6
257.219	543
257.603	544.8
257.986	524.8
258.37	537
258.754	529.6
259.138	543
259.522	540.6
259.906	528.2
260.29	532.8
260.675	536
261.059	530
261.443	522.2
261.828	534.4
262.212	539
262.597	517.4
262.981	520.4
263.366	534.2
263.751	531.6
264.136	524.4
264.521	524.2
264.906	529.8
265.291	544.2
265.676	523.8
266.061	536.4
266.446	547
266.831	528.2
267.217	552.6
267.602	537.2
267.987	534.6
268.373	527.6
268.759	544.8
269.144	537.2
269.53	524.4
269.916	525.6
270.302	530.8
270.688	536.6
271.074	531.8
271.46	542.2
271.846	557.6
272.232	535.4
272.618	528.2
273.004	530.4
273.391	544
273.777	537.4
274.164	539.6
274.55	552.8
274.937	535.6
275.324	535.4
275.71	539.4
276.097	540
276.484	526.2
276.871	531.4
277.258	535
277.645	530.2
278.032	530.8
278.419	530.4
278.807	533.4
279.194	536
279.581	537.8
279.969	538
280.356	535.2
280.744	540
281.131	553.6
281.519	545.4
281.907	525.2
282.295	532.4
282.682	548.2
283.07	542.4
283.458	534.4
283.846	536.8
284.235	539.8
284.623	539
285.011	529.2
285.399	537.8
285.788	526
286.176	519.8
286.565	535.2
286.953	530
287.342	533
287.731	525.8
288.119	525.4
288.508	530.4
288.897	529.4
289.286	520
289.675	539.4
290.064	538.4
290.453	531.4
290.821	536.4
291.21	549.4
291.599	532.2
291.989	538.4
292.378	534.6
292.768	548
293.157	535.6
293.547	540
293.936	537.8
294.326	528
294.716	537.8
295.106	531.6
295.496	541.8
295.886	545.6
296.276	534.2
296.666	526.8
297.056	522.2
297.446	522.8
297.836	544
298.227	533
298.617	535.4
299.008	539.2
299.398	525.4
299.789	525
300.179	533
300.57	548
300.961	532.8
301.352	526.4
301.742	545
302.133	532
302.524	527.2
302.915	531.6
303.307	526
303.698	538.2
304.089	538.6
304.48	525.6
304.872	534
305.263	543.6
305.655	528.2
306.046	531.6
306.438	538.4
306.829	531.6
307.221	547.2
307.613	539.6
308.005	539.8
308.397	547
308.789	552.8
309.181	554.4
309.573	549.2
309.965	540.6
310.357	534
310.749	537
311.142	526.4
311.534	531.6
311.926	534.2
312.319	536.6
312.711	533.4
313.104	546.6
313.497	533.8
313.889	566.4
314.282	547
314.675	547.2
315.068	535.8
315.461	539.8
315.854	564.6
316.247	540.2
316.64	534.2
317.033	536.6
317.405	540.8
317.798	532.8
318.192	541.4
318.585	531.8
318.979	537.6
319.372	529.2
319.766	532.8
320.16	544.2
320.553	548.2
320.947	549.4
321.341	530.2
321.735	526
322.129	524.4
322.523	556.4
322.917	533.4
323.311	545.4
323.705	540
324.099	537.4
324.494	551.6
324.888	543.6
325.282	534.8
325.677	557.2
326.071	538.8
326.466	545.8
326.861	540.6
327.255	541.6
327.65	550.2
328.045	543.2
328.44	543.8
328.835	537.4
329.23	530.8
329.625	561.8
330.02	527.8
330.415	556
330.81	539.8
331.206	545
331.601	530.8
331.996	537.8
332.37	561
332.766	527.2
333.161	550.6
333.557	537.8
333.953	534.6
334.348	871.8
334.744	540.2
335.14	532.6
335.536	524.8
335.932	546.6
336.328	534.2
336.724	542.2
337.12	535.2
337.516	541.6
337.913	541.6
338.309	554.4
338.705	539.2
339.102	543.6
339.498	535.4
339.895	539.6
340.291	526.8
340.688	547.2
341.085	535
341.481	533.2
341.878	528.6
342.275	549
342.672	530.4
343.069	529.6
343.466	521.8
343.842	536.6
344.239	522.4
344.636	535
345.033	531.6
345.431	522.2
345.828	531.2
346.225	530.6
346.623	558.6
347.02	533.2
347.418	542.8
347.816	555
348.213	529.4
348.611	535.6
349.009	528.8
349.407	538
349.805	519.2
350.203	525.6
350.601	537.8
350.999	535.4
351.397	576.8
351.795	531.6
352.193	538.8
352.57	525.4
352.969	540.2
353.367	526.6
353.766	529
354.164	522.8
354.563	538.6
354.961	532.2
355.36	527.4
355.759	523.2
356.158	526.8
356.557	522.8
356.956	520.4
357.355	514.2
357.754	522.4
358.153	531
358.552	549.2
358.951	534.4
359.35	539.4
359.75	521.2
360.149	517.4
360.527	518.2
360.926	521.8
361.326	526.8
361.726	522
362.125	523.6
362.525	525.4
362.925	528.6
363.325	530
363.724	528.6
364.124	524.4
364.524	520.6
364.924	525
365.324	531.2
365.725	516.6
366.125	534.8
366.525	529.4
366.904	524
367.304	511.2
367.705	537.6
368.105	531.8
368.506	523.2
368.906	526.4
369.307	523.2
369.708	528.6
370.108	507.2
370.509	529.2
370.91	518.6
371.311	523.8
371.712	524
372.113	521.2
372.514	514.4
372.894	519.4
373.295	526.6
373.696	535
374.097	532.2
374.499	555
374.9	526
375.301	519.6
375.703	528.2
376.105	520.8
376.506	540.6
376.908	527
377.309	528.4
377.711	526.2
378.113	524.8
378.493	530
378.895	528.8
379.297	537.2
379.699	510.4
380.102	528.2
380.504	525.8
380.906	515.6
381.308	543.8
381.71	532.8
382.113	533.8
382.515	520.8
382.918	535.4
383.299	527.6
383.701	535
384.104	525.2
384.507	509.6
384.909	528.6
385.312	520.6
385.715	524.2
386.118	521
386.521	525.6
386.924	530
387.327	520.6
387.709	517
388.112	505.2
388.515	520.2
388.918	522
389.322	531.2
389.725	519.2
390.129	548.2
390.532	538.8
390.936	525.2
391.339	520.4
391.743	530.8
392.125	522.8
392.529	538.4
392.933	541.6
393.337	525.8
393.74	529
394.144	527.2
394.548	521
394.953	521.2
395.357	532
395.761	520
396.144	525
396.548	518.2
396.952	519.4
397.357	526
397.761	517.8
398.166	514.4
398.57	522.2
398.975	517.8
399.379	524.4
399.763	564.8
400.168	526.8
400.572	525.4
400.977	524.4
401.382	541.8
401.787	540.2
402.192	532.6
402.597	539.2
403.002	510.8
403.386	535.2
403.791	540.6
404.197	515.6
404.602	532.4
405.007	529.4
405.413	526.4
405.818	523.2
406.224	519.4
406.608	530.4
407.014	523.2
407.42	540.6
407.825	523
408.231	531
408.637	532
409.043	541.8
409.449	528
409.834	527.2
410.24	530.4
410.646	536.8
411.052	535.4
411.458	529.8
411.865	530.2
412.271	537.2
412.677	527
413.062	523
413.469	522.2
413.875	546.8
414.282	531.2
414.689	525.2
415.095	535
415.502	520.4
415.888	533
416.294	520.2
416.701	559.4
417.108	524.8
417.515	532.6
417.923	523.6
418.33	543
418.715	529.6
419.123	523.2
419.53	521.8
419.937	524.8
420.345	535.8
420.752	521.8
421.16	542.6
421.546	526.8
421.953	539.2
422.361	520.4
422.769	521.8
423.177	520
423.585	549
423.992	543.8
424.379	533
424.787	535.6
425.195	545.8
425.603	525.2
426.011	540.6
426.419	541.8
426.806	535.2
427.214	535.4
427.623	540
428.031	542.4
428.44	527.6
428.848	537.4
429.235	543.6
429.644	528.6
430.053	520.4
430.461	547.2
430.87	547.8
431.279	528.8
431.666	527
432.075	535.6
432.484	526
432.893	531.8
433.302	539.8
433.711	560.6
434.099	529
434.508	524.2
434.918	525
435.327	532.6
435.737	525.2
436.125	528.8
436.534	533.2
436.944	531.6
437.353	530.6
437.763	543.8
438.173	520
438.561	530.6
438.971	516.2
439.381	533.4
439.791	527.4
440.201	517.8
440.589	535.4
440.999	532.8
441.409	529.4
441.819	511.8
442.23	530.4
442.619	532
443.029	526.6
443.439	524
443.85	540.6
444.26	542.8
444.649	533.6
445.06	536.8
445.471	524.4
445.881	519.4
446.292	539
446.682	545.8
447.092	518.6
447.503	572.6
447.914	524.4
448.325	530.2
448.715	522.4
449.126	520.8
449.537	522.4
449.948	518.6
450.338	527.8
450.75	529
451.161	522.6
451.572	526.8
451.984	520.4
452.374	506.8
452.786	522.2
453.197	525.6
453.609	531.2
453.999	511.2
454.411	516.6
454.823	525.8
455.235	524.6
455.647	513.8
456.037	513.8
456.449	504.8
456.862	521
457.274	515.4
457.665	512.4
458.077	520.4
458.489	547.4
458.902	519.6
459.293	520.6
459.705	525.8
460.118	521.6
460.53	526.6
460.921	526.2
461.334	522
461.747	520.8
462.16	525.8
462.551	535
462.964	523.6
463.377	510.6
463.79	518
464.182	525.8
464.595	510
465.008	523.8
465.421	523
465.813	519
466.226	528
466.64	510
467.053	557.2
467.445	525.6
467.859	527.2
468.272	517.8
468.686	526.2
469.078	523
469.492	514.4
469.906	520.6
470.298	523
470.712	516.2
471.126	534.6
471.54	502.2
471.933	510.4
472.347	518
472.761	508.8
473.175	513.8
473.568	515
473.982	511.6
474.397	511
474.79	517.8
475.204	532.4
475.619	518.8
476.033	520
476.426	518.8
476.841	516.8
477.256	534.4
477.649	506.4
478.064	512.4
478.479	513.6
478.872	508.8
479.287	501.8
479.702	515.4
480.118	517.2
480.511	512
480.927	511.4
481.342	510.8
481.736	515.2
482.151	515.4
482.566	522.8
482.96	514.4
483.376	522.8
483.792	521.2
484.186	526.4
484.602	512.8
485.017	526.6
485.412	517
485.827	513.8
486.243	521.4
486.638	542.4
487.054	527.6
487.47	526.6
487.865	513.8
488.281	524.2
488.697	505.4
489.092	514.4
489.508	513.8
489.925	522.6
490.32	510.2
490.736	519.4
491.153	518.2
491.548	515.6
491.964	524.2
492.381	501.6
492.776	522.4
493.193	519
493.61	522.8
494.006	523
494.422	527.2
494.84	504.8
495.235	526.8
495.652	515.6
496.069	507.2
496.465	509.4
496.883	510.4
497.3	533.8
497.696	516.2
498.113	526
498.509	507.2
498.927	513.8
499.344	511.6
499.741	509.2
500.158	518.6
500.576	529.4
500.973	509.4
501.39	507
501.787	508.4
502.205	517
502.623	511.6
503.02	509.4
503.438	515.4
503.856	518.6
504.253	522.2
504.671	518.8
505.068	516.8
505.486	514.8
505.905	534.8
506.302	520.8
506.72	520.2
507.118	513.2
507.536	523.4
507.955	521.6
508.352	516.2
508.771	515
509.169	510.2
509.587	513.6
510.006	520.4
510.404	512
510.823	513.8
511.221	511.4
511.64	513
512.038	529.2
512.457	523.4
512.877	515.2
513.275	511.6
513.694	509.8
514.092	517.6
514.512	514
514.91	526.2
515.33	518.2
515.749	515.6
516.148	513.8
516.568	516.4
516.966	510.2
517.386	515.2
517.785	514.8
518.205	508.4
518.603	514.2
519.024	510.6
519.444	515
519.843	528.8
520.263	525.8
520.662	512.6
521.082	511.4
521.481	515.4
521.902	514.6
522.301	517.4
522.722	524
523.121	510.8
523.542	518.2
523.963	516.4
524.362	519.2
524.783	519.6
525.183	508.2
525.604	515.8
526.003	503.2
526.425	505.6
526.824	524.2
527.246	517.4
527.646	518.2
528.067	523.6
528.467	519
528.888	517.6
529.289	515.6
529.71	514.4
530.11	514.2
530.532	504.8
530.932	512.2
531.354	497.4
531.755	545.8
532.176	518.8
532.577	519.6
532.999	513.6
533.4	513
533.822	520.6
534.223	511
534.645	516.2
535.046	511.4
535.468	518.8
535.869	533
536.292	510.2
536.693	542.6
537.115	512.4
537.516	511.8
537.939	514.6
538.34	531.2
538.742	517
539.165	520.4
539.566	514
539.989	509.2
540.391	511.6
540.814	517.2
541.216	521.6
541.639	513.2
542.041	523.2
542.464	508.4
542.866	512.4
543.268	511.2
543.691	514.6
544.093	523.4
544.517	530.8
544.919	503.6
545.343	540.6
545.745	504.2
546.147	515.6
546.571	515.4
546.974	501.4
547.398	509.8
547.8	518.2
548.224	510.4
548.627	503.2
549.03	509.8
549.454	502.6
549.857	501.2
550.281	503.2
550.684	506.8
551.087	517.8
551.512	510
551.915	519.4
552.34	509.6
552.743	508.2
553.146	500.8
553.571	502.4
553.975	524.4
554.399	498
554.803	547.4
555.207	508.8
555.632	505.2
556.036	512.8
556.461	502.6
556.865	501.6
557.268	502.8
557.694	505.6
558.098	517
558.502	507.2
558.927	501
559.332	513
559.736	507
560.162	518.8
560.566	505.2
560.992	508.2
561.396	515.2
561.801	501
562.227	509.8
562.631	508
563.036	503.2
563.462	517.6
563.867	515.6
564.272	502.6
564.698	512.6
565.103	504.4
565.508	528.8
565.935	511.2
566.34	502
566.745	516.6
567.172	509.4
567.577	528.6
567.982	523.6
568.409	517
568.815	510.2
569.22	510.2
569.626	513.2
570.053	497.4
570.459	511.8
570.865	519.6
571.292	511.8
571.698	516.4
572.104	499.2
572.531	508.4
572.937	516.6
573.343	508.8
573.75	509.8
574.177	516.6
574.583	515
574.99	513
575.396	515.6
575.824	506
576.231	507.2
576.637	509.8
577.065	532.2
577.472	508.6
577.879	514.8
578.286	525.4
578.714	508.6
579.121	510.2
579.528	518.4
579.935	511
580.364	516.2
580.771	494.2
581.178	504.4
581.585	513.2
582.014	509.2
582.421	507.4
582.829	509.6
583.236	513.8
583.644	500.4
584.073	510.8
584.481	503.4
584.889	504
585.296	509.6
585.726	507.6
586.134	500
586.542	508.2
586.95	525.2
587.358	496.2
587.787	503.8
588.196	507.4
588.604	506.2
589.012	508.4
589.421	504.2
589.851	503.2
590.259	513.4
590.668	504.2
591.076	537
591.485	500.2
591.894	512.8
592.324	517.4
592.733	521
593.142	494.4
593.551	506.2
593.96	509.4
594.369	496.8
594.8	504.6
595.209	510
595.618	504.6
596.028	508.6
596.437	505.4
596.847	507.4
597.256	509.8
597.687	510.4
598.097	509.8
598.507	500
598.917	511.8
599.327	514.6
599.736	509
600.146	519.6
600.556	510
600.988	519
601.398	512
601.808	521.2
602.219	494
602.629	513.8
603.039	512.6
603.45	528.8
603.86	514
604.271	518
604.703	508.6
605.114	506.4
605.525	509.6
605.935	516
606.346	529
606.757	520.8
607.168	515.6
607.579	505.2
607.99	523.2
608.402	518
608.813	518.8
609.224	510.8
609.636	510.4
610.047	509.2
610.48	520.2
610.892	516.8
611.303	522.2
611.715	520.2
612.127	506.4
612.539	509.6
612.95	523
613.362	501.6
613.774	500.4
614.186	509
614.599	507.4
615.011	521.2
615.423	515.6
615.835	512.6
616.248	510.6
616.66	521
617.073	511.4
617.485	509.4
617.898	519.4
618.311	516.8
618.723	513.8
619.136	542.8
619.549	519.8
619.962	535
620.375	512.2
620.788	512.4
621.201	515.8
621.614	524.2
622.028	511.4
622.441	510.2
622.854	525.2
623.268	510.2
623.681	515.6
624.095	520.6
624.509	523.2
624.922	518.6
625.336	516.6
625.728	527.6
626.142	530.4
626.556	533
626.97	523.6
627.384	509.2
627.799	513.8
628.213	521.8
628.627	509.6
629.041	515.6
629.456	514.2
629.87	514.8
630.285	522
630.699	522
631.093	520.2
631.507	519.4
631.922	514.8
632.337	527
632.752	512.6
633.167	520
633.582	506.8
633.997	509.8
634.412	518
634.806	516.8
635.221	503.8
635.637	514.4
636.052	499.8
636.468	513.2
636.883	530
637.299	509
637.715	503.2
638.109	513.8
638.525	505.4
638.941	522.2
639.357	517.8
639.773	521.8
640.189	510
640.584	506.6
641	506.2
641.416	498.4
641.832	515.6
642.249	517.2
642.665	512.2
643.06	519.8
643.477	520.4
643.894	494.2
644.31	512.4
644.727	507.8
645.123	500.2
645.54	506.6
645.957	512.6
646.374	519
646.77	514.4
647.187	525.6
647.604	501.6
648.021	496.8
648.439	510.6
648.835	509.8
649.252	510.6
649.67	508
650.088	501.6
650.484	516.4
650.902	508
651.32	504
651.738	502.8
652.134	504.2
652.552	519
652.971	503.6
653.389	507.4
653.786	515.2
654.204	510
654.622	504.4
655.019	507.2
655.438	510.8
655.857	504.8
656.275	511.6
656.673	500.2
657.091	514
657.51	495
657.908	504.8
658.327	516.6
658.746	495.4
659.144	510.4
659.563	518.2
659.982	505.6
660.38	501.4
660.8	503.2
661.219	505.4
661.617	511.6
662.037	498
662.457	518
662.855	493.4
663.275	528.2
663.695	511.2
664.094	501.4
664.514	509.6
664.934	502.6
665.333	510
665.753	500.2
666.152	505.6
666.572	498.6
666.993	514.2
667.392	500.4
667.812	503.8
668.212	503.4
668.632	514.2
669.053	504.2
669.453	507.2
669.874	507.4
670.273	511
670.694	499
671.116	518.4
671.515	510.4
671.937	507.4
672.337	503.2
672.758	505.8
673.158	515.6
673.58	496.4
673.98	504.4
674.402	515.4
674.824	503.4
675.224	499.4
675.646	495.2
676.047	502
676.469	506
676.869	506.6
677.292	496.2
677.693	496.6
678.115	501.6
678.516	509.2
678.939	502.8
679.34	507.4
679.762	515
680.164	501.6
680.586	497.2
680.988	510
681.411	530.8
681.812	505.6
682.236	498.6
682.637	498.6
683.061	497.8
683.462	501.8
683.864	503.4
684.288	505
684.69	493.8
685.114	506.8
685.516	510.8
685.94	500.6
686.342	509.4
686.766	502.6
687.168	496.4
687.571	519.6
687.995	502
688.398	499.2
688.822	496.6
689.225	515.2
689.628	517.4
690.052	508.8
690.456	506.8
690.88	506.8
691.284	493.4
691.687	516.6
692.112	500.4
692.515	493.8
692.919	504.8
693.344	507.4
693.747	503.6
694.173	500
694.577	519.2
694.98	504.6
695.406	492.6
695.81	503
696.214	507.6
696.64	509.8
697.044	503.2
697.448	513.2
697.874	503.2
698.279	507.6
698.684	503.4
699.11	495
699.514	505.6
699.919	503.4
700.324	496.2
700.75	509.8
701.156	500.2
701.561	513.2
701.987	508.6
702.393	503
702.798	516
703.203	505.4
703.63	501.2
704.036	501.2
704.442	500.8
704.847	497.6
705.274	504.2
705.68	510.4
706.086	521
706.492	490.2
706.92	506.2
707.326	513.2
707.732	510.6
708.139	495.4
708.545	498.2
708.973	507.4
709.38	507.6
709.786	500.6
710.193	513
710.6	507.2
711.028	499
711.435	508.8
711.842	504.6
712.249	496.2
712.656	508.4
713.064	506
713.492	496.4
713.9	501.4
714.307	502.6
714.715	501.8
715.123	503.6
715.53	505.2
715.938	507.6
716.367	507.4
716.775	502.2
717.184	495.2
717.592	506.4
718	509.4
718.408	527.6
718.816	542.6
719.225	504.4
719.633	505.4
720.042	495.6
720.472	506.2
720.881	521.8
721.29	502
721.699	498.4
722.108	500.4
722.517	503
722.926	497.8
723.335	501.4
723.744	500.4
724.154	501.8
724.563	509.8
724.973	503.6
725.382	500.4
725.792	499.4
726.202	487.2
726.612	505.8
727.022	500.6
727.432	499.4
779.813	496.6
780.223	538
780.634	506.6
781.044	497.8
781.454	506
781.865	514.8
782.276	501.8
782.686	517.6
783.097	496.8
783.508	499.2
783.919	506.2
784.33	517
784.741	506.4
785.152	497
785.563	495
785.974	496.4
786.386	513
786.776	497
787.188	498.2
787.599	498.8
788.011	509.6
788.423	507.8
788.835	497.8
789.247	492
789.659	504
790.071	499.6
790.483	540
790.874	496.6
791.286	506.6
791.699	500.2
792.111	502
792.524	504
792.937	493
793.349	492.2
793.741	493.8
794.154	491.4
794.567	520.8
794.98	499.6
795.393	489.4
795.785	516.2
796.198	493
796.612	496.8
797.026	494.4
797.439	484.4
797.831	496.4
798.245	492.4
798.659	495.8
799.073	502
799.487	492
799.88	501
800.294	488.8
800.708	494.2
801.123	500.8
801.516	509.2
801.93	482.4
802.345	492
802.76	492
803.153	511.6
803.568	512
803.983	503.2
804.377	496
804.792	496.2
805.207	488
805.601	502.6
806.016	516.4
806.432	494.8
806.826	519.4
807.242	508.2
807.658	496
808.052	492.8
808.468	494.4
808.884	488.8
809.279	496.8
809.695	507.6
810.111	520.4
810.506	508
810.922	525.8
811.339	497.4
811.734	503.2
812.151	501.4
812.546	488.8
812.963	495
813.38	500
813.776	507.6
814.193	516.4
814.589	496.8
815.006	503.2
815.402	487.4
815.82	501.2
816.237	494.6
816.633	499.6
817.051	489.6
817.448	494.2
817.866	495.6
818.262	511.6
818.68	490.2
819.077	499.6
819.495	501.6
819.892	530.8
820.311	493.4
820.708	494.4
821.127	499
821.524	509.6
821.943	495.4
822.34	507.6
822.759	501.4
823.157	495.4
823.576	507.2
823.974	501.6
824.393	589.8
824.791	493
825.189	488
825.609	498
826.007	496
826.427	494.6
826.826	495.4
827.246	500.6
827.644	486.8
828.043	511.8
828.463	489.6
828.862	503
829.261	502.8
829.682	492.6
830.081	514.6
830.502	492.4
830.901	498.6
831.301	498
831.722	484.4
832.121	495.6
832.521	492.8
832.943	497
833.342	498.6
833.742	487.4
834.164	499.8
834.564	490.6
834.965	497.6
835.386	493.8
835.787	496.6
836.188	496.4
836.588	497.6
837.01	497
837.411	490.2
837.812	501
838.213	502.8
838.636	495.2
839.037	544
839.438	494.8
839.84	498.4
840.263	502.4
840.664	501
841.066	503.6
841.468	496.6
841.891	501.2
842.293	500.6
842.695	502.2
843.098	509.4
843.5	498.8
843.902	497
844.326	502.8
844.729	501
845.131	501.8
845.534	501.6
845.937	509.2
846.34	510.8
846.764	495
847.167	500.8
847.571	494
847.974	490.8
848.377	494.8
848.781	542.6
849.184	504.4
849.588	495
849.992	491.6
850.396	501.8
850.821	510
851.225	496
851.63	500
852.034	509.4
852.438	494.6
852.843	557
853.247	486.2
853.652	492.6
854.057	505
854.462	500.4
854.867	500.2
