#lambda/nm	C1
208.295	471.8
208.67	437.2
209.045	398
209.419	402
209.794	538.4
210.169	521.8
210.544	631.2
210.919	532.2
211.295	531.6
211.67	543.6
212.045	534
212.421	533.6
212.796	563.4
213.172	531.8
213.547	521
213.923	532.2
214.299	532.2
214.675	539.4
215.051	539.6
215.427	534.2
215.803	545.6
216.179	538.6
216.555	525.4
216.932	536.6
217.308	535.4
217.684	524.2
218.061	545.2
218.438	536.6
218.814	530.6
219.191	544.6
219.568	530.2
219.945	536.4
220.322	539.2
220.699	532.8
221.076	543.2
221.453	542.4
221.83	522
222.208	533.4
222.585	529.8
222.962	533.4
223.34	534.4
223.717	529.4
224.095	532.2
224.473	529.8
224.851	532.8
225.229	529.6
225.607	551.2
225.985	518.6
226.363	532.2
226.741	535.4
227.119	530.2
227.497	549.8
227.876	533.2
228.254	535.8
228.633	540
229.011	537.2
229.39	546.8
229.769	543.8
230.148	541
230.527	556
230.905	545.2
231.284	540.2
231.664	524.4
232.043	549
232.422	546.4
232.801	527.2
233.181	543.8
233.56	528.6
233.94	534.2
234.319	529.2
234.699	538
235.079	572.8
235.458	565.2
235.838	548.8
236.218	525.6
236.598	528
236.978	538.2
237.358	531.2
237.738	542
238.119	540.8
238.499	527
238.88	541.8
239.26	550.4
239.641	532.8
240.021	539.8
240.402	539
240.783	530.2
241.163	538.4
241.544	541
241.925	535
242.306	548.4
242.687	531
243.069	534.8
243.45	537
243.831	531.8
244.212	533.6
244.594	568
244.975	548.6
245.357	540
245.739	537.6
246.12	534.6
246.502	549.2
246.884	531
247.266	530.4
247.648	531.4
248.03	549.4
248.412	532
248.794	534
249.176	529.2
249.559	534.2
249.941	525.4
250.323	527.2
250.706	524.4
251.089	533.6
251.471	540
251.854	535.4
252.237	534.2
252.62	540
253.002	538.6
253.385	534.6
253.769	557.4
254.152	543
254.535	542.6
254.918	529.4
255.301	534.6
255.685	532.4
256.068	532.6
256.452	556.4
256.835	541
257.219	540.8
257.603	547.6
257.986	522
258.37	539.8
258.754	517.4
259.138	543.8
259.522	539.6
259.906	529.8
260.29	543.4
260.675	530.4
261.059	532
261.443	528.6
261.828	539.4
262.212	537.2
262.597	529
262.981	535.2
263.366	546.2
263.751	541.2
264.136	545.8
264.521	533.2
264.906	531.2
265.291	548
265.676	537
266.061	541.2
266.446	552.8
266.831	542
267.217	560.6
267.602	538.4
267.987	543.8
268.373	532.8
268.759	541.2
269.144	535
269.53	540.4
269.916	536.2
270.302	530.8
270.688	538.6
271.074	539.2
271.46	543.6
271.846	560.2
272.232	530.4
272.618	533.4
273.004	537
273.391	548.6
273.777	551.4
274.164	542.8
274.55	549.2
274.937	539.6
275.324	537
275.71	544.4
276.097	538.6
276.484	534.6
276.871	540.6
277.258	542.2
277.645	521.6
278.032	531.4
278.419	528.8
278.807	541.4
279.194	534.6
279.581	527.4
279.969	537.2
280.356	537.2
280.744	535.6
281.131	556.2
281.519	546.6
281.907	535.4
282.295	536
282.682	547.8
283.07	545.2
283.458	538.2
283.846	548
284.235	544.4
284.623	536.8
285.011	523.4
285.399	536.8
285.788	538.8
286.176	522.6
286.565	546.4
286.953	526
287.342	528.6
287.731	529.8
288.119	527
288.508	534
288.897	530.8
289.286	525.4
289.675	529.4
290.064	543.6
290.453	532.8
290.821	532.4
291.21	544.4
291.599	526.6
291.989	535.2
292.378	542.6
292.768	547.6
293.157	537.2
293.547	546.4
293.936	526.2
294.326	530.6
294.716	535
295.106	531
295.496	539.8
295.886	539.2
296.276	539.8
296.666	531.8
297.056	531.4
297.446	523.4
297.836	550.6
298.227	532.8
298.617	546.6
299.008	553.2
299.398	540.8
299.789	530.4
300.179	533.8
300.57	546.8
300.961	539.8
301.352	529
301.742	548.2
302.133	543.4
302.524	542
302.915	532.8
303.307	530
303.698	542.8
304.089	542.8
304.48	527.4
304.872	537.2
305.263	536.2
305.655	535.6
306.046	539
306.438	541.4
306.829	530.6
307.221	540
307.613	541.8
308.005	544
308.397	541.6
308.789	554.6
309.181	558.2
309.573	555
309.965	551.8
310.357	537
310.749	548.4
311.142	531
311.534	533.2
311.926	540.4
312.319	542
312.711	532.4
313.104	539.6
313.497	536
313.889	564.2
314.282	552.4
314.675	555.4
315.068	542.4
315.461	539
315.854	558.8
316.247	539.4
316.64	533.6
317.033	548
317.405	538
317.798	536.4
318.192	544
318.585	527.2
318.979	536.8
319.372	532.2
319.766	529.8
320.16	543.8
320.553	552
320.947	554.8
321.341	537.2
321.735	538.8
322.129	524.2
322.523	554.8
322.917	529.6
323.311	545
323.705	530.6
324.099	544.4
324.494	546.4
324.888	546.8
325.282	532
325.677	548.8
326.071	536.4
326.466	543.2
326.861	541
327.255	544
327.65	544.4
328.045	551.6
328.44	542.4
328.835	532.6
329.23	536.2
329.625	550.6
330.02	530.2
330.415	559
330.81	537.8
331.206	536.4
331.601	531
331.996	544.2
332.37	550.6
332.766	521.8
333.161	550.6
333.557	532.2
333.953	539.8
334.348	803.2
334.744	534.6
335.14	531.6
335.536	535.2
335.932	547.4
336.328	539.6
336.724	544
337.12	534.2
337.516	538.6
337.913	530.4
338.309	548.6
338.705	537.4
339.102	535
339.498	532.2
339.895	548.2
340.291	534.8
340.688	548
341.085	533
341.481	536
341.878	534.6
342.275	548.6
342.672	525.6
343.069	524.4
343.466	524.4
343.842	542.2
344.239	531.4
344.636	529.8
345.033	523.8
345.431	523.8
345.828	525.8
346.225	530.4
346.623	556.6
347.02	525.2
347.418	535.2
347.816	544
348.213	524.6
348.611	533.4
349.009	525.6
349.407	547.2
349.805	527.6
350.203	521.4
350.601	540.8
350.999	533.4
351.397	581.8
351.795	531.8
352.193	540
352.57	539.4
352.969	541.2
353.367	529.6
353.766	529.8
354.164	522.2
354.563	538.6
354.961	528.4
355.36	524.2
355.759	534.8
356.158	529
356.557	528
356.956	530.2
357.355	526.2
357.754	528.8
358.153	540.6
358.552	546.8
358.951	532.4
359.35	542.2
359.75	534.2
360.149	515.4
360.527	515.2
360.926	523.4
361.326	525.8
361.726	527.2
362.125	531.2
362.525	536
362.925	533.6
363.325	536.8
363.724	533.6
364.124	528.2
364.524	523.6
364.924	532.8
365.324	544.6
365.725	520.6
366.125	533.2
366.525	527.4
366.904	523.8
367.304	510.4
367.705	535.8
368.105	538
368.506	530
368.906	541
369.307	526.8
369.708	540.6
370.108	519.6
370.509	540.8
370.91	526.8
371.311	530.2
371.712	541.2
372.113	524.8
372.514	523
372.894	530.2
373.295	526
373.696	537.4
374.097	533.4
374.499	559.8
374.9	534.2
375.301	521.6
375.703	532
376.105	523.6
376.506	532
376.908	547.2
377.309	533.4
377.711	538.6
378.113	527
378.493	529
378.895	521.4
379.297	526.2
379.699	512.4
380.102	530
380.504	530.6
380.906	526.4
381.308	547.4
381.71	531.6
382.113	536
382.515	523.6
382.918	531.6
383.299	526.4
383.701	530.8
384.104	537.6
384.507	513.6
384.909	526.4
385.312	518.6
385.715	523.8
386.118	521.6
386.521	517.2
386.924	537.6
387.327	525.8
387.709	518.8
388.112	507.8
388.515	525.2
388.918	525.2
389.322	529
389.725	523.6
390.129	544.6
390.532	533.4
390.936	519.6
391.339	520
391.743	528.4
392.125	518.4
392.529	532.2
392.933	544.2
393.337	528
393.74	530.4
394.144	528.6
394.548	521.2
394.953	529.4
395.357	528.6
395.761	522.2
396.144	525.4
396.548	527.8
396.952	528
397.357	532.4
397.761	534.4
398.166	520
398.57	523.6
398.975	520.2
399.379	536.6
399.763	567.8
400.168	522.4
400.572	540
400.977	530.8
401.382	540.2
401.787	528.8
402.192	536.4
402.597	536.4
403.002	517.6
403.386	543.8
403.791	545.8
404.197	522.6
404.602	523.4
405.007	527.2
405.413	528.8
405.818	528.2
406.224	526
406.608	519
407.014	526.4
407.42	538.8
407.825	528.4
408.231	535
408.637	533
409.043	538.6
409.449	524.2
409.834	520
410.24	530
410.646	539.8
411.052	536.2
411.458	527.8
411.865	529.2
412.271	528.2
412.677	524.6
413.062	525.8
413.469	521.8
413.875	549.6
414.282	531.2
414.689	527.2
415.095	536
415.502	534
415.888	524.6
416.294	516.6
416.701	557.6
417.108	526.2
417.515	536
417.923	531.4
418.33	545
418.715	536.2
419.123	523.8
419.53	519.2
419.937	523
420.345	538.8
420.752	525.6
421.16	533.6
421.546	528.4
421.953	534.2
422.361	529
422.769	533
423.177	528.4
423.585	544
423.992	543.4
424.379	544.2
424.787	536.6
425.195	552.2
425.603	527.4
426.011	541.6
426.419	541.8
426.806	531.6
427.214	524.4
427.623	531.6
428.031	543.6
428.44	536.8
428.848	536.8
429.235	539.2
429.644	525.4
430.053	527.8
430.461	542.6
430.87	546.2
431.279	530.4
431.666	535.6
432.075	525.6
432.484	538.8
432.893	527.2
433.302	538.4
433.711	568.6
434.099	537
434.508	522.6
434.918	526.2
435.327	540.2
435.737	530.4
436.125	524
436.534	534.2
436.944	533.8
437.353	545.4
437.763	545
438.173	520.8
438.561	534.6
438.971	515
439.381	523.8
439.791	534.6
440.201	514.6
440.589	527
440.999	530.8
441.409	526
441.819	513.4
442.23	530
442.619	526.2
443.029	530
443.439	522.4
443.85	530
444.26	537.8
444.649	534.4
445.06	529.8
445.471	522.6
445.881	521.4
446.292	537.2
446.682	545.4
447.092	515.4
447.503	564.6
447.914	524.8
448.325	520.2
448.715	528.6
449.126	517
449.537	522
449.948	514.8
450.338	529.6
450.75	533.2
451.161	529.4
451.572	525.6
451.984	521.4
452.374	521.8
452.786	531.4
453.197	529.6
453.609	531.6
453.999	514.4
454.411	519
454.823	539.4
455.235	526.8
455.647	520
456.037	532.2
456.449	513.6
456.862	524.2
457.274	524.6
457.665	526.8
458.077	532
458.489	552.2
458.902	524.4
459.293	521
459.705	526.4
460.118	521.4
460.53	531.6
460.921	528.8
461.334	527.8
461.747	521.2
462.16	535.6
462.551	536.4
462.964	532.2
463.377	513.4
463.79	517.6
464.182	529.6
464.595	519.2
465.008	526.8
465.421	525.8
465.813	522
466.226	524.8
466.64	523.2
467.053	570
467.445	535.2
467.859	541.4
468.272	526
468.686	534.4
469.078	520.6
469.492	509.2
469.906	525.2
470.298	526.2
470.712	519.4
471.126	555.2
471.54	515.6
471.933	519
472.347	525.2
472.761	522
473.175	517.6
473.568	517.8
473.982	512
474.397	520.6
474.79	525.8
475.204	529
475.619	514.4
476.033	515.6
476.426	532.4
476.841	517.4
477.256	540.2
477.649	517.8
478.064	511.6
478.479	520.8
478.872	520.8
479.287	511.8
479.702	515.2
480.118	515.8
480.511	519.6
480.927	518.4
481.342	510
481.736	519.2
482.151	508
482.566	523.2
482.96	515.4
483.376	521.2
483.792	514.4
484.186	520.2
484.602	513.2
485.017	523.2
485.412	516.6
485.827	528.4
486.243	519.6
486.638	538.8
487.054	524.4
487.47	532
487.865	515.8
488.281	525.8
488.697	516.4
489.092	517.6
489.508	511.6
489.925	523.2
490.32	513.2
490.736	518.8
491.153	508.4
491.548	519.4
491.964	527.8
492.381	506.6
492.776	521.8
493.193	522.6
493.61	528.2
494.006	522.6
494.422	531.2
494.84	510.2
495.235	530.8
495.652	516.4
496.069	521.6
496.465	510.2
496.883	514.4
497.3	536.2
497.696	510
498.113	519.4
498.509	514
498.927	508.6
499.344	510.6
499.741	512.4
500.158	527
500.576	526.6
500.973	515.6
501.39	518
501.787	503.2
502.205	513.6
502.623	518.2
503.02	505.4
503.438	516.6
503.856	514
504.253	523.8
504.671	516.8
505.068	506
505.486	522.8
505.905	534.6
506.302	522.2
506.72	518.8
507.118	511.8
507.536	517.4
507.955	513.2
508.352	524.6
508.771	523.2
509.169	518.6
509.587	509
510.006	518.2
510.404	508.6
510.823	513.2
511.221	513.6
511.64	521.2
512.038	526.2
512.457	511.6
512.877	513.8
513.275	512.6
513.694	517.4
514.092	515.6
514.512	521.2
514.91	528.6
515.33	515
515.749	521.4
516.148	523.8
516.568	514
516.966	516.8
517.386	515.8
517.785	516
518.205	521.2
518.603	511
519.024	511
519.444	518.6
519.843	524.4
520.263	526.6
520.662	525.2
521.082	519.8
521.481	517.2
521.902	517
522.301	520.2
522.722	515.6
523.121	511
523.542	510
523.963	517.4
524.362	516.4
524.783	510.4
525.183	516
525.604	527.4
526.003	513.6
526.425	505.6
526.824	529.4
527.246	526.6
527.646	522.2
528.067	522
528.467	525.2
528.888	512.2
529.289	518.2
529.71	515.2
530.11	519.6
530.532	509.6
530.932	508.8
531.354	501.2
531.755	542.2
532.176	518.2
532.577	515
532.999	518.6
533.4	511.8
533.822	524.6
534.223	517.2
534.645	503.4
535.046	519
535.468	522.2
535.869	528
536.292	511.6
536.693	539.8
537.115	513
537.516	512.6
537.939	514.6
538.34	529.8
538.742	524.6
539.165	525.8
539.566	515.6
539.989	502.6
540.391	507.8
540.814	524.4
541.216	519.6
541.639	512.4
542.041	518
542.464	510
542.866	511.2
543.268	506.8
543.691	511.8
544.093	516.4
544.517	529.8
544.919	510.4
545.343	534
545.745	507.4
546.147	512.4
546.571	515.6
546.974	511
547.398	520.2
547.8	522.6
548.224	519
548.627	511
549.03	525
549.454	503.8
549.857	500.6
550.281	512.2
550.684	514
551.087	521
551.512	511
551.915	518.8
552.34	511.4
552.743	515.6
553.146	522.2
553.571	509
553.975	533
554.399	509.6
554.803	552.4
555.207	517.8
555.632	509.2
556.036	515.4
556.461	504.8
556.865	513.2
557.268	518.4
557.694	511.8
558.098	519.2
558.502	520.8
558.927	512.6
559.332	516
559.736	518.8
560.162	516.2
560.566	506.6
560.992	524.2
561.396	520.8
561.801	516.6
562.227	515.2
562.631	518.6
563.036	516.8
563.462	515.2
563.867	514.6
564.272	510.8
564.698	519
565.103	503.2
565.508	532.6
565.935	508.6
566.34	510.6
566.745	522.6
567.172	512.4
567.577	527.6
567.982	529.4
568.409	516.6
568.815	510.4
569.22	521.2
569.626	524.6
570.053	505.8
570.459	519
570.865	516.6
571.292	512.6
571.698	518
572.104	508.6
572.531	509.8
572.937	511.4
573.343	517.4
573.75	506.6
574.177	515
574.583	523.4
574.99	512.4
575.396	516.2
575.824	509.8
576.231	521
576.637	511.8
577.065	531.8
577.472	510.4
577.879	511
578.286	524.6
578.714	512.6
579.121	507
579.528	515.4
579.935	515.2
580.364	513.4
580.771	502.2
581.178	503.6
581.585	511.6
582.014	511.8
582.421	507.4
582.829	506.6
583.236	521.6
583.644	516.6
584.073	512.2
584.481	517
584.889	500.4
585.296	515.6
585.726	515.2
586.134	503
586.542	522.2
586.95	524.4
587.358	508.6
587.787	502.2
588.196	498.6
588.604	506.8
589.012	509.4
589.421	502.8
589.851	504
590.259	517.4
590.668	515.2
591.076	537.2
591.485	504.8
591.894	514.8
592.324	524
592.733	522.2
593.142	507
593.551	506.8
593.96	524.2
594.369	502.2
594.8	497.4
595.209	514.8
595.618	500.2
596.028	515
596.437	503.8
596.847	514
597.256	523.8
597.687	509
598.097	513.8
598.507	508
598.917	513.2
599.327	511.4
599.736	518
600.146	523
600.556	517.4
600.988	522.2
601.398	506.2
601.808	524.2
602.219	498.8
602.629	518.2
603.039	513
603.45	539.4
603.86	511.4
604.271	523.2
604.703	513
605.114	510.2
605.525	517.2
605.935	516.6
606.346	524.8
606.757	508.8
607.168	511
607.579	505
607.99	526.2
608.402	514.4
608.813	519.8
609.224	509.2
609.636	505.6
610.047	503.4
610.48	515.8
610.892	515.6
611.303	516.6
611.715	507.8
612.127	501.6
612.539	504.6
612.95	510.6
613.362	501.2
613.774	507.6
614.186	508.8
614.599	509
615.011	518.2
615.423	511.8
615.835	512.2
616.248	507.8
616.66	517.4
617.073	509.2
617.485	508.2
617.898	514.4
618.311	510.4
618.723	513
619.136	528
619.549	521
619.962	534.8
620.375	514.2
620.788	510.4
621.201	507.4
621.614	517.8
622.028	502.8
622.441	519
622.854	522.2
623.268	502.4
623.681	507.4
624.095	511.8
624.509	526
624.922	516.4
625.336	498.8
625.728	508.4
626.142	517.8
626.556	524.8
626.97	517
627.384	506.2
627.799	511
628.213	521.8
628.627	507.8
629.041	512.8
629.456	501.8
629.87	510
630.285	520.2
630.699	522.2
631.093	512.8
631.507	521.8
631.922	512.8
632.337	527.4
632.752	501.2
633.167	516.6
633.582	514.4
633.997	506.2
634.412	504.4
634.806	508.2
635.221	504.4
635.637	511.8
636.052	497
636.468	509.4
636.883	519.6
637.299	505.6
637.715	500.6
638.109	508.6
638.525	501.4
638.941	517.8
639.357	504.2
639.773	515.2
640.189	506.8
640.584	504.4
641	505
641.416	507.2
641.832	506.8
642.249	510.8
642.665	512.8
643.06	518.6
643.477	514.8
643.894	499.8
644.31	513.4
644.727	507
645.123	512.4
645.54	496.2
645.957	516.4
646.374	519.4
646.77	515.2
647.187	541.8
647.604	515.4
648.021	501
648.439	508.6
648.835	512.2
649.252	510.6
649.67	508
650.088	508.4
650.484	518
650.902	513.8
651.32	515
651.738	510.4
652.134	510.8
652.552	522.4
652.971	518
653.389	512
653.786	513.6
654.204	517.2
654.622	511.8
655.019	517.6
655.438	513
655.857	511
656.275	512.8
656.673	502.8
657.091	519.2
657.51	508
657.908	517.2
658.327	518.2
658.746	500.6
659.144	512
659.563	519.2
659.982	506.2
660.38	497.2
660.8	502.2
661.219	517.2
661.617	511.4
662.037	504
662.457	520.8
662.855	492.8
663.275	532.2
663.695	513.8
664.094	509.2
664.514	517
664.934	510.2
665.333	527.4
665.753	496
666.152	497
666.572	501.6
666.993	514.4
667.392	506.4
667.812	501.4
668.212	503
668.632	508.4
669.053	510
669.453	510
669.874	507.8
670.273	508.4
670.694	500
671.116	513.2
671.515	511.8
671.937	507.2
672.337	503.6
672.758	503.4
673.158	511
673.58	500.2
673.98	517.4
674.402	514.4
674.824	501
675.224	500.6
675.646	495.8
676.047	509.4
676.469	505
676.869	507.2
677.292	510.4
677.693	501.4
678.115	498
678.516	515.6
678.939	510.6
679.34	502.6
679.762	517
680.164	505.2
680.586	504.4
680.988	511.2
681.411	523.4
681.812	502
682.236	499.4
682.637	500.2
683.061	495.8
683.462	503.2
683.864	509
684.288	509.8
684.69	498.6
685.114	506.8
685.516	511.8
685.94	509
686.342	510.6
686.766	496
687.168	496.2
687.571	512
687.995	513.4
688.398	507.2
688.822	496
689.225	521
689.628	525.2
690.052	512.4
690.456	503.8
690.88	507.2
691.284	495.8
691.687	507
692.112	505
692.515	500.8
692.919	511
693.344	515.8
693.747	502.4
694.173	498.8
694.577	511.4
694.98	510.4
695.406	495.8
695.81	510.8
696.214	507.8
696.64	514.6
697.044	505
697.448	509.8
697.874	502.2
698.279	505.8
698.684	496.8
699.11	500.8
699.514	510
699.919	501
700.324	500
700.75	510
701.156	510
701.561	519
701.987	505.8
702.393	510.8
702.798	514.4
703.203	510.4
703.63	496.4
704.036	501.8
704.442	500.8
704.847	494.8
705.274	501.4
705.68	512.8
706.086	512.4
706.492	494.4
706.92	506.4
707.326	519.6
707.732	501.4
708.139	505.2
708.545	495.6
708.973	505.8
709.38	505.6
709.786	503.8
710.193	515.2
710.6	512.4
711.028	493.6
711.435	499
711.842	505.4
712.249	507.4
712.656	498.2
713.064	512.8
713.492	502.6
713.9	511.2
714.307	503.8
714.715	507
715.123	505.4
715.53	506.8
715.938	507.4
716.367	510.2
716.775	502.2
717.184	500.4
717.592	503.2
718	504.6
718.408	528
718.816	534
719.225	508.4
719.633	500.2
720.042	494.8
720.472	501.6
720.881	521.4
721.29	506.4
721.699	493.8
722.108	498.4
722.517	500.2
722.926	506
723.335	510.8
723.744	502.8
724.154	503.2
724.563	509
724.973	507
725.382	507.8
725.792	497.6
726.202	495.6
726.612	512.8
727.022	499.4
727.432	494.4
779.813	505.4
780.223	545.4
780.634	502.8
781.044	491.6
781.454	505
781.865	510.2
782.276	491.4
782.686	514.4
783.097	494
783.508	498
783.919	508.2
784.33	506.4
784.741	512.2
785.152	490.8
785.563	482.6
785.974	491.6
786.386	515.4
786.776	499
787.188	496.6
787.599	495.2
788.011	511
788.423	505.4
788.835	494.8
789.247	500.2
789.659	498.8
790.071	498.6
790.483	539.6
790.874	490.2
791.286	511.8
791.699	500.8
792.111	500
792.524	508.6
792.937	503.8
793.349	493.2
793.741	502.2
794.154	507.6
794.567	522.2
794.98	495.6
795.393	492.8
795.785	518.2
796.198	503
796.612	504.2
797.026	500.4
797.439	492.4
797.831	498.8
798.245	491.6
798.659	495.4
799.073	507.4
799.487	498.4
799.88	505.4
800.294	504.4
800.708	499.6
801.123	500.2
801.516	516
801.93	497.4
802.345	491.2
802.76	492.4
803.153	510
803.568	513.8
803.983	512.4
804.377	508.6
804.792	497
805.207	488.8
805.601	500.2
806.016	532.2
806.432	502.2
806.826	528.4
807.242	520.6
807.658	503.6
808.052	496
808.468	498.2
808.884	498
809.279	502.2
809.695	509.8
810.111	521.2
810.506	503.4
810.922	510.8
811.339	497.6
811.734	497.8
812.151	495.2
812.546	499
812.963	495.8
813.38	507.4
813.776	505.6
814.193	515.8
814.589	493.8
815.006	493.8
815.402	496.4
815.82	495.8
816.237	506.4
816.633	506.4
817.051	495.4
817.448	499.8
817.866	494.2
818.262	514.8
818.68	494.6
819.077	502.2
819.495	489.6
819.892	530.8
820.311	494.8
820.708	492.6
821.127	498.6
821.524	503.4
821.943	501.4
822.34	520.8
822.759	501.4
823.157	498.2
823.576	518.2
823.974	505.4
824.393	556
824.791	503.8
825.189	489.6
825.609	495.4
826.007	496.2
826.427	488.6
826.826	493.6
827.246	504.2
827.644	487
828.043	510.8
828.463	498.6
828.862	503
829.261	505
829.682	495.4
830.081	506.6
830.502	496
830.901	503
831.301	502.6
831.722	491.2
832.121	504.4
832.521	495.2
832.943	498.4
833.342	494.6
833.742	508.6
834.164	506.6
834.564	491.4
834.965	495.6
835.386	500.4
835.787	497.6
836.188	497
836.588	498.8
837.01	500.4
837.411	488.4
837.812	510.8
838.213	506.8
838.636	499.4
839.037	557
839.438	507.4
839.84	497.6
840.263	501.4
840.664	501
841.066	496.4
841.468	498.4
841.891	501.2
842.293	509.6
842.695	503.4
843.098	510
843.5	500.6
843.902	504
844.326	501.2
844.729	499.2
845.131	507.2
845.534	505.2
845.937	509.4
846.34	513.2
846.764	498.8
847.167	504.2
847.571	493.8
847.974	502.4
848.377	494.6
848.781	541.2
849.184	511.6
849.588	498.2
849.992	492.8
850.396	500.2
850.821	520
851.225	502
851.63	493.8
852.034	513.2
852.438	504.4
852.843	566.8
853.247	496.2
853.652	493.2
854.057	511.2
854.462	499
854.867	506.2
855.272	533.4
