#lambda/nm	C1
208.295	468.2
208.67	437
209.045	397.6
209.419	399.2
209.794	537.4
210.169	526.2
210.544	624
210.919	538.2
211.295	532.2
211.67	538.8
212.045	529.8
212.421	536
212.796	568
213.172	537.2
213.547	533.2
213.923	536.6
214.299	532.6
214.675	545
215.051	540.2
215.427	545.4
215.803	544.8
216.179	549.2
216.555	534.2
216.932	548.8
217.308	541.8
217.684	535.2
218.061	545.6
218.438	541.4
218.814	541.6
219.191	541.8
219.568	528.4
219.945	540
220.322	540.4
220.699	536.2
221.076	549.8
221.453	538.4
221.83	528.8
222.208	534.2
222.585	531.2
222.962	538.2
223.34	540.4
223.717	534.2
224.095	530
224.473	540.6
224.851	532.6
225.229	525
225.607	544.8
225.985	530.6
226.363	542.4
226.741	542.8
227.119	538.2
227.497	550
227.876	526.4
228.254	547.6
228.633	542.2
229.011	540.8
229.39	536
229.769	542.4
230.148	543.2
230.527	554.2
230.905	534.8
231.284	547.6
231.664	537
232.043	546.4
232.422	554.8
232.801	534.4
233.181	545.2
233.56	533.6
233.94	539
234.319	529.6
234.699	531.6
235.079	572.8
235.458	568
235.838	550.4
236.218	528.2
236.598	532
236.978	535.4
237.358	529.2
237.738	529
238.119	541.2
238.499	530.6
238.88	544.4
239.26	549.6
239.641	528.2
240.021	533
240.402	542
240.783	535.6
241.163	537.6
241.544	543.4
241.925	537.2
242.306	553.8
242.687	529.4
243.069	545.8
243.45	551.4
243.831	529
244.212	528.8
244.594	571
244.975	536.8
245.357	535.8
245.739	536.8
246.12	536.2
246.502	553.2
246.884	539.4
247.266	536.2
247.648	546.4
248.03	560
248.412	540
248.794	547.8
249.176	531.2
249.559	543.2
249.941	529.4
250.323	537.2
250.706	537.4
251.089	542.2
251.471	533.8
251.854	541.6
252.237	533.6
252.62	543.2
253.002	535.2
253.385	528.8
253.769	550.4
254.152	545
254.535	544
254.918	532.8
255.301	529
255.685	536.2
256.068	534.8
256.452	560
256.835	544
257.219	544.2
257.603	545.8
257.986	534
258.37	544.2
258.754	530.2
259.138	541.2
259.522	545.6
259.906	538.8
260.29	542.6
260.675	528.8
261.059	537.4
261.443	531.6
261.828	535
262.212	540.2
262.597	534.6
262.981	532
263.366	542.6
263.751	534
264.136	533
264.521	529.4
264.906	529
265.291	543
265.676	531.6
266.061	539
266.446	546
266.831	537.4
267.217	548
267.602	535.8
267.987	540.4
268.373	529.6
268.759	543.2
269.144	539.4
269.53	541.2
269.916	536.4
270.302	539.6
270.688	535
271.074	543.8
271.46	552
271.846	546.8
272.232	541.6
272.618	530.8
273.004	537.6
273.391	548.2
273.777	550
274.164	545.2
274.55	553.4
274.937	541.4
275.324	533.6
275.71	543.4
276.097	541.6
276.484	528
276.871	540.4
277.258	543
277.645	522.6
278.032	538
278.419	529.2
278.807	543
279.194	530
279.581	527.8
279.969	544.6
280.356	540.2
280.744	541.4
281.131	548.6
281.519	550.2
281.907	538
282.295	539.6
282.682	543.4
283.07	536.2
283.458	541.2
283.846	540.4
284.235	542
284.623	539.8
285.011	529.4
285.399	526.4
285.788	529.6
286.176	522
286.565	545.6
286.953	528
287.342	527.4
287.731	528.6
288.119	526.2
288.508	526.6
288.897	532.2
289.286	522
289.675	533.6
290.064	550
290.453	536
290.821	529.8
291.21	554.6
291.599	536.2
291.989	544.2
292.378	544.6
292.768	557.2
293.157	547
293.547	538
293.936	539
294.326	532.2
294.716	543.4
295.106	532.6
295.496	545.8
295.886	543
296.276	543
296.666	532
297.056	528.8
297.446	530.4
297.836	555.6
298.227	530.2
298.617	545.2
299.008	555.2
299.398	538
299.789	537.2
300.179	542.8
300.57	549.4
300.961	534.4
301.352	534.4
301.742	537.2
302.133	542.8
302.524	548.6
302.915	539.6
303.307	535
303.698	552.8
304.089	536.6
304.48	541.6
304.872	545.6
305.263	534
305.655	536.8
306.046	549.4
306.438	546.8
306.829	541.2
307.221	546.4
307.613	539.6
308.005	546.2
308.397	548.8
308.789	558.4
309.181	558.2
309.573	556.6
309.965	549.6
310.357	544.2
310.749	554
311.142	533.6
311.534	534.6
311.926	536.6
312.319	535.6
312.711	528.8
313.104	550
313.497	538.6
313.889	575
314.282	551.4
314.675	565.4
315.068	543
315.461	549.8
315.854	569.2
316.247	544
316.64	545.6
317.033	534.8
317.405	551.4
317.798	536.4
318.192	539.4
318.585	531.4
318.979	552.4
319.372	530.6
319.766	539.8
320.16	549.6
320.553	547.6
320.947	568.6
321.341	530.8
321.735	539.8
322.129	523.4
322.523	564
322.917	533.2
323.311	546.4
323.705	539.2
324.099	545.6
324.494	549.2
324.888	555.4
325.282	538.8
325.677	550
326.071	549.2
326.466	552.4
326.861	545.6
327.255	551.6
327.65	545.4
328.045	557
328.44	548.4
328.835	540.4
329.23	535.6
329.625	562
330.02	535.8
330.415	561.6
330.81	548.2
331.206	549.4
331.601	538.8
331.996	549.6
332.37	559
332.766	526.6
333.161	555.6
333.557	540.8
333.953	531.6
334.348	828.4
334.744	547
335.14	533
335.536	532.2
335.932	539.8
336.328	536.8
336.724	545.8
337.12	535.2
337.516	535.4
337.913	537
338.309	546.4
338.705	540.2
339.102	541.6
339.498	524.6
339.895	554
340.291	537.4
340.688	541.6
341.085	531.6
341.481	538
341.878	538.4
342.275	546.4
342.672	531.4
343.069	527
343.466	525
343.842	538.6
344.239	532.6
344.636	534
345.033	529
345.431	523.4
345.828	535.6
346.225	525.4
346.623	560.8
347.02	541.6
347.418	545.2
347.816	549.6
348.213	538.4
348.611	546.4
349.009	533.2
349.407	541.2
349.805	522.2
350.203	520.2
350.601	554
350.999	539.6
351.397	579.4
351.795	534.8
352.193	545.4
352.57	547
352.969	556.2
353.367	533.6
353.766	532.6
354.164	538.4
354.563	542
354.961	538
355.36	532.8
355.759	532
356.158	527.4
356.557	526.4
356.956	535.6
357.355	522.6
357.754	534
358.153	534.6
358.552	550.6
358.951	534
359.35	542.4
359.75	524.6
360.149	528.8
360.527	517
360.926	523.8
361.326	528.6
361.726	531.8
362.125	526
362.525	535
362.925	526.2
363.325	531.6
363.724	532.6
364.124	528.2
364.524	522.4
364.924	522
365.324	538
365.725	516.2
366.125	528.6
366.525	522.6
366.904	526
367.304	514.8
367.705	544.8
368.105	536.4
368.506	531.2
368.906	526.4
369.307	533.6
369.708	539.6
370.108	514.6
370.509	533.2
370.91	528.8
371.311	540.4
371.712	528.2
372.113	521.8
372.514	527
372.894	528.8
373.295	531.2
373.696	547.8
374.097	536.4
374.499	558.8
374.9	540.6
375.301	528.4
375.703	533.6
376.105	522.6
376.506	535.8
376.908	534.6
377.309	534
377.711	536.8
378.113	526.4
378.493	534.2
378.895	525.6
379.297	535.4
379.699	523
380.102	533.8
380.504	530.2
380.906	521.8
381.308	546.4
381.71	523.6
382.113	538.2
382.515	524.2
382.918	530.2
383.299	522
383.701	528.2
384.104	523.8
384.507	509
384.909	521
385.312	520.2
385.715	523
386.118	528
386.521	517.6
386.924	539
387.327	524.8
387.709	518.6
388.112	511.2
388.515	520.4
388.918	530
389.322	526
389.725	523.2
390.129	542.6
390.532	538
390.936	525.6
391.339	527.2
391.743	533.6
392.125	533.6
392.529	539.8
392.933	542.4
393.337	527.4
393.74	522.4
394.144	528.4
394.548	525
394.953	531
395.357	534.4
395.761	524.6
396.144	532.8
396.548	531.2
396.952	527.4
397.357	531.4
397.761	529
398.166	516.6
398.57	526.2
398.975	524.4
399.379	532.2
399.763	562.6
400.168	528.6
400.572	523.4
400.977	522.8
401.382	541.2
401.787	538.2
402.192	548.2
402.597	539.6
403.002	516
403.386	538
403.791	549.2
404.197	531
404.602	527
405.007	534.4
405.413	515.8
405.818	529
406.224	520.6
406.608	528.6
407.014	527.8
407.42	538.4
407.825	527.2
408.231	528.4
408.637	531.8
409.043	535.8
409.449	524
409.834	525.6
410.24	531.8
410.646	543.8
411.052	534.4
411.458	532
411.865	533
412.271	539.2
412.677	527.8
413.062	531.8
413.469	530
413.875	555.8
414.282	538
414.689	532.4
415.095	528.4
415.502	530.4
415.888	534.4
416.294	518.6
416.701	565.8
417.108	531.8
417.515	532.8
417.923	521.8
418.33	549.2
418.715	531
419.123	528.4
419.53	528.8
419.937	535.8
420.345	542.4
420.752	536.2
421.16	543.4
421.546	533.2
421.953	541.2
422.361	519.6
422.769	540.6
423.177	520.8
423.585	554.6
423.992	545.8
424.379	538.4
424.787	538.8
425.195	547.4
425.603	525.2
426.011	540.4
426.419	538.4
426.806	528.8
427.214	539.2
427.623	540
428.031	548.8
428.44	537.2
428.848	546.6
429.235	542.6
429.644	534.4
430.053	530.2
430.461	545.4
430.87	550.4
431.279	538.6
431.666	522.6
432.075	534.8
432.484	529.8
432.893	526.8
433.302	542.8
433.711	560
434.099	529.8
434.508	526.2
434.918	517.8
435.327	544.2
435.737	536
436.125	532.4
436.534	536.8
436.944	528.6
437.353	531.8
437.763	546
438.173	524.8
438.561	542.6
438.971	518.2
439.381	524.6
439.791	530.6
440.201	512.2
440.589	531.2
440.999	527.8
441.409	526.6
441.819	520.4
442.23	537.4
442.619	530.8
443.029	533.6
443.439	531.4
443.85	539.4
444.26	549.6
444.649	536.2
445.06	531.4
445.471	522.6
445.881	527.8
446.292	543.4
446.682	548.2
447.092	520
447.503	574
447.914	536.4
448.325	534.4
448.715	528.8
449.126	520.8
449.537	531.2
449.948	533.2
450.338	530.4
450.75	533.4
451.161	530.2
451.572	531.6
451.984	530
452.374	515
452.786	533.2
453.197	535.8
453.609	529.6
453.999	515.8
454.411	527.4
454.823	539.4
455.235	530.8
455.647	517.6
456.037	531.6
456.449	521.4
456.862	528
457.274	526.2
457.665	519.8
458.077	531.6
458.489	555.2
458.902	525.2
459.293	531.2
459.705	525.8
460.118	515.2
460.53	523.2
460.921	520.6
461.334	531.2
461.747	527.8
462.16	543.4
462.551	539.6
462.964	533.8
463.377	511.8
463.79	517.8
464.182	532.2
464.595	522.6
465.008	525.6
465.421	530.8
465.813	521.2
466.226	533.2
466.64	521
467.053	562.6
467.445	531.8
467.859	544.6
468.272	536.8
468.686	534.2
469.078	521.8
469.492	508
469.906	535.2
470.298	533.2
470.712	520.2
471.126	546.6
471.54	503.6
471.933	519.8
472.347	528
472.761	520.2
473.175	514.4
473.568	523.8
473.982	519.6
474.397	525.4
474.79	520
475.204	528.4
475.619	526.2
476.033	522.4
476.426	521.8
476.841	511.8
477.256	546.8
477.649	516.8
478.064	510.2
478.479	510.6
478.872	510.4
479.287	502
479.702	510.6
480.118	517.4
480.511	509.8
480.927	519.4
481.342	509.8
481.736	529.4
482.151	510
482.566	520.6
482.96	515.2
483.376	523
483.792	512.2
484.186	522
484.602	516
485.017	524.8
485.412	525.4
485.827	528.2
486.243	519.8
486.638	539.8
487.054	523.4
487.47	530.8
487.865	520.4
488.281	527.4
488.697	516.4
489.092	519.8
489.508	515.2
489.925	530.4
490.32	508.4
490.736	525.4
491.153	517.6
491.548	529.2
491.964	528
492.381	515.2
492.776	526.2
493.193	528.6
493.61	525.6
494.006	525.2
494.422	532.2
494.84	519.2
495.235	527
495.652	519.2
496.069	529.4
496.465	518.6
496.883	525.8
497.3	541.6
497.696	515.4
498.113	519.4
498.509	514.4
498.927	521.8
499.344	518.6
499.741	518
500.158	527.8
500.576	522.4
500.973	524
501.39	516.4
501.787	504.6
502.205	524.2
502.623	521.2
503.02	514.6
503.438	510.4
503.856	514.6
504.253	523.4
504.671	522.4
505.068	515
505.486	516.6
505.905	533
506.302	524
506.72	527.4
507.118	511.2
507.536	520.8
507.955	518.8
508.352	515
508.771	517.8
509.169	523.6
509.587	519.4
510.006	522.2
510.404	509.4
510.823	510.2
511.221	517.6
511.64	513
512.038	524.8
512.457	521.8
512.877	514.6
513.275	519.8
513.694	517.4
514.092	519
514.512	519.2
514.91	524.6
515.33	518.8
515.749	519
516.148	524
516.568	514.6
516.966	517.8
517.386	516
517.785	515.2
518.205	511.4
518.603	515.8
519.024	515.6
519.444	521.4
519.843	526.4
520.263	532.6
520.662	516.4
521.082	515.4
521.481	522
521.902	516.6
522.301	522.4
522.722	518
523.121	521
523.542	517.2
523.963	523.6
524.362	524.2
524.783	512
525.183	521.2
525.604	520.8
526.003	515.8
526.425	513.2
526.824	519
527.246	528
527.646	528.8
528.067	518.6
528.467	520
528.888	518
529.289	514.2
529.71	515.6
530.11	512.2
530.532	512.8
530.932	501.4
531.354	504.6
531.755	546.6
532.176	522.8
532.577	510.2
532.999	525.2
533.4	515.8
533.822	520
534.223	515.6
534.645	524
535.046	513.4
535.468	516.2
535.869	532.2
536.292	518.6
536.693	544
537.115	521.4
537.516	518.8
537.939	513.2
538.34	530.2
538.742	522.8
539.165	511
539.566	519.6
539.989	515.4
540.391	511.2
540.814	520.6
541.216	517
541.639	513.8
542.041	529.6
542.464	515.4
542.866	513.4
543.268	508.8
543.691	525
544.093	523.4
544.517	540.6
544.919	511.6
545.343	537.2
545.745	522
546.147	520.8
546.571	515.4
546.974	516.6
547.398	518.2
547.8	534.4
548.224	516.8
548.627	509.2
549.03	523.8
549.454	510.6
549.857	507.6
550.281	517
550.684	511.4
551.087	520.2
551.512	518.8
551.915	521.6
552.34	520
552.743	516.6
553.146	524.2
553.571	505.8
553.975	533.8
554.399	498.4
554.803	561.4
555.207	512.4
555.632	511.4
556.036	514.2
556.461	504.4
556.865	518.6
557.268	503.8
557.694	515
558.098	512.2
558.502	521.8
558.927	514.4
559.332	512.4
559.736	513.4
560.162	515.2
560.566	511.6
560.992	515.4
561.396	515.4
561.801	515
562.227	515.4
562.631	513.6
563.036	515
563.462	520
563.867	526.4
564.272	514.4
564.698	523
565.103	512.8
565.508	530
565.935	515.6
566.34	519.2
566.745	520.6
567.172	514.4
567.577	531
567.982	527.4
568.409	520.4
568.815	511.2
569.22	519.2
569.626	523.2
570.053	502.2
570.459	519.6
570.865	522.6
571.292	524.8
571.698	514.8
572.104	501.6
572.531	519.2
572.937	522.6
573.343	517.8
573.75	506.8
574.177	512.8
574.583	518.4
574.99	508.6
575.396	506.6
575.824	505.6
576.231	514
576.637	509.6
577.065	529.2
577.472	499.2
577.879	509.2
578.286	526.6
578.714	500.2
579.121	510.8
579.528	510.4
579.935	518
580.364	507.4
580.771	510.6
581.178	508.6
581.585	520
582.014	515
582.421	508.8
582.829	511.6
583.236	515.6
583.644	517.6
584.073	511
584.481	510.8
584.889	502.8
585.296	515.8
585.726	517.8
586.134	507.6
586.542	512.6
586.95	519.6
587.358	510.6
587.787	504
588.196	510
588.604	512
589.012	512
589.421	507
589.851	510.8
590.259	515.8
590.668	512.2
591.076	540.8
591.485	509
591.894	523.4
592.324	531.6
592.733	521.8
593.142	500.6
593.551	518
593.96	538.8
594.369	501.8
594.8	508.6
595.209	521.2
595.618	509.4
596.028	511.4
596.437	512.8
596.847	508.4
597.256	520.2
597.687	513.6
598.097	517.4
598.507	502.4
598.917	519
599.327	519
599.736	514.2
600.146	519.8
600.556	515
600.988	526
601.398	512.8
601.808	524.2
602.219	499.4
602.629	512.4
603.039	517.2
603.45	538.8
603.86	516.4
604.271	535.4
604.703	522.8
605.114	511
605.525	515.4
605.935	518.2
606.346	527.6
606.757	518.8
607.168	517.2
607.579	513.4
607.99	524.4
608.402	513.4
608.813	524.8
609.224	513
609.636	512.6
610.047	505.4
610.48	517.6
610.892	527
611.303	515.6
611.715	513.4
612.127	510
612.539	515
612.95	515.6
613.362	510.4
613.774	499.6
614.186	506.8
614.599	511.2
615.011	525.2
615.423	519
615.835	512.2
616.248	506.2
616.66	511.2
617.073	505
617.485	511.8
617.898	516
618.311	512.8
618.723	522.6
619.136	539.6
619.549	524.4
619.962	536
620.375	518
620.788	521.4
621.201	509
621.614	517.6
622.028	514.4
622.441	520.4
622.854	520
623.268	507.2
623.681	513.4
624.095	512.8
624.509	520
624.922	519
625.336	509.2
625.728	507.6
626.142	511.8
626.556	524.4
626.97	525.6
627.384	506.8
627.799	506.6
628.213	523.8
628.627	508.6
629.041	514.4
629.456	509.8
629.87	505.2
630.285	521
630.699	521.8
631.093	513.4
631.507	522.2
631.922	514
632.337	516.8
632.752	505.6
633.167	515.8
633.582	512.6
633.997	507.4
634.412	511
634.806	518
635.221	510.6
635.637	517
636.052	505.4
636.468	509.8
636.883	532
637.299	515.6
637.715	501.2
638.109	512.8
638.525	498
638.941	519
639.357	510
639.773	511.6
640.189	511.4
640.584	516.4
641	516.8
641.416	502.8
641.832	509.2
642.249	509.8
642.665	506.6
643.06	517.8
643.477	517.4
643.894	502.4
644.31	504.8
644.727	510.8
645.123	520.4
645.54	514.8
645.957	511.4
646.374	522.4
646.77	520.2
647.187	532
647.604	512.6
648.021	500
648.439	510.4
648.835	512.6
649.252	515.4
649.67	498
650.088	518
650.484	518.6
650.902	523.6
651.32	512.8
651.738	510.8
652.134	510
652.552	522.4
652.971	513.6
653.389	504
653.786	523
654.204	517.4
654.622	510.8
655.019	506
655.438	513.2
655.857	511.4
656.275	508.2
656.673	500.8
657.091	519.2
657.51	502.6
657.908	516
658.327	522.2
658.746	493.8
659.144	506
659.563	522.4
659.982	509.2
660.38	502.8
660.8	507.8
661.219	522.2
661.617	511.2
662.037	504.2
662.457	518.8
662.855	501
663.275	536.8
663.695	506.6
664.094	516
664.514	514.6
664.934	499.6
665.333	515
665.753	501.4
666.152	496.6
666.572	501.8
666.993	519.6
667.392	505.6
667.812	504
668.212	499.2
668.632	515.2
669.053	507.6
669.453	505.2
669.874	510.2
670.273	510.2
670.694	503.2
671.116	513.8
671.515	511
671.937	509.6
672.337	492.8
672.758	504.6
673.158	511.8
673.58	498.2
673.98	502
674.402	510.6
674.824	503.8
675.224	499.4
675.646	497
676.047	502
676.469	501
676.869	513.4
677.292	505.2
677.693	492
678.115	498.4
678.516	504.2
678.939	505
679.34	503.8
679.762	510.6
680.164	513.6
680.586	498.4
680.988	514
681.411	524.8
681.812	507
682.236	502.8
682.637	504.6
683.061	496
683.462	509.8
683.864	506.6
684.288	507
684.69	500.6
685.114	509.4
685.516	507.6
685.94	499.8
686.342	515.4
686.766	501.4
687.168	507.6
687.571	520
687.995	507.6
688.398	500.2
688.822	500
689.225	513.8
689.628	521.8
690.052	506.2
690.456	518
690.88	512.4
691.284	500
691.687	514.2
692.112	497.4
692.515	505.2
692.919	505.8
693.344	508.6
693.747	503.8
694.173	501.6
694.577	515.4
694.98	511.6
695.406	510
695.81	508.6
696.214	515.2
696.64	517.6
697.044	507.6
697.448	515.6
697.874	508
698.279	502.2
698.684	502.2
699.11	499
699.514	505
699.919	509.6
700.324	496.8
700.75	514.4
701.156	514.2
701.561	517.4
701.987	510
702.393	512.4
702.798	511.2
703.203	514.2
703.63	506.4
704.036	500
704.442	508.2
704.847	504.4
705.274	508.2
705.68	515.4
706.086	519
706.492	500.8
706.92	501
707.326	516.2
707.732	506.4
708.139	500
708.545	495
708.973	499
709.38	506.2
709.786	500
710.193	516.8
710.6	504.4
711.028	503.2
711.435	507.6
711.842	505.6
712.249	500.6
712.656	508
713.064	511.2
713.492	496.8
713.9	508.2
714.307	508.4
714.715	504.4
715.123	509.4
715.53	510.6
715.938	513.4
716.367	503.2
716.775	501
717.184	497
717.592	503.4
718	513.2
718.408	535.4
718.816	545.4
719.225	514.2
719.633	505.2
720.042	502.8
720.472	507.8
720.881	522.2
721.29	506.8
721.699	505
722.108	501
722.517	505.4
722.926	504
723.335	508.6
723.744	509.8
724.154	503.4
724.563	510.8
724.973	505.2
725.382	506
725.792	505
726.202	499.4
726.612	513.8
727.022	499.4
727.432	502.8
779.813	504.4
780.223	544.4
780.634	502.8
781.044	501.2
781.454	498.4
781.865	513.4
782.276	502
782.686	512.4
783.097	512.8
783.508	502.6
783.919	507.4
784.33	513.2
784.741	514.4
785.152	496.6
785.563	494
785.974	495
786.386	515.2
786.776	506.8
787.188	509.2
787.599	499
788.011	514.2
788.423	510.8
788.835	497.2
789.247	491.6
789.659	498.6
790.071	499.2
790.483	538.8
790.874	500.4
791.286	505.2
791.699	499.2
792.111	505
792.524	513.2
792.937	500.4
793.349	494
793.741	498.2
794.154	502
794.567	511.4
794.98	505.8
795.393	494.2
795.785	515.8
796.198	505.8
796.612	505
797.026	505.6
797.439	491.2
797.831	500.2
798.245	496.8
798.659	502.2
799.073	506.8
799.487	499.4
799.88	499.2
800.294	500
800.708	504
801.123	502
801.516	513.8
801.93	493.4
802.345	490.4
802.76	500.2
803.153	513
803.568	513.2
803.983	507
804.377	505.8
804.792	495
805.207	495.6
805.601	498.6
806.016	528
806.432	486.8
806.826	527.2
807.242	521.4
807.658	504
808.052	496.6
808.468	501.4
808.884	502
809.279	507.4
809.695	507.2
810.111	522
810.506	500
810.922	523.6
811.339	489.8
811.734	510.6
812.151	497.2
812.546	497.4
812.963	497
813.38	506.4
813.776	503
814.193	521.2
814.589	498.6
815.006	503.6
815.402	502
815.82	496.2
816.237	505.8
816.633	507
817.051	497.4
817.448	505.4
817.866	492.6
818.262	518.2
818.68	496.6
819.077	491.4
819.495	491.4
819.892	523.8
820.311	491.8
820.708	498.2
821.127	491.2
821.524	502.4
821.943	496.4
822.34	501
822.759	506
823.157	500.6
823.576	514.4
823.974	504.4
824.393	589.4
824.791	494.6
825.189	497.4
825.609	496.6
826.007	493.4
826.427	484.4
826.826	497.2
827.246	497.2
827.644	486
828.043	513.4
828.463	490.8
828.862	512.2
829.261	502.4
829.682	501.2
830.081	512.6
830.502	494.8
830.901	500.4
831.301	495.4
831.722	493.4
832.121	505.8
832.521	497.2
832.943	506.6
833.342	498.2
833.742	490.6
834.164	509.8
834.564	493
834.965	495.8
835.386	497.4
835.787	494
836.188	509.8
836.588	500.4
837.01	503.4
837.411	492.2
837.812	507.6
838.213	509.2
838.636	497
839.037	555.2
839.438	501.6
839.84	503
840.263	510.2
840.664	500
841.066	501.4
841.468	506.4
841.891	498
842.293	513.8
842.695	497.6
843.098	506.6
843.5	500
843.902	502.6
844.326	500.2
844.729	503.6
845.131	511
845.534	498.8
845.937	513.6
846.34	508.2
846.764	492.8
847.167	505.2
847.571	500.2
847.974	499.8
848.377	501.8
848.781	538.6
849.184	507.4
849.588	498.6
849.992	497.4
850.396	499.2
850.821	511.8
851.225	504.4
851.63	499.8
852.034	516.8
852.438	503.6
852.843	524.8
853.247	498.6
853.652	498.6
854.057	516.8
854.462	504
854.867	507.2
855.272	529.6
855.677	501.8
856.082	503.8
856.487	489.6
