#lambda/nm	C1
208.295	463.4
208.67	437.2
209.045	396
209.419	403.4
209.794	548.4
210.169	523
210.544	631.8
210.919	542.4
211.295	532.6
211.67	531.8
212.045	532.8
212.421	535.2
212.796	562.4
213.172	537
213.547	534.8
213.923	535.8
214.299	530.2
214.675	543.6
215.051	537.4
215.427	547.4
215.803	553.2
216.179	538.8
216.555	538.6
216.932	552.2
217.308	539.4
217.684	539.2
218.061	545.2
218.438	546.2
218.814	535
219.191	549.2
219.568	532.4
219.945	539.6
220.322	543.8
220.699	545.8
221.076	541.8
221.453	548
221.83	534.4
222.208	533.4
222.585	531
222.962	531.8
223.34	543.4
223.717	539.4
224.095	537.2
224.473	535.6
224.851	530.4
225.229	527.2
225.607	545.2
225.985	529.4
226.363	532.8
226.741	536
227.119	532.4
227.497	549.2
227.876	524.8
228.254	545.8
228.633	548.4
229.011	539.2
229.39	549.2
229.769	544.2
230.148	540.4
230.527	558.4
230.905	537
231.284	542
231.664	538.4
232.043	547.8
232.422	536
232.801	541
233.181	543
233.56	533.8
233.94	537
234.319	531.8
234.699	538
235.079	572.4
235.458	562.8
235.838	549
236.218	538.8
236.598	534
236.978	540
237.358	527
237.738	539.4
238.119	548.4
238.499	537.2
238.88	539.2
239.26	552.4
239.641	534.6
240.021	534.2
240.402	542.8
240.783	529.8
241.163	537.4
241.544	544.2
241.925	539.8
242.306	551.6
242.687	530.4
243.069	535.4
243.45	542
243.831	534
244.212	536.4
244.594	575.2
244.975	548
245.357	540.6
245.739	531.8
246.12	543.8
246.502	551.2
246.884	541.8
247.266	538.6
247.648	538.2
248.03	555
248.412	537.8
248.794	542.2
249.176	534.8
249.559	542.4
249.941	533
250.323	528
250.706	537.8
251.089	541.4
251.471	534
251.854	530
252.237	538.8
252.62	544.4
253.002	535.2
253.385	539.2
253.769	557
254.152	541.8
254.535	547.2
254.918	536
255.301	537.8
255.685	535.6
256.068	531.8
256.452	560.6
256.835	542.4
257.219	545.2
257.603	553.8
257.986	530.8
258.37	542
258.754	528
259.138	536
259.522	546.2
259.906	530
260.29	542.2
260.675	537
261.059	530.6
261.443	528
261.828	537.8
262.212	543.4
262.597	526.6
262.981	523.2
263.366	536.6
263.751	538.2
264.136	533.2
264.521	534
264.906	529.6
265.291	543
265.676	540.4
266.061	536.2
266.446	555.6
266.831	538.2
267.217	551.8
267.602	534.2
267.987	543.6
268.373	532.6
268.759	551.4
269.144	542
269.53	535.4
269.916	536.6
270.302	532.6
270.688	537.4
271.074	536.2
271.46	552.6
271.846	558.4
272.232	538.6
272.618	536.6
273.004	534.4
273.391	542.4
273.777	547.2
274.164	531.4
274.55	550
274.937	536.4
275.324	533.8
275.71	546
276.097	535.8
276.484	533.6
276.871	543.2
277.258	535
277.645	530.2
278.032	533.2
278.419	530.4
278.807	543.2
279.194	531.4
279.581	530
279.969	542.4
280.356	542.4
280.744	535.8
281.131	557
281.519	550.2
281.907	536.2
282.295	535.8
282.682	551.4
283.07	546.8
283.458	544
283.846	545.6
284.235	546.8
284.623	545.8
285.011	528.6
285.399	550
285.788	534.2
286.176	537.2
286.565	552.4
286.953	534
287.342	532.6
287.731	541
288.119	524.6
288.508	543.6
288.897	539.4
289.286	532.8
289.675	538.8
290.064	538.8
290.453	538.8
290.821	543.8
291.21	553.2
291.599	541.4
291.989	536
292.378	542.4
292.768	549.4
293.157	537.2
293.547	539
293.936	533
294.326	531.2
294.716	529.6
295.106	527.8
295.496	537.6
295.886	542.2
296.276	537
296.666	531.6
297.056	528.6
297.446	526.4
297.836	549.2
298.227	535.8
298.617	536
299.008	548.2
299.398	534.2
299.789	526.4
300.179	541.6
300.57	544.4
300.961	536
301.352	530.4
301.742	535.8
302.133	533.2
302.524	535.2
302.915	542.6
303.307	523.4
303.698	545
304.089	542
304.48	545.4
304.872	543.2
305.263	532.4
305.655	531.8
306.046	550.8
306.438	545.6
306.829	525.4
307.221	552.6
307.613	540.6
308.005	549.2
308.397	547.2
308.789	552.4
309.181	561.6
309.573	555
309.965	553.4
310.357	539.6
310.749	552.4
311.142	528
311.534	534.2
311.926	544.4
312.319	536.6
312.711	530.6
313.104	547.8
313.497	537.2
313.889	573.6
314.282	550
314.675	557.8
315.068	542.4
315.461	550.4
315.854	559
316.247	545
316.64	539.2
317.033	546.6
317.405	542
317.798	532
318.192	542.8
318.585	531.4
318.979	545.8
319.372	536.6
319.766	538
320.16	554.8
320.553	553
320.947	557.8
321.341	537
321.735	535.8
322.129	525.4
322.523	558.6
322.917	527.8
323.311	546.8
323.705	543.2
324.099	548.8
324.494	544.8
324.888	552.6
325.282	534.4
325.677	545.6
326.071	548
326.466	548
326.861	548.2
327.255	552.8
327.65	543.6
328.045	553
328.44	542.8
328.835	539.4
329.23	536.8
329.625	561.6
330.02	536.2
330.415	549.8
330.81	543.6
331.206	545.8
331.601	532.6
331.996	548.8
332.37	552.4
332.766	537.2
333.161	565.6
333.557	542.2
333.953	536.4
334.348	753.2
334.744	539.4
335.14	525.6
335.536	537.8
335.932	547.4
336.328	543.4
336.724	547.6
337.12	538
337.516	534.2
337.913	533.2
338.309	547.2
338.705	534.2
339.102	542.6
339.498	537.2
339.895	552.6
340.291	533.6
340.688	548.4
341.085	538.4
341.481	532.8
341.878	544.4
342.275	551.6
342.672	529.6
343.069	534.8
343.466	517.4
343.842	544
344.239	534.2
344.636	530.8
345.033	538.2
345.431	540.4
345.828	537.8
346.225	533.8
346.623	565.2
347.02	534.2
347.418	549
347.816	551.8
348.213	532.8
348.611	536.8
349.009	538.4
349.407	551.8
349.805	529.8
350.203	529.8
350.601	542.8
350.999	534.8
351.397	586
351.795	531.4
352.193	545.8
352.57	545
352.969	542.6
353.367	526.4
353.766	532.4
354.164	533.2
354.563	537.2
354.961	538
355.36	527.2
355.759	523.6
356.158	531.8
356.557	530.6
356.956	526
357.355	520.8
357.754	539.6
358.153	539.2
358.552	558
358.951	532.4
359.35	537.6
359.75	533
360.149	525
360.527	520.4
360.926	522
361.326	531
361.726	537.8
362.125	527.8
362.525	539.4
362.925	528.6
363.325	533.6
363.724	532.8
364.124	526.6
364.524	530
364.924	527.4
365.324	542.2
365.725	524.4
366.125	541
366.525	536
366.904	526.8
367.304	520
367.705	547
368.105	533.8
368.506	527.8
368.906	534.2
369.307	532
369.708	531.8
370.108	521.8
370.509	538.6
370.91	530.2
371.311	528.8
371.712	530.4
372.113	528
372.514	522.4
372.894	536.8
373.295	526.8
373.696	539.8
374.097	536
374.499	549.8
374.9	533.2
375.301	525.8
375.703	528
376.105	525
376.506	533
376.908	536.4
377.309	532.6
377.711	537.2
378.113	533.6
378.493	530.4
378.895	523.4
379.297	535.6
379.699	518
380.102	532.8
380.504	532.6
380.906	531.6
381.308	554.8
381.71	525.6
382.113	534.8
382.515	531.2
382.918	536.8
383.299	528.6
383.701	545
384.104	533
384.507	521.4
384.909	535.4
385.312	518.4
385.715	531.2
386.118	537.4
386.521	531
386.924	533.8
387.327	522.8
387.709	516
388.112	521.8
388.515	528
388.918	523.2
389.322	540.2
389.725	525.2
390.129	538.8
390.532	528
390.936	518
391.339	519.8
391.743	529.2
392.125	519
392.529	531.8
392.933	533.2
393.337	520
393.74	526.8
394.144	527.2
394.548	514.8
394.953	521.6
395.357	536.6
395.761	519.8
396.144	531.4
396.548	529
396.952	531.2
397.357	527.6
397.761	516.4
398.166	517.2
398.57	524.4
398.975	518.2
399.379	530.8
399.763	562
400.168	525.6
400.572	529
400.977	524
401.382	547.6
401.787	539.2
402.192	536
402.597	538.2
403.002	517
403.386	541.2
403.791	542.8
404.197	523.4
404.602	523.4
405.007	531.8
405.413	520
405.818	527
406.224	519.2
406.608	526
407.014	523.2
407.42	536.6
407.825	530.2
408.231	536.4
408.637	529.6
409.043	539
409.449	530
409.834	525.6
410.24	534.8
410.646	533.2
411.052	538.4
411.458	532.2
411.865	532.4
412.271	531.8
412.677	531
413.062	524.4
413.469	520.4
413.875	543.8
414.282	547
414.689	531.6
415.095	534.4
415.502	528.6
415.888	533.6
416.294	519
416.701	565.4
417.108	527.2
417.515	539.2
417.923	530.4
418.33	540.4
418.715	541.8
419.123	524.6
419.53	526
419.937	534.2
420.345	548.6
420.752	532
421.16	534.6
421.546	538.6
421.953	547.8
422.361	523
422.769	536
423.177	529.8
423.585	553
423.992	543.8
424.379	543.4
424.787	544
425.195	548.6
425.603	530.2
426.011	550.6
426.419	544.8
426.806	533.6
427.214	535
427.623	540.2
428.031	541.8
428.44	535
428.848	537.4
429.235	545.2
429.644	534
430.053	537.6
430.461	543.4
430.87	551.4
431.279	539.6
431.666	526
432.075	538.4
432.484	533.6
432.893	527.6
433.302	540.8
433.711	562.2
434.099	545.6
434.508	527.4
434.918	525.2
435.327	533.4
435.737	533.4
436.125	534.4
436.534	531.6
436.944	532.6
437.353	530.6
437.763	552.8
438.173	521
438.561	542.8
438.971	522.2
439.381	530.8
439.791	526
440.201	518
440.589	535.8
440.999	532
441.409	525
441.819	522.4
442.23	533.8
442.619	532
443.029	538
443.439	536.6
443.85	538
444.26	541.8
444.649	537.8
445.06	529.6
445.471	528.2
445.881	532.6
446.292	544.6
446.682	549.2
447.092	514.2
447.503	559.6
447.914	540.4
448.325	519.6
448.715	531.4
449.126	523.6
449.537	516.6
449.948	523
450.338	525
450.75	535.2
451.161	523
451.572	534
451.984	520.6
452.374	517.2
452.786	528.6
453.197	529.2
453.609	534.4
453.999	519.8
454.411	509.4
454.823	534.8
455.235	524.8
455.647	519.2
456.037	517.8
456.449	520.4
456.862	522
457.274	524.2
457.665	524.2
458.077	534.4
458.489	550.6
458.902	520.6
459.293	520.4
459.705	530
460.118	516.8
460.53	528.4
460.921	526
461.334	523.6
461.747	518.8
462.16	532.6
462.551	540.8
462.964	537.6
463.377	513.4
463.79	528.8
464.182	538.2
464.595	520.8
465.008	529
465.421	527.8
465.813	521.8
466.226	521.2
466.64	520.6
467.053	557
467.445	529.2
467.859	534.4
468.272	524.6
468.686	524.6
469.078	523.2
469.492	523
469.906	523.2
470.298	532.6
470.712	516.4
471.126	550.8
471.54	508.2
471.933	516
472.347	520
472.761	525.2
473.175	516.6
473.568	513.2
473.982	518.2
474.397	521.8
474.79	522.8
475.204	529.6
475.619	521.6
476.033	529.4
476.426	523.2
476.841	514.4
477.256	539.2
477.649	528
478.064	510.6
478.479	520.2
478.872	516.6
479.287	518.4
479.702	511.8
480.118	525.4
480.511	524
480.927	515.6
481.342	514
481.736	524.8
482.151	515.6
482.566	516.6
482.96	517
483.376	530.6
483.792	517
484.186	520.2
484.602	515.2
485.017	522
485.412	519
485.827	519.8
486.243	514.4
486.638	541
487.054	522.2
487.47	525.8
487.865	513.6
488.281	511.4
488.697	518.8
489.092	511.2
489.508	512
489.925	524.4
490.32	511.8
490.736	508.4
491.153	518.4
491.548	519
491.964	529.4
492.381	507
492.776	522.6
493.193	515.6
493.61	527.8
494.006	517
494.422	531.2
494.84	512.8
495.235	520.8
495.652	526.2
496.069	523.2
496.465	511.6
496.883	518.6
497.3	536.2
497.696	515.4
498.113	529.4
498.509	509.6
498.927	516.6
499.344	517.4
499.741	509
500.158	528.2
500.576	530.6
500.973	525
501.39	508.2
501.787	514.2
502.205	520
502.623	512.6
503.02	512
503.438	515.6
503.856	512.4
504.253	520.4
504.671	517.2
505.068	517.4
505.486	524.4
505.905	535
506.302	514.6
506.72	517.4
507.118	511.6
507.536	522.2
507.955	522.2
508.352	521.6
508.771	523.4
509.169	521.8
509.587	516.6
510.006	518.8
510.404	513.2
510.823	516
511.221	517.6
511.64	515.8
512.038	531.2
512.457	519.4
512.877	514.8
513.275	514.6
513.694	519
514.092	512.6
514.512	520.6
514.91	527.8
515.33	522.8
515.749	511.6
516.148	522.8
516.568	513.8
516.966	518.8
517.386	516.6
517.785	508.2
518.205	508
518.603	518
519.024	508.4
519.444	517.6
519.843	526.2
520.263	530.6
520.662	522
521.082	512
521.481	525
521.902	520
522.301	521.2
522.722	517.8
523.121	524.2
523.542	510.4
523.963	517.8
524.362	518.2
524.783	529.8
525.183	517
525.604	516.8
526.003	515
526.425	513.4
526.824	524.6
527.246	527.4
527.646	528
528.067	513.4
528.467	514.4
528.888	516.2
529.289	516.4
529.71	518.6
530.11	515
530.532	522.8
530.932	511.2
531.354	515.2
531.755	543.4
532.176	519.8
532.577	513.6
532.999	518.6
533.4	519.8
533.822	532
534.223	525
534.645	513.6
535.046	515.6
535.468	523.8
535.869	528.4
536.292	508
536.693	553
537.115	520
537.516	520.6
537.939	517.4
538.34	530.8
538.742	523.4
539.165	522.4
539.566	518
539.989	516.4
540.391	521.2
540.814	524
541.216	520.4
541.639	519.2
542.041	524
542.464	516.6
542.866	513.8
543.268	510.4
543.691	521.2
544.093	525.6
544.517	531.6
544.919	509
545.343	533.4
545.745	512.8
546.147	523.4
546.571	518.8
546.974	511
547.398	520.2
547.8	530.6
548.224	518.6
548.627	510.2
549.03	516
549.454	507.4
549.857	503
550.281	513.4
550.684	509.2
551.087	524.4
551.512	524.8
551.915	517.8
552.34	518.8
552.743	507
553.146	517.4
553.571	508.8
553.975	530.4
554.399	512
554.803	551.8
555.207	510.2
555.632	506
556.036	510
556.461	511.6
556.865	519.2
557.268	508.6
557.694	514.2
558.098	519.2
558.502	518.2
558.927	508.6
559.332	517.6
559.736	519.6
560.162	517.6
560.566	515.6
560.992	524.8
561.396	520
561.801	519.8
562.227	517.2
562.631	509.8
563.036	511
563.462	516.8
563.867	516
564.272	505.8
564.698	525.6
565.103	507.2
565.508	529.4
565.935	510
566.34	507.4
566.745	521.6
567.172	507.8
567.577	525.8
567.982	527.8
568.409	516.8
568.815	506.8
569.22	522.8
569.626	514.6
570.053	499.6
570.459	515
570.865	526.4
571.292	526.4
571.698	520.2
572.104	506.4
572.531	511.8
572.937	523.6
573.343	517.4
573.75	512.2
574.177	522.2
574.583	526.2
574.99	514.4
575.396	518.8
575.824	516.6
576.231	522.4
576.637	516.4
577.065	536.4
577.472	511.8
577.879	508
578.286	523.6
578.714	503.6
579.121	514.8
579.528	523
579.935	515.2
580.364	515.2
580.771	501.2
581.178	506
581.585	510
582.014	510
582.421	510.8
582.829	512.6
583.236	519.8
583.644	504.8
584.073	505
584.481	513
584.889	501.8
585.296	511
585.726	503.8
586.134	500.8
586.542	510.4
586.95	526.8
587.358	497.8
587.787	511.8
588.196	501.8
588.604	502.2
589.012	517.8
589.421	511
589.851	507.6
590.259	527.4
590.668	514.4
591.076	543.4
591.485	507
591.894	508.6
592.324	520.6
592.733	519.8
593.142	500
593.551	505.8
593.96	517.8
594.369	507
594.8	504.2
595.209	508.2
595.618	500.4
596.028	504.8
596.437	503.2
596.847	513.6
597.256	515
597.687	517.8
598.097	506.2
598.507	498.8
598.917	512
599.327	514.2
599.736	518
600.146	517.6
600.556	511.8
600.988	526
601.398	513
601.808	520.6
602.219	502.6
602.629	507.6
603.039	511
603.45	535.8
603.86	513.8
604.271	518.2
604.703	513.6
605.114	505.6
605.525	517.6
605.935	520.8
606.346	533
606.757	520.8
607.168	511.2
607.579	510.6
607.99	520.2
608.402	513.2
608.813	520.6
609.224	503.8
609.636	502.2
610.047	507
610.48	511
610.892	522.2
611.303	524.4
611.715	508.4
612.127	503.2
612.539	503
612.95	513.8
613.362	508
613.774	505.8
614.186	509.4
614.599	509.8
615.011	521.6
615.423	518.4
615.835	515
616.248	507.8
616.66	518.8
617.073	509.4
617.485	518.4
617.898	515.2
618.311	517.4
618.723	510.6
619.136	534.4
619.549	521.6
619.962	534.2
620.375	512.6
620.788	522.2
621.201	510.4
621.614	518.4
622.028	516.6
622.441	519.2
622.854	526.2
623.268	509.2
623.681	517.8
624.095	521
624.509	519.6
624.922	512.6
625.336	506
625.728	514
626.142	525.6
626.556	519.6
626.97	520
627.384	511.6
627.799	520.6
628.213	519.4
628.627	519.4
629.041	513.4
629.456	516
629.87	516.4
630.285	523.6
630.699	524.4
631.093	517.2
631.507	517.8
631.922	514.8
632.337	519.8
632.752	513.2
633.167	517.2
633.582	512
633.997	512
634.412	508.6
634.806	520.2
635.221	511
635.637	523.4
636.052	509.6
636.468	513
636.883	529.4
637.299	511.4
637.715	501.2
638.109	516
638.525	503
638.941	528
639.357	513.4
639.773	518.8
640.189	513.8
640.584	513.8
641	514.8
641.416	502.2
641.832	509.6
642.249	510.4
642.665	513
643.06	513.8
643.477	525.8
643.894	509.6
644.31	514
644.727	511
645.123	526.6
645.54	501.8
645.957	514.8
646.374	518.6
646.77	514.4
647.187	545.2
647.604	520.8
648.021	501.6
648.439	512.4
648.835	513.6
649.252	513
649.67	513.4
650.088	512.8
650.484	508.6
650.902	519.8
651.32	526
651.738	512
652.134	516.8
652.552	520.8
652.971	515.2
653.389	511.8
653.786	514.2
654.204	514.6
654.622	508.4
655.019	505
655.438	515.2
655.857	516
656.275	514.6
656.673	503.4
657.091	522.2
657.51	501.4
657.908	514.4
658.327	520.4
658.746	507.8
659.144	514.8
659.563	528.4
659.982	512.6
660.38	489
660.8	514
661.219	515.2
661.617	519.6
662.037	516
662.457	518.2
662.855	503
663.275	529.4
663.695	513.6
664.094	512
664.514	507.4
664.934	500
665.333	512.6
665.753	507.2
666.152	508.8
666.572	509
666.993	518.4
667.392	512.2
667.812	505.6
668.212	508.2
668.632	527
669.053	506.4
669.453	513.6
669.874	513.8
670.273	512.8
670.694	502.4
671.116	515.6
671.515	510.2
671.937	504.8
672.337	502.4
672.758	503.2
673.158	515.8
673.58	501.2
673.98	511.6
674.402	522
674.824	509.2
675.224	505.2
675.646	498
676.047	502.4
676.469	507.8
676.869	508.6
677.292	510.2
677.693	504.4
678.115	506.4
678.516	508.6
678.939	506.6
679.34	504
679.762	515.6
680.164	504.8
680.586	494
680.988	503.6
681.411	526.8
681.812	512
682.236	504.8
682.637	496.8
683.061	491.2
683.462	508
683.864	498
684.288	505.8
684.69	497.4
685.114	522
685.516	512.8
685.94	507
686.342	515.8
686.766	502.6
687.168	503.8
687.571	519.4
687.995	506.4
688.398	503.8
688.822	503
689.225	518
689.628	523.2
690.052	506
690.456	512.2
690.88	508.8
691.284	502.6
691.687	512.6
692.112	507
692.515	502.2
692.919	505.8
693.344	510.4
693.747	511.2
694.173	496
694.577	510.2
694.98	504.6
695.406	494.6
695.81	508.4
696.214	504.6
696.64	506.6
697.044	509.8
697.448	516.2
697.874	502.8
698.279	515.2
698.684	498
699.11	505.4
699.514	508
699.919	502
700.324	495.2
700.75	506
701.156	501.6
701.561	524
701.987	510.4
702.393	520.8
702.798	508.2
703.203	509.2
703.63	508.2
704.036	506.4
704.442	508.4
704.847	499.4
705.274	502.6
705.68	499.8
706.086	519.4
706.492	501.2
706.92	503.6
707.326	518
707.732	503.2
708.139	492.4
708.545	496.4
708.973	500.4
709.38	505
709.786	495.8
710.193	514.6
710.6	508.6
711.028	501.6
711.435	507.2
711.842	504.4
712.249	501
712.656	503.4
713.064	514.2
713.492	501.4
713.9	503
714.307	512.2
714.715	508.2
715.123	507.8
715.53	501.2
715.938	510.4
716.367	505
716.775	507.6
717.184	502.6
717.592	502.8
718	510.4
718.408	537.6
718.816	547.4
719.225	507.6
719.633	506
720.042	496.2
720.472	508
720.881	528.8
721.29	516.4
721.699	502
722.108	507.2
722.517	502.6
722.926	499
723.335	512.6
723.744	504
724.154	508.6
724.563	514
724.973	502.8
725.382	508.2
725.792	501.4
726.202	499.6
726.612	514.2
727.022	512.2
727.432	502.4
779.813	503
780.223	541.4
780.634	499.4
781.044	495.8
781.454	503.4
781.865	514.2
782.276	495
782.686	513.8
783.097	507.6
783.508	510.4
783.919	509.8
784.33	513
784.741	515.6
785.152	500
785.563	492.6
785.974	500.6
786.386	520.8
786.776	504.4
787.188	511.2
787.599	498.8
788.011	512.2
788.423	509
788.835	508.6
789.247	492.8
789.659	500.8
790.071	502
790.483	542.4
790.874	507.2
791.286	507.4
791.699	505.4
792.111	509.4
792.524	504.8
792.937	499.2
793.349	489
793.741	500.6
794.154	509.4
794.567	522.4
794.98	503.4
795.393	498.8
795.785	517.6
796.198	502.2
796.612	506.2
797.026	496
797.439	496.4
797.831	506.2
798.245	505.4
798.659	498
799.073	498.4
799.487	502.4
799.88	499.4
800.294	498
800.708	503.8
801.123	503.6
801.516	517.2
801.93	491.8
802.345	492.6
802.76	500.8
803.153	515
803.568	512.4
803.983	504.8
804.377	507.8
804.792	496.6
805.207	495.2
805.601	502.8
806.016	528.8
806.432	496.4
806.826	529.6
807.242	517.8
807.658	505
808.052	495
808.468	499.4
808.884	498.6
809.279	505
809.695	515
810.111	528.4
810.506	502
810.922	522
811.339	498.8
811.734	513.8
812.151	498.6
812.546	496.6
812.963	502.6
813.38	511
813.776	505.4
814.193	520.2
814.589	495
815.006	499.2
815.402	501
815.82	497.4
816.237	505.2
816.633	506.8
817.051	503.6
817.448	501.8
817.866	494.6
818.262	519.8
818.68	498.4
819.077	494.4
819.495	504.2
819.892	543.8
820.311	504.2
820.708	498.2
821.127	501.8
821.524	517
821.943	510.4
822.34	512
822.759	506.8
823.157	500.2
823.576	512.8
823.974	504.4
824.393	568.6
824.791	502.2
825.189	499.2
825.609	496
826.007	507.6
826.427	491
826.826	498
827.246	496.2
827.644	494
828.043	507.4
828.463	496.8
828.862	500.8
829.261	497.2
829.682	483.8
830.081	499.6
830.502	489
830.901	497.6
831.301	487
831.722	483.6
832.121	490.8
832.521	499.2
832.943	501
833.342	500.4
833.742	499
834.164	498.2
834.564	492.4
834.965	500.4
835.386	500.8
835.787	502
836.188	503.8
836.588	507.4
837.01	497.4
837.411	496.6
837.812	513
838.213	505.6
838.636	494.6
839.037	558
839.438	498.6
839.84	502.4
840.263	511.4
840.664	502
841.066	500.4
841.468	500.2
841.891	498
842.293	501.2
842.695	507.4
843.098	507.6
843.5	495.6
843.902	506.6
844.326	505
844.729	500.8
845.131	511.4
845.534	488.8
845.937	513.6
846.34	514
846.764	496.2
847.167	499.6
847.571	503.8
847.974	504
848.377	497.2
848.781	536.8
849.184	509.6
849.588	501.8
849.992	493.2
850.396	506.8
850.821	511.2
851.225	505.8
851.63	495.6
852.034	505.6
852.438	494
852.843	569
853.247	492.4
853.652	505.6
854.057	517.8
854.462	506.6
854.867	502.6
855.272	526
855.677	499.8
856.082	508.4
856.487	496
856.893	503.2
857.298	496.4
857.704	498.8
858.11	508
