#lambda/nm	C1
208.295	466.6
208.67	431.8
209.045	389.6
209.419	406.4
209.794	535.4
210.169	523.2
210.544	627.8
210.919	548.8
211.295	532.4
211.67	529.4
212.045	529.6
212.421	539.8
212.796	563.8
213.172	534.2
213.547	538
213.923	529.8
214.299	535.6
214.675	539.8
215.051	546
215.427	547.6
215.803	555.4
216.179	534.8
216.555	528
216.932	544.4
217.308	538.4
217.684	542.8
218.061	542
218.438	544.4
218.814	538.2
219.191	548
219.568	533.2
219.945	536.4
220.322	548.6
220.699	544.4
221.076	538.8
221.453	538.8
221.83	528.2
222.208	530.8
222.585	535.2
222.962	534.6
223.34	535.2
223.717	532.8
224.095	533.8
224.473	534.4
224.851	533.2
225.229	529.8
225.607	544.6
225.985	530.2
226.363	533.4
226.741	530.6
227.119	531.2
227.497	538.6
227.876	524.8
228.254	542.6
228.633	542
229.011	537.8
229.39	534.4
229.769	538.2
230.148	541
230.527	550.6
230.905	537
231.284	534.8
231.664	528.6
232.043	544.2
232.422	543.2
232.801	537.6
233.181	540.2
233.56	533.2
233.94	534.4
234.319	527.6
234.699	529
235.079	574.8
235.458	563.6
235.838	548.4
236.218	534.2
236.598	528.4
236.978	531.2
237.358	533.4
237.738	526.2
238.119	540.4
238.499	527.2
238.88	541.4
239.26	552
239.641	529
240.021	530.2
240.402	539
240.783	527.2
241.163	531.6
241.544	542
241.925	536.6
242.306	549.8
242.687	534.4
243.069	540.4
243.45	544.8
243.831	533
244.212	536.4
244.594	571.4
244.975	539.6
245.357	534.4
245.739	535.4
246.12	527.4
246.502	550
246.884	538.2
247.266	543.2
247.648	542.6
248.03	556
248.412	539
248.794	544.8
249.176	530.6
249.559	544
249.941	528.4
250.323	532.2
250.706	532.4
251.089	536
251.471	539.2
251.854	538.4
252.237	531.4
252.62	539.6
253.002	538.6
253.385	531.8
253.769	554.6
254.152	536.2
254.535	540.8
254.918	525.6
255.301	534.8
255.685	542.4
256.068	526
256.452	550
256.835	536.6
257.219	539.8
257.603	547.6
257.986	528
258.37	541
258.754	530.4
259.138	550.8
259.522	550.4
259.906	535.2
260.29	543
260.675	534.2
261.059	545.6
261.443	531.6
261.828	545
262.212	545.6
262.597	533.6
262.981	534
263.366	544.6
263.751	544.4
264.136	532.8
264.521	531.2
264.906	525.2
265.291	544.6
265.676	537.6
266.061	536.6
266.446	555.8
266.831	535.8
267.217	550.6
267.602	539
267.987	533
268.373	527.2
268.759	552
269.144	538.4
269.53	536
269.916	524.4
270.302	538.8
270.688	537
271.074	543.6
271.46	538.8
271.846	564.4
272.232	537.4
272.618	533.2
273.004	538.8
273.391	551.2
273.777	545.6
274.164	536.8
274.55	552.8
274.937	536.2
275.324	528.8
275.71	539
276.097	546.6
276.484	533
276.871	540
277.258	534
277.645	526
278.032	532.2
278.419	535
278.807	544.4
279.194	527.8
279.581	527.6
279.969	543
280.356	535.4
280.744	542.2
281.131	555.4
281.519	544.6
281.907	537.2
282.295	526
282.682	546.6
283.07	539.6
283.458	545.2
283.846	546
284.235	539.6
284.623	545.8
285.011	526.2
285.399	534.4
285.788	532.4
286.176	524.6
286.565	547.2
286.953	527.6
287.342	532
287.731	528.4
288.119	533.8
288.508	528.2
288.897	535
289.286	527.8
289.675	540.4
290.064	543.8
290.453	538.8
290.821	534.2
291.21	543.2
291.599	538.2
291.989	538.4
292.378	539.6
292.768	545.4
293.157	544.8
293.547	547.6
293.936	528.8
294.326	534.6
294.716	541.4
295.106	540.4
295.496	542.6
295.886	545.8
296.276	534.4
296.666	526.8
297.056	537
297.446	524.8
297.836	552.6
298.227	534.4
298.617	536.4
299.008	549.6
299.398	535.6
299.789	534.6
300.179	545.4
300.57	545.2
300.961	523.6
301.352	532.2
301.742	538.2
302.133	540.6
302.524	539.2
302.915	531.6
303.307	527.2
303.698	537.6
304.089	541.2
304.48	535.4
304.872	535.2
305.263	537.4
305.655	527.6
306.046	539
306.438	536.4
306.829	530.4
307.221	535.6
307.613	535.2
308.005	539.2
308.397	548
308.789	555.8
309.181	558.4
309.573	549.6
309.965	540.4
310.357	534.2
310.749	541.6
311.142	528.4
311.534	529.6
311.926	538.6
312.319	539.2
312.711	533.8
313.104	548.8
313.497	536.2
313.889	565
314.282	544
314.675	566.6
315.068	537.2
315.461	549.4
315.854	566.4
316.247	538.8
316.64	540.2
317.033	543.4
317.405	538.6
317.798	534.8
318.192	538.6
318.585	527.8
318.979	539.2
319.372	531.2
319.766	537.6
320.16	545.2
320.553	539.4
320.947	555.4
321.341	542
321.735	534.2
322.129	528.8
322.523	554.4
322.917	531.2
323.311	542.4
323.705	538.2
324.099	539.6
324.494	542.4
324.888	548.4
325.282	537.8
325.677	544.8
326.071	541
326.466	546.4
326.861	538
327.255	542.2
327.65	540.4
328.045	546.8
328.44	540
328.835	538.2
329.23	530.2
329.625	559.2
330.02	534.8
330.415	550.2
330.81	535
331.206	536.6
331.601	531
331.996	541.2
332.37	553.6
332.766	523.4
333.161	554.4
333.557	537
333.953	537.4
334.348	722
334.744	533
335.14	536
335.536	531.2
335.932	547.6
336.328	542.8
336.724	547
337.12	530.8
337.516	541.2
337.913	537.6
338.309	551.8
338.705	535.6
339.102	546.6
339.498	532.6
339.895	542.4
340.291	534.6
340.688	540.4
341.085	515.8
341.481	534.2
341.878	533.2
342.275	555.2
342.672	531.2
343.069	532.2
343.466	521.6
343.842	534.8
344.239	533.4
344.636	533.6
345.033	522.8
345.431	533.6
345.828	544.6
346.225	535.2
346.623	556.8
347.02	532.2
347.418	551.2
347.816	544.8
348.213	532.4
348.611	534.4
349.009	531
349.407	539.8
349.805	528.4
350.203	522.6
350.601	539
350.999	537
351.397	565
351.795	523
352.193	539.2
352.57	543.6
352.969	550.2
353.367	522.6
353.766	532.6
354.164	530.2
354.563	542.4
354.961	529.2
355.36	529.6
355.759	530.4
356.158	519.6
356.557	524
356.956	526.2
357.355	523.2
357.754	531.2
358.153	533.2
358.552	548.6
358.951	529.2
359.35	541.4
359.75	521.2
360.149	520
360.527	518.2
360.926	522.2
361.326	528.2
361.726	527.4
362.125	527.8
362.525	536
362.925	534
363.325	532.6
363.724	528.8
364.124	523.8
364.524	528.6
364.924	525.8
365.324	537.6
365.725	509.2
366.125	527.4
366.525	528.4
366.904	524.6
367.304	517
367.705	550.4
368.105	540.2
368.506	522
368.906	529.2
369.307	526.8
369.708	535.6
370.108	523.2
370.509	544.4
370.91	524.6
371.311	528.2
371.712	531.2
372.113	524.2
372.514	522.2
372.894	529.6
373.295	523.6
373.696	538.6
374.097	538.2
374.499	548.2
374.9	523.4
375.301	517.6
375.703	531.6
376.105	523
376.506	530.6
376.908	529.4
377.309	529.2
377.711	536
378.113	534.6
378.493	528
378.895	522.6
379.297	542.8
379.699	526.2
380.102	524.4
380.504	528.8
380.906	525
381.308	547.2
381.71	528
382.113	536.8
382.515	529.4
382.918	537.6
383.299	529.4
383.701	532.8
384.104	534.2
384.507	516.2
384.909	524.6
385.312	517.4
385.715	518.4
386.118	526.8
386.521	521.6
386.924	531.2
387.327	530.6
387.709	518.4
388.112	510.6
388.515	521.2
388.918	523.4
389.322	532.2
389.725	520.2
390.129	549.4
390.532	529
390.936	528.6
391.339	524.8
391.743	535.6
392.125	524.4
392.529	539
392.933	534.8
393.337	525.4
393.74	533.6
394.144	525.6
394.548	523.8
394.953	524.4
395.357	531
395.761	523
396.144	529
396.548	525
396.952	524.2
397.357	527
397.761	521.4
398.166	522.8
398.57	526.8
398.975	511.8
399.379	530.2
399.763	568
400.168	533
400.572	524.4
400.977	522
401.382	535.8
401.787	536.4
402.192	538
402.597	538.8
403.002	508.8
403.386	534.6
403.791	539.6
404.197	524
404.602	524
405.007	521.8
405.413	518.4
405.818	529
406.224	526.6
406.608	522.6
407.014	521.6
407.42	537
407.825	526
408.231	534.2
408.637	529.4
409.043	537.6
409.449	525.8
409.834	513.8
410.24	531.8
410.646	536.8
411.052	532.8
411.458	530.6
411.865	534.6
412.271	531
412.677	531
413.062	525.6
413.469	513.4
413.875	551.6
414.282	541.8
414.689	529.4
415.095	537.6
415.502	521.8
415.888	529
416.294	517.2
416.701	559.2
417.108	528.8
417.515	542
417.923	531.6
418.33	542.4
418.715	539
419.123	528.4
419.53	523.2
419.937	530.6
420.345	535.4
420.752	517
421.16	538.8
421.546	533.2
421.953	531.2
422.361	522.2
422.769	521.6
423.177	523.6
423.585	551.4
423.992	544.8
424.379	537.6
424.787	539
425.195	552.6
425.603	533
426.011	529.8
426.419	535.4
426.806	529.4
427.214	525.4
427.623	539.4
428.031	539.2
428.44	532
428.848	536.6
429.235	531.4
429.644	532.8
430.053	530.6
430.461	535.6
430.87	545.6
431.279	540.8
431.666	518.8
432.075	534.4
432.484	533.6
432.893	523.8
433.302	534.6
433.711	563.8
434.099	530.2
434.508	526.6
434.918	523
435.327	529
435.737	531.8
436.125	531.6
436.534	529.8
436.944	531
437.353	531.8
437.763	546.6
438.173	521
438.561	535.6
438.971	518
439.381	523.2
439.791	530.6
440.201	512.6
440.589	530.2
440.999	532.6
441.409	535.4
441.819	514.6
442.23	539.8
442.619	533.4
443.029	537.8
443.439	532.8
443.85	535.6
444.26	536.2
444.649	529.6
445.06	519.6
445.471	518.8
445.881	527.4
446.292	538.6
446.682	545.2
447.092	517.4
447.503	568.4
447.914	520.8
448.325	521.4
448.715	529
449.126	520.6
449.537	526.6
449.948	529.8
450.338	525.6
450.75	540
451.161	532
451.572	530.4
451.984	527.8
452.374	508
452.786	524.2
453.197	526.4
453.609	537.2
453.999	508
454.411	515
454.823	531.6
455.235	533.6
455.647	526.6
456.037	524.4
456.449	512.8
456.862	527.6
457.274	532.4
457.665	519.6
458.077	532
458.489	546.4
458.902	522.8
459.293	531.4
459.705	531
460.118	518
460.53	527
460.921	521.4
461.334	523.2
461.747	516.8
462.16	534
462.551	535.6
462.964	528.8
463.377	515.4
463.79	520.2
464.182	534.2
464.595	515.2
465.008	522.6
465.421	527.8
465.813	527
466.226	525.6
466.64	524
467.053	566.4
467.445	533
467.859	541.2
468.272	530.4
468.686	532.2
469.078	532.6
469.492	514.2
469.906	524
470.298	526
470.712	520
471.126	545.8
471.54	513
471.933	522.6
472.347	523
472.761	515.8
473.175	516.2
473.568	519.4
473.982	514.4
474.397	530.8
474.79	525.4
475.204	528.2
475.619	522
476.033	527.4
476.426	518.6
476.841	517.4
477.256	541.2
477.649	508.4
478.064	510.6
478.479	514.6
478.872	515.2
479.287	507.4
479.702	519.8
480.118	519
480.511	515
480.927	522.2
481.342	521.2
481.736	526
482.151	513.2
482.566	525.2
482.96	519.8
483.376	528.8
483.792	509
484.186	526.4
484.602	513
485.017	521.4
485.412	524
485.827	517.6
486.243	520.6
486.638	540.2
487.054	530.2
487.47	536
487.865	519.4
488.281	517.6
488.697	510.2
489.092	515.4
489.508	510.6
489.925	532.8
490.32	510.8
490.736	521.2
491.153	519
491.548	520.2
491.964	522.6
492.381	508.2
492.776	527.8
493.193	518.6
493.61	520.2
494.006	518
494.422	529.2
494.84	515.2
495.235	523.2
495.652	519.8
496.069	517.4
496.465	512
496.883	524.8
497.3	539
497.696	510.4
498.113	529.6
498.509	508.8
498.927	504.6
499.344	514.2
499.741	511.4
500.158	521.8
500.576	523.2
500.973	515.4
501.39	516.4
501.787	511.8
502.205	510
502.623	512.4
503.02	518.4
503.438	513
503.856	513
504.253	518
504.671	524
505.068	511.6
505.486	516.2
505.905	536.4
506.302	525
506.72	529.6
507.118	518.8
507.536	523.2
507.955	516.6
508.352	523
508.771	525.6
509.169	524
509.587	518.4
510.006	516.8
510.404	504.4
510.823	517
511.221	514.8
511.64	512.8
512.038	530.8
512.457	526.6
512.877	516
513.275	511.2
513.694	511
514.092	506.6
514.512	521.8
514.91	526.2
515.33	520
515.749	512
516.148	518.8
516.568	517.6
516.966	514.4
517.386	511.2
517.785	513.2
518.205	515.6
518.603	511.8
519.024	515.4
519.444	516
519.843	524.4
520.263	519
520.662	510.8
521.082	518.2
521.481	516.2
521.902	510.8
522.301	520.8
522.722	517.8
523.121	513.4
523.542	517.8
523.963	516.2
524.362	522
524.783	517.2
525.183	516.6
525.604	519
526.003	516
526.425	506.8
526.824	523.8
527.246	523.2
527.646	526.4
528.067	520.8
528.467	519.4
528.888	519.2
529.289	512.6
529.71	522.6
530.11	518
530.532	513.6
530.932	515
531.354	511.6
531.755	544.4
532.176	524.4
532.577	518.6
532.999	516.2
533.4	510.2
533.822	526.2
534.223	514.2
534.645	517.2
535.046	509.2
535.468	520.2
535.869	529.2
536.292	510.8
536.693	546.6
537.115	521.2
537.516	512.8
537.939	514.8
538.34	527
538.742	530.8
539.165	521.2
539.566	518.2
539.989	511.2
540.391	520.2
540.814	511
541.216	514.4
541.639	516.6
542.041	522.2
542.464	520.6
542.866	507
543.268	514.2
543.691	515
544.093	508.6
544.517	533
544.919	510.4
545.343	538.4
545.745	510.4
546.147	514.8
546.571	516
546.974	511
547.398	513.4
547.8	522.6
548.224	516.6
548.627	507.2
549.03	518
549.454	505.8
549.857	497.4
550.281	507
550.684	515.6
551.087	523.8
551.512	520.6
551.915	518.8
552.34	514.8
552.743	501.2
553.146	512.2
553.571	515.8
553.975	528.6
554.399	507.2
554.803	555
555.207	515.6
555.632	510.8
556.036	526
556.461	507.8
556.865	508.4
557.268	510
557.694	510.6
558.098	515.6
558.502	517.6
558.927	509.2
559.332	510.4
559.736	517.6
560.162	521.4
560.566	510.2
560.992	513.2
561.396	515.4
561.801	510.8
562.227	514.4
562.631	509.2
563.036	516.6
563.462	517.8
563.867	505
564.272	508.4
564.698	521
565.103	509.8
565.508	536
565.935	513.8
566.34	512
566.745	517
567.172	514.6
567.577	531.6
567.982	527.4
568.409	526.2
568.815	509.2
569.22	518
569.626	516.8
570.053	510.4
570.459	522.2
570.865	518
571.292	524.2
571.698	515.4
572.104	503.6
572.531	510.6
572.937	521.6
573.343	507.4
573.75	509.6
574.177	511.4
574.583	516
574.99	513.8
575.396	515.4
575.824	505.2
576.231	516.8
576.637	502.6
577.065	530.8
577.472	501.6
577.879	511.8
578.286	525.4
578.714	506.8
579.121	508.4
579.528	518.6
579.935	522.6
580.364	506.6
580.771	497
581.178	505
581.585	516.8
582.014	514.8
582.421	513
582.829	516.2
583.236	517.8
583.644	502.2
584.073	510.4
584.481	514.8
584.889	507.4
585.296	524.4
585.726	520.2
586.134	505.2
586.542	518.8
586.95	528.6
587.358	511
587.787	518.8
588.196	504.2
588.604	508.4
589.012	511.2
589.421	503
589.851	506.2
590.259	515.2
590.668	508.4
591.076	550.6
591.485	503.8
591.894	506.2
592.324	520.4
592.733	522.2
593.142	504.2
593.551	503
593.96	538.2
594.369	509.8
594.8	504
595.209	514
595.618	499
596.028	509.6
596.437	499
596.847	505.2
597.256	510.2
597.687	515
598.097	503.6
598.507	504.8
598.917	510.6
599.327	518.2
599.736	510.6
600.146	522.8
600.556	512
600.988	526
601.398	508.4
601.808	521.8
602.219	500.8
602.629	510
603.039	514.4
603.45	530
603.86	513.8
604.271	525.8
604.703	513.4
605.114	522
605.525	516.6
605.935	511
606.346	527.8
606.757	514.2
607.168	512.2
607.579	511.6
607.99	523.6
608.402	515.2
608.813	517.2
609.224	513.8
609.636	506.8
610.047	513
610.48	514.6
610.892	520.8
611.303	529.4
611.715	521.2
612.127	511.4
612.539	522
612.95	513.6
613.362	509.8
613.774	503.4
614.186	513.8
614.599	514.6
615.011	512.2
615.423	514.4
615.835	513.6
616.248	509.8
616.66	522.4
617.073	513.2
617.485	516.2
617.898	519.4
618.311	517.6
618.723	517.6
619.136	533
619.549	528
619.962	534.4
620.375	510.8
620.788	519.4
621.201	512.4
621.614	519
622.028	519
622.441	524.2
622.854	527.4
623.268	509.2
623.681	524.6
624.095	518.6
624.509	519.2
624.922	528.8
625.336	513.6
625.728	521.2
626.142	523
626.556	534.4
626.97	514.2
627.384	520.6
627.799	514.4
628.213	530.6
628.627	519.2
629.041	512.8
629.456	514
629.87	515.6
630.285	529.6
630.699	531.4
631.093	521.2
631.507	528.6
631.922	522.2
632.337	534.8
632.752	514
633.167	515.2
633.582	515.4
633.997	516.8
634.412	517.2
634.806	514.8
635.221	511.6
635.637	518.8
636.052	505.8
636.468	519.8
636.883	530.4
637.299	513.2
637.715	516
638.109	515.2
638.525	509.6
638.941	529
639.357	516.2
639.773	524.4
640.189	513.2
640.584	510.4
641	519.8
641.416	500.6
641.832	511.2
642.249	514.4
642.665	517.2
643.06	513.2
643.477	523.8
643.894	505.2
644.31	509.6
644.727	515.6
645.123	516
645.54	501
645.957	520
646.374	521
646.77	509
647.187	531.6
647.604	508.4
648.021	501.4
648.439	508.2
648.835	513.4
649.252	515.2
649.67	513.8
650.088	512.2
650.484	510
650.902	520
651.32	520.6
651.738	510.2
652.134	516.6
652.552	530
652.971	524.8
653.389	510.6
653.786	520.4
654.204	514.8
654.622	507
655.019	510.2
655.438	523.6
655.857	507.8
656.275	514.6
656.673	505.2
657.091	518.8
657.51	505.2
657.908	521.4
658.327	523
658.746	510.6
659.144	512.4
659.563	519.2
659.982	516
660.38	507.8
660.8	509.6
661.219	517.2
661.617	513.8
662.037	505.8
662.457	517.4
662.855	496.4
663.275	541.6
663.695	510.4
664.094	518.6
664.514	507.2
664.934	507
665.333	512.2
665.753	502.6
666.152	502.2
666.572	502.6
666.993	527.8
667.392	511
667.812	509.4
668.212	505
668.632	520.8
669.053	505.6
669.453	513.8
669.874	511.6
670.273	512.4
670.694	509
671.116	522.4
671.515	513.6
671.937	510.4
672.337	506.8
672.758	502.8
673.158	517.4
673.58	498.2
673.98	513.2
674.402	510
674.824	502
675.224	505.2
675.646	507.6
676.047	507.6
676.469	512
676.869	510.6
677.292	502
677.693	499.8
678.115	501.4
678.516	510.4
678.939	507
679.34	510.8
679.762	522
680.164	509.4
680.586	503.8
680.988	502.6
681.411	522.8
681.812	501.2
682.236	506.2
682.637	503.6
683.061	504.6
683.462	507
683.864	506.6
684.288	512.6
684.69	498.8
685.114	508
685.516	506.6
685.94	495.6
686.342	509.2
686.766	498.2
687.168	503
687.571	512.8
687.995	506.2
688.398	499.8
688.822	498.2
689.225	521.6
689.628	525.8
690.052	500.8
690.456	507.8
690.88	505.6
691.284	502.8
691.687	511
692.112	492.8
692.515	497.8
692.919	507
693.344	504.4
693.747	502.6
694.173	496.2
694.577	511.2
694.98	505.4
695.406	505.8
695.81	506.8
696.214	504.2
696.64	514.4
697.044	504.6
697.448	508.8
697.874	499.6
698.279	494.8
698.684	498.8
699.11	506.2
699.514	497.6
699.919	505.8
700.324	499.2
700.75	503.8
701.156	501.6
701.561	514
701.987	507.8
702.393	510.6
702.798	515.8
703.203	504
703.63	499
704.036	506.4
704.442	504.2
704.847	502.2
705.274	504.8
705.68	505.6
706.086	511.8
706.492	492.8
706.92	493.6
707.326	513.8
707.732	501.6
708.139	498.6
708.545	500.6
708.973	503.4
709.38	504.6
709.786	492.2
710.193	516.2
710.6	512.2
711.028	496.8
711.435	500.8
711.842	494.8
712.249	504.2
712.656	501.8
713.064	515.6
713.492	499
713.9	500.4
714.307	501.2
714.715	511.6
715.123	501.8
715.53	499.8
715.938	511.4
716.367	512
716.775	502.2
717.184	503.8
717.592	504.8
718	506.8
718.408	531.4
718.816	538.8
719.225	505.8
719.633	504.8
720.042	495.8
720.472	497.6
720.881	522.6
721.29	513
721.699	496.4
722.108	502.2
722.517	507.8
722.926	500.6
723.335	510.4
723.744	503.8
724.154	505
724.563	504.8
724.973	502
725.382	502.8
725.792	493.4
726.202	503.8
726.612	515.6
727.022	503.2
727.432	502.6
779.813	502.8
780.223	544
780.634	503
781.044	502.4
781.454	499.6
781.865	517
782.276	490.8
782.686	515.6
783.097	499.4
783.508	499.4
783.919	512.8
784.33	514.6
784.741	513.2
785.152	502.2
785.563	492
785.974	499.2
786.386	518.2
786.776	503.8
787.188	503.4
787.599	495
788.011	508
788.423	510.2
788.835	501.4
789.247	500.8
789.659	497.2
790.071	502.8
790.483	539.8
790.874	496.4
791.286	513
791.699	503.4
792.111	499.8
792.524	503.8
792.937	498.6
793.349	497
793.741	501.8
794.154	505.6
794.567	513.4
794.98	502
795.393	492.2
795.785	516.6
796.198	497.6
796.612	500.2
797.026	494.4
797.439	495.4
797.831	502.2
798.245	501
798.659	501.6
799.073	495.8
799.487	490.2
799.88	497.2
800.294	501.2
800.708	513.2
801.123	502.8
801.516	512.2
801.93	496.6
802.345	492.4
802.76	501.4
803.153	512.2
803.568	509.2
803.983	504.8
804.377	500.2
804.792	491.4
805.207	488
805.601	504.6
806.016	523.6
806.432	500.4
806.826	528.6
807.242	508.6
807.658	498.4
808.052	497.2
808.468	498.2
808.884	499.6
809.279	500
809.695	510.4
810.111	514.6
810.506	507.4
810.922	513.8
811.339	499.6
811.734	508.8
812.151	504
812.546	498.2
812.963	496.4
813.38	502.8
813.776	502.2
814.193	516.2
814.589	497.2
815.006	499.4
815.402	492.4
815.82	499.4
816.237	504.4
816.633	503.4
817.051	492
817.448	502
817.866	499.4
818.262	518
818.68	497.8
819.077	495.4
819.495	503.6
819.892	537
820.311	493.6
820.708	508
821.127	495.8
821.524	507.6
821.943	502
822.34	520
822.759	495.6
823.157	506
823.576	512.4
823.974	498
824.393	554
824.791	496.2
825.189	495.4
825.609	506
826.007	496.2
826.427	494.4
826.826	496.8
827.246	502.6
827.644	487
828.043	509.4
828.463	493.2
828.862	511.6
829.261	507.6
829.682	491.8
830.081	504
830.502	496
830.901	508.2
831.301	486.8
831.722	492
832.121	497
832.521	499.8
832.943	500
833.342	499.4
833.742	492.2
834.164	500.2
834.564	491.6
834.965	495.8
835.386	504
835.787	494.4
836.188	497.6
836.588	499.4
837.01	492.6
837.411	490.4
837.812	506.2
838.213	505.6
838.636	494
839.037	557.8
839.438	500.6
839.84	503.4
840.263	505.6
840.664	503.6
841.066	493
841.468	495.2
841.891	496.2
842.293	511.2
842.695	499.4
843.098	500.2
843.5	493.2
843.902	498.2
844.326	494.8
844.729	500.6
845.131	512.4
845.534	500.4
845.937	514.6
846.34	516.2
846.764	484.6
847.167	506.4
847.571	489.6
847.974	499.2
848.377	491.4
848.781	550
849.184	505.6
849.588	497
849.992	496
850.396	500
850.821	522.8
851.225	507.6
851.63	501.2
852.034	512.2
852.438	493.8
852.843	519.8
853.247	495.4
853.652	486.6
854.057	518
854.462	502.8
854.867	503.8
855.272	529.2
