#lambda/nm	C1
208.295	464.8
208.67	434.2
209.045	388.8
209.419	400
209.794	533.2
210.169	523.6
210.544	619.4
210.919	538
211.295	524.4
211.67	538.8
212.045	520.8
212.421	535.8
212.796	564
213.172	521.8
213.547	533
213.923	536
214.299	531.4
214.675	539.4
215.051	540.4
215.427	544
215.803	545.8
216.179	546.6
216.555	531.8
216.932	543
217.308	537
217.684	532
218.061	540.4
218.438	539.8
218.814	533
219.191	542.6
219.568	529.4
219.945	526.6
220.322	542.8
220.699	532
221.076	536.6
221.453	538.2
221.83	526.2
222.208	530.8
222.585	530.6
222.962	528
223.34	534.4
223.717	539.6
224.095	531
224.473	539.6
224.851	534.4
225.229	527
225.607	549.6
225.985	525.2
226.363	530.6
226.741	541.4
227.119	534.4
227.497	545.8
227.876	518
228.254	546.2
228.633	541.4
229.011	539.6
229.39	539.8
229.769	540
230.148	547.4
230.527	555.2
230.905	541.4
231.284	539.8
231.664	536
232.043	547.2
232.422	545
232.801	534.6
233.181	549
233.56	545.2
233.94	538.2
234.319	533.4
234.699	537.2
235.079	562.6
235.458	575.2
235.838	553.6
236.218	534.4
236.598	530.4
236.978	537
237.358	535.8
237.738	525
238.119	542.2
238.499	527.8
238.88	532.6
239.26	550.2
239.641	530.8
240.021	533.6
240.402	532.6
240.783	535
241.163	540.4
241.544	540.6
241.925	536
242.306	547.6
242.687	534.4
243.069	539.4
243.45	543.2
243.831	535.2
244.212	534
244.594	561
244.975	541.4
245.357	538.4
245.739	533.8
246.12	535
246.502	549
246.884	536.4
247.266	534.6
247.648	545.4
248.03	555.4
248.412	540.6
248.794	537.4
249.176	535.8
249.559	537.6
249.941	530.2
250.323	527.2
250.706	539.2
251.089	542
251.471	543.8
251.854	530.2
252.237	539.2
252.62	539
253.002	532.6
253.385	541.6
253.769	549.2
254.152	538.2
254.535	541.4
254.918	535.6
255.301	536
255.685	533
256.068	532.4
256.452	553.4
256.835	539
257.219	544.2
257.603	548.6
257.986	531.2
258.37	533.8
258.754	530.4
259.138	531
259.522	543.8
259.906	535.2
260.29	530.8
260.675	541
261.059	537.8
261.443	533.8
261.828	539.8
262.212	533.8
262.597	522.6
262.981	525.6
263.366	537
263.751	536.4
264.136	534.4
264.521	528.8
264.906	531.6
265.291	552.2
265.676	531.2
266.061	547.2
266.446	553
266.831	538.2
267.217	548.8
267.602	546
267.987	539.2
268.373	541.8
268.759	544.4
269.144	547
269.53	533.6
269.916	531
270.302	532.2
270.688	545.6
271.074	540.2
271.46	545.2
271.846	563.4
272.232	530
272.618	539
273.004	534.8
273.391	548.8
273.777	551.8
274.164	536.4
274.55	550
274.937	536.8
275.324	533
275.71	545.4
276.097	544.8
276.484	528
276.871	543.8
277.258	538.4
277.645	525.6
278.032	534.8
278.419	537.2
278.807	538.6
279.194	534.2
279.581	527
279.969	542.6
280.356	536.8
280.744	538.4
281.131	552
281.519	544
281.907	538.4
282.295	534
282.682	548.8
283.07	534
283.458	543.8
283.846	547
284.235	546.8
284.623	537.6
285.011	525.4
285.399	540
285.788	538
286.176	527.6
286.565	545
286.953	536
287.342	530.6
287.731	534.4
288.119	526.4
288.508	534
288.897	538
289.286	528.2
289.675	537
290.064	543.6
290.453	537.8
290.821	537
291.21	556
291.599	537
291.989	535.4
292.378	541
292.768	545.6
293.157	535.6
293.547	543.6
293.936	531.4
294.326	536.6
294.716	542.2
295.106	533.2
295.496	540.6
295.886	536
296.276	530.8
296.666	535
297.056	529
297.446	517.8
297.836	556
298.227	531.4
298.617	538.8
299.008	548.4
299.398	529.4
299.789	531.2
300.179	536.4
300.57	537.2
300.961	527.2
301.352	525
301.742	550.2
302.133	527.4
302.524	530.8
302.915	531.4
303.307	518.6
303.698	537
304.089	527.8
304.48	527
304.872	536.8
305.263	536.6
305.655	525.6
306.046	544.2
306.438	531.2
306.829	518.6
307.221	545.4
307.613	534
308.005	546.4
308.397	554.2
308.789	546.6
309.181	548.8
309.573	540.6
309.965	543
310.357	528.6
310.749	538.4
311.142	525.4
311.534	529.8
311.926	540
312.319	535.2
312.711	523.6
313.104	539.2
313.497	535.4
313.889	570.6
314.282	550.8
314.675	554.4
315.068	536.8
315.461	537.6
315.854	553.8
316.247	539.8
316.64	532.4
317.033	538.8
317.405	538.6
317.798	533.2
318.192	541.2
318.585	527.4
318.979	540.8
319.372	529
319.766	529.8
320.16	541.8
320.553	548
320.947	552.2
321.341	532.6
321.735	538.2
322.129	522.6
322.523	556
322.917	524
323.311	541.6
323.705	540.2
324.099	536
324.494	548.6
324.888	543.4
325.282	532
325.677	546.8
326.071	533.6
326.466	543.4
326.861	533.8
327.255	543.6
327.65	546.6
328.045	549.6
328.44	543.6
328.835	540.8
329.23	528.2
329.625	555.4
330.02	537.6
330.415	558.4
330.81	541.4
331.206	534.2
331.601	534
331.996	543.8
332.37	558.2
332.766	528.2
333.161	557.8
333.557	537.4
333.953	540.6
334.348	780.2
334.744	538.2
335.14	536
335.536	533.6
335.932	545.2
336.328	535
336.724	543.2
337.12	536
337.516	537.2
337.913	534.4
338.309	551.4
338.705	533.6
339.102	549.2
339.498	538.2
339.895	547.4
340.291	531.2
340.688	540.6
341.085	528.2
341.481	530
341.878	531.4
342.275	556.8
342.672	527.8
343.069	531.2
343.466	521.6
343.842	541.2
344.239	533.6
344.636	534.8
345.033	528
345.431	533.6
345.828	537
346.225	530.2
346.623	555.8
347.02	540
347.418	543.4
347.816	548.2
348.213	524.8
348.611	538.4
349.009	528.4
349.407	543.8
349.805	526.6
350.203	525.8
350.601	543.2
350.999	527
351.397	582.2
351.795	530.2
352.193	535
352.57	537.6
352.969	545.4
353.367	524.8
353.766	532.6
354.164	533.4
354.563	537.8
354.961	549.2
355.36	529.4
355.759	533.8
356.158	524.8
356.557	528.8
356.956	529
357.355	519.6
357.754	526.4
358.153	530.8
358.552	554.6
358.951	529
359.35	537.4
359.75	531.2
360.149	527
360.527	527.8
360.926	517.8
361.326	534.2
361.726	531.6
362.125	522.8
362.525	532
362.925	531.2
363.325	538.8
363.724	530.2
364.124	532.2
364.524	525.2
364.924	531
365.324	543
365.725	514
366.125	531.6
366.525	532.4
366.904	523
367.304	517.8
367.705	547.6
368.105	538.2
368.506	530.2
368.906	532.2
369.307	537.4
369.708	536.6
370.108	519.6
370.509	534.4
370.91	523.8
371.311	534
371.712	527.8
372.113	522.6
372.514	519.2
372.894	527.8
373.295	523.8
373.696	537.4
374.097	541.4
374.499	551
374.9	524
375.301	523.6
375.703	530.8
376.105	521.6
376.506	540
376.908	527.6
377.309	529
377.711	531.4
378.113	518.6
378.493	531.4
378.895	530
379.297	542.4
379.699	521.8
380.102	529.2
380.504	526.2
380.906	524.6
381.308	551.4
381.71	525
382.113	540.6
382.515	520.2
382.918	535.4
383.299	533.4
383.701	533.4
384.104	526
384.507	506.8
384.909	520.6
385.312	514.2
385.715	523.8
386.118	532
386.521	522.4
386.924	535
387.327	526.2
387.709	516.2
388.112	515.2
388.515	521.2
388.918	529
389.322	528.8
389.725	526.6
390.129	546.6
390.532	533
390.936	523.6
391.339	516.2
391.743	528.8
392.125	525.8
392.529	537.2
392.933	537.2
393.337	522.4
393.74	532
394.144	526.4
394.548	527.8
394.953	523
395.357	538.8
395.761	520.4
396.144	524.8
396.548	521.4
396.952	529
397.357	526.4
397.761	526.2
398.166	516.2
398.57	525.2
398.975	514.6
399.379	524.6
399.763	562.8
400.168	523.4
400.572	521
400.977	517.6
401.382	534.2
401.787	532.4
402.192	543
402.597	529.2
403.002	510.4
403.386	528.4
403.791	540
404.197	519.8
404.602	518.4
405.007	526.6
405.413	526.4
405.818	526.4
406.224	512
406.608	519.8
407.014	513.4
407.42	536.4
407.825	520.8
408.231	541
408.637	532
409.043	528.8
409.449	520.6
409.834	517.8
410.24	515.8
410.646	532.6
411.052	533.6
411.458	530
411.865	535.8
412.271	533.2
412.677	528
413.062	533.4
413.469	520.2
413.875	549.2
414.282	549.8
414.689	526.6
415.095	537
415.502	523
415.888	528.8
416.294	511
416.701	560.2
417.108	521.2
417.515	533.4
417.923	518.2
418.33	547.6
418.715	531.4
419.123	523.8
419.53	526.2
419.937	534.4
420.345	532.4
420.752	527
421.16	537.2
421.546	519.4
421.953	533.8
422.361	522.6
422.769	532
423.177	528.4
423.585	552.4
423.992	549.8
424.379	534
424.787	532.2
425.195	548
425.603	532.6
426.011	533.8
426.419	545.4
426.806	524.8
427.214	532.8
427.623	533.6
428.031	542.2
428.44	532
428.848	533
429.235	543
429.644	530
430.053	526.4
430.461	541.2
430.87	544.2
431.279	538
431.666	534.2
432.075	531.8
432.484	535.8
432.893	527.6
433.302	530.4
433.711	559
434.099	531.6
434.508	526
434.918	523.6
435.327	535.8
435.737	532.8
436.125	527.8
436.534	528
436.944	535.6
437.353	534
437.763	551.8
438.173	515.8
438.561	541.2
438.971	512.2
439.381	529.8
439.791	524
440.201	517.6
440.589	529.4
440.999	543.6
441.409	527.6
441.819	518.8
442.23	533.6
442.619	536.2
443.029	533.6
443.439	531.6
443.85	533.4
444.26	536.2
444.649	532.4
445.06	529.4
445.471	521.4
445.881	526.6
446.292	538.4
446.682	537.4
447.092	519.2
447.503	573.4
447.914	529
448.325	524.8
448.715	526.2
449.126	518.6
449.537	525.2
449.948	526
450.338	524.8
450.75	531.6
451.161	517.6
451.572	534.6
451.984	519
452.374	509.2
452.786	522.4
453.197	529.2
453.609	535.2
453.999	513
454.411	516.2
454.823	533.4
455.235	529.8
455.647	525.2
456.037	532.6
456.449	516.2
456.862	526.6
457.274	529.8
457.665	516.4
458.077	529.8
458.489	545.8
458.902	528.4
459.293	526.6
459.705	520.6
460.118	525.6
460.53	529.2
460.921	526.8
461.334	527.8
461.747	526.2
462.16	531
462.551	533.4
462.964	533
463.377	513.6
463.79	527.6
464.182	528.8
464.595	519.4
465.008	524.8
465.421	526.8
465.813	526
466.226	527.4
466.64	512.6
467.053	556.8
467.445	534.8
467.859	540.4
468.272	527.2
468.686	535.6
469.078	517.2
469.492	511.6
469.906	531.6
470.298	526.4
470.712	509.6
471.126	544.4
471.54	513.4
471.933	523.8
472.347	520.6
472.761	511.8
473.175	509
473.568	521.2
473.982	511.2
474.397	518.6
474.79	520
475.204	529.2
475.619	523.2
476.033	520.8
476.426	519.2
476.841	519.8
477.256	534.6
477.649	515.6
478.064	508.2
478.479	516
478.872	515.8
479.287	511
479.702	511.6
480.118	519.2
480.511	518.6
480.927	519.2
481.342	518.2
481.736	517.2
482.151	511.8
482.566	527
482.96	512.2
483.376	527.6
483.792	512.6
484.186	516.6
484.602	523.4
485.017	520.8
485.412	522
485.827	529.8
486.243	527
486.638	537
487.054	527
487.47	525.8
487.865	513
488.281	513
488.697	509.2
489.092	515.2
489.508	507.2
489.925	527.6
490.32	510.8
490.736	523.6
491.153	515.2
491.548	517.2
491.964	523.2
492.381	500.4
492.776	524.2
493.193	517
493.61	521.4
494.006	521.6
494.422	521
494.84	505.6
495.235	522.2
495.652	515.8
496.069	506.8
496.465	502.6
496.883	507
497.3	542
497.696	503.6
498.113	521.6
498.509	508.4
498.927	510.2
499.344	511.2
499.741	507.8
500.158	520.8
500.576	519.6
500.973	516.6
501.39	513
501.787	504.6
502.205	512.4
502.623	506.8
503.02	498.6
503.438	512.8
503.856	508.6
504.253	519.4
504.671	513.8
505.068	507
505.486	509.4
505.905	526
506.302	523.8
506.72	518.4
507.118	511.4
507.536	511.6
507.955	519
508.352	520.4
508.771	522.2
509.169	522.8
509.587	502.2
510.006	517.8
510.404	506.8
510.823	509.8
511.221	514
511.64	515.6
512.038	522.6
512.457	518.8
512.877	512.6
513.275	510.4
513.694	515.6
514.092	508.8
514.512	515.6
514.91	519.8
515.33	516.6
515.749	516.4
516.148	521.8
516.568	519.2
516.966	507.2
517.386	515.6
517.785	517.2
518.205	512
518.603	507.6
519.024	506.4
519.444	519.2
519.843	524.4
520.263	519.4
520.662	520.4
521.082	512.2
521.481	517.6
521.902	517.6
522.301	510.6
522.722	517.8
523.121	521.4
523.542	509.8
523.963	512.4
524.362	523.6
524.783	520
525.183	514.6
525.604	519.2
526.003	514.2
526.425	508.4
526.824	525
527.246	526
527.646	520.4
528.067	516.6
528.467	511
528.888	520.4
529.289	513.2
529.71	515.6
530.11	510.8
530.532	518.2
530.932	504.6
531.354	513.8
531.755	538.2
532.176	514
532.577	515
532.999	514.8
533.4	510.4
533.822	521
534.223	518
534.645	512.4
535.046	515.8
535.468	520
535.869	530.2
536.292	513.6
536.693	547.2
537.115	517.6
537.516	518.8
537.939	510.2
538.34	533.6
538.742	530.6
539.165	512.6
539.566	512
539.989	512.4
540.391	517.4
540.814	510.8
541.216	516.4
541.639	518.6
542.041	519.8
542.464	512.8
542.866	509.6
543.268	509.8
543.691	515.6
544.093	517.2
544.517	527.2
544.919	511.4
545.343	525.2
545.745	513
546.147	518.6
546.571	511.2
546.974	507.6
547.398	510.8
547.8	531.4
548.224	518.8
548.627	508.8
549.03	519.4
549.454	515.4
549.857	505
550.281	513
550.684	509.8
551.087	519.6
551.512	520
551.915	525.6
552.34	520.8
552.743	511.6
553.146	515.2
553.571	513.6
553.975	524.4
554.399	515.2
554.803	543.4
555.207	507.4
555.632	522.2
556.036	516.6
556.461	508.8
556.865	515.8
557.268	507.6
557.694	507.2
558.098	526
558.502	523.8
558.927	522.4
559.332	520.2
559.736	516
560.162	519.2
560.566	520.4
560.992	514.8
561.396	519
561.801	517.4
562.227	526
562.631	514
563.036	513.2
563.462	526
563.867	507
564.272	502.2
564.698	518.4
565.103	503.4
565.508	535.2
565.935	519.6
566.34	508.8
566.745	514.6
567.172	513.4
567.577	530.2
567.982	525.6
568.409	514.6
568.815	505.4
569.22	508.4
569.626	513.8
570.053	498
570.459	520.6
570.865	519.2
571.292	524.8
571.698	516.8
572.104	500.6
572.531	517.4
572.937	514.8
573.343	518.2
573.75	514
574.177	512
574.583	524
574.99	511
575.396	519
575.824	516
576.231	523.4
576.637	509.4
577.065	540.4
577.472	508
577.879	516.2
578.286	526.8
578.714	506.4
579.121	507
579.528	521.4
579.935	520.8
580.364	509.4
580.771	508.2
581.178	507.6
581.585	511.6
582.014	512.2
582.421	501.4
582.829	505.6
583.236	526.6
583.644	513.4
584.073	508.8
584.481	509.8
584.889	503.4
585.296	519.6
585.726	514.6
586.134	502.2
586.542	505.4
586.95	516.6
587.358	504.6
587.787	518.8
588.196	497.4
588.604	508
589.012	510.4
589.421	501.6
589.851	498.6
590.259	506
590.668	512.6
591.076	547.2
591.485	502.6
591.894	507.2
592.324	515.2
592.733	513.2
593.142	502.8
593.551	508
593.96	537.4
594.369	496
594.8	492.6
595.209	504.8
595.618	487
596.028	504.4
596.437	497.4
596.847	503.2
597.256	514.6
597.687	515.2
598.097	514.4
598.507	498.8
598.917	512
599.327	510
599.736	506.6
600.146	515.8
600.556	513.4
600.988	513.4
601.398	503.8
601.808	515.4
602.219	497.6
602.629	502
603.039	513.6
603.45	531.2
603.86	514
604.271	513
604.703	515.4
605.114	509.8
605.525	508.2
605.935	517.6
606.346	530.8
606.757	514.2
607.168	518.4
607.579	509.2
607.99	523.2
608.402	514
608.813	510.2
609.224	510.2
609.636	502.6
610.047	505.4
610.48	511
610.892	512.4
611.303	512
611.715	504
612.127	505.8
612.539	510
612.95	510.6
613.362	498.6
613.774	507.4
614.186	505.8
614.599	500
615.011	520.6
615.423	508.8
615.835	507
616.248	510.6
616.66	512
617.073	504.6
617.485	503
617.898	511.2
618.311	515.4
618.723	511
619.136	529.4
619.549	524.4
619.962	530.4
620.375	504.8
620.788	509.2
621.201	506.8
621.614	516.8
622.028	510.4
622.441	513.2
622.854	518.8
623.268	513.8
623.681	522.8
624.095	520
624.509	524
624.922	512.6
625.336	508.2
625.728	509.6
626.142	523.4
626.556	530.6
626.97	513.4
627.384	514
627.799	509.6
628.213	529.2
628.627	510.8
629.041	521.4
629.456	508.6
629.87	509.6
630.285	514.2
630.699	521.2
631.093	513
631.507	530.2
631.922	516.8
632.337	521
632.752	506.8
633.167	508.6
633.582	508.4
633.997	510
634.412	501.8
634.806	509.4
635.221	496.8
635.637	525
636.052	499.2
636.468	518.2
636.883	527.4
637.299	504.6
637.715	501.8
638.109	510.4
638.525	504.4
638.941	519
639.357	513.4
639.773	516.4
640.189	507
640.584	512
641	505.4
641.416	503.8
641.832	508.6
642.249	505.2
642.665	502.8
643.06	512.6
643.477	519.4
643.894	499.6
644.31	506.2
644.727	503.4
645.123	510.4
645.54	506
645.957	519
646.374	522.4
646.77	510.2
647.187	531.8
647.604	518.4
648.021	502.8
648.439	504.8
648.835	513.6
649.252	518.8
649.67	511.6
650.088	511
650.484	519.2
650.902	519
651.32	513.8
651.738	506
652.134	508.8
652.552	525.4
652.971	514.6
653.389	512.4
653.786	523
654.204	509.8
654.622	499
655.019	501.8
655.438	513.2
655.857	508.2
656.275	511.2
656.673	509.4
657.091	511.4
657.51	506.4
657.908	513.4
658.327	518.4
658.746	498.6
659.144	515.8
659.563	518.6
659.982	504.8
660.38	500.6
660.8	511.8
661.219	518.2
661.617	513.6
662.037	509.6
662.457	512.8
662.855	495.8
663.275	530.4
663.695	508.6
664.094	507.2
664.514	513.8
664.934	501.4
665.333	514
665.753	504.2
666.152	504
666.572	498
666.993	519.6
667.392	504
667.812	504.4
668.212	498.2
668.632	511.6
669.053	500.8
669.453	509.2
669.874	507.8
670.273	508
670.694	497.8
671.116	518.4
671.515	515
671.937	503
672.337	501.4
672.758	502.8
673.158	518.4
673.58	500.2
673.98	508.4
674.402	521
674.824	505
675.224	500.6
675.646	497.8
676.047	501.8
676.469	503
676.869	510.4
677.292	510.6
677.693	504.2
678.115	500.2
678.516	518.6
678.939	506.4
679.34	510
679.762	519.6
680.164	507.8
680.586	498
680.988	506.6
681.411	522.8
681.812	502.8
682.236	501.6
682.637	491.8
683.061	494.8
683.462	498.6
683.864	499.8
684.288	513.6
684.69	493.2
685.114	515.8
685.516	510.8
685.94	501.6
686.342	509.4
686.766	497.6
687.168	498
687.571	511.8
687.995	506.2
688.398	503.4
688.822	507.6
689.225	519.4
689.628	510.8
690.052	503.8
690.456	507.8
690.88	501.8
691.284	499.6
691.687	502.8
692.112	493.8
692.515	494.2
692.919	502.4
693.344	502.4
693.747	500
694.173	492.6
694.577	496
694.98	500.2
695.406	497.2
695.81	498.6
696.214	498.4
696.64	500
697.044	500.8
697.448	509.8
697.874	493.8
698.279	498.2
698.684	492.8
699.11	492.4
699.514	498.8
699.919	498.4
700.324	488
700.75	503.2
701.156	503.4
701.561	512.8
701.987	507
702.393	517
702.798	519.2
703.203	507.2
703.63	506.4
704.036	502.6
704.442	501
704.847	499.6
705.274	498.2
705.68	505.2
706.086	512
706.492	493.8
706.92	500.4
707.326	518.2
707.732	500.6
708.139	498
708.545	492
708.973	494.6
709.38	503.4
709.786	498.6
710.193	513.4
710.6	498.8
711.028	499.2
711.435	504.6
711.842	502.4
712.249	497.8
712.656	499.4
713.064	523.2
713.492	499
713.9	491.2
714.307	503
714.715	504.2
715.123	506
715.53	500.6
715.938	513.4
716.367	501.6
716.775	504.6
717.184	504.4
717.592	502
718	514.2
718.408	525.8
718.816	535.8
719.225	504.4
719.633	505.8
720.042	492.6
720.472	504.8
720.881	523.2
721.29	505.4
721.699	499.8
722.108	509.2
722.517	500.2
722.926	499.2
723.335	509.6
723.744	500.2
724.154	503.8
724.563	495.6
724.973	498.4
725.382	515.8
725.792	506.6
726.202	493.8
726.612	514.6
727.022	498.2
727.432	502.8
779.813	496.2
780.223	534.8
780.634	505
781.044	500
781.454	503.4
781.865	513.4
782.276	503.4
782.686	508.2
783.097	505.2
783.508	504.8
783.919	505.8
784.33	510
784.741	513.8
785.152	497.2
785.563	497
785.974	497.6
786.386	508.6
786.776	510.2
787.188	501
787.599	501.2
788.011	509.8
788.423	505.8
788.835	504.8
789.247	493.6
789.659	500.2
790.071	509.2
790.483	536.6
790.874	500.2
791.286	502.6
791.699	495.6
792.111	500.8
792.524	503.6
792.937	498.8
793.349	499.8
793.741	498.2
794.154	500.2
794.567	516.6
794.98	502.2
795.393	497
795.785	512.2
796.198	501.6
796.612	508.8
797.026	505.6
797.439	497.6
797.831	503.2
798.245	497.8
798.659	500.2
799.073	503
799.487	496.2
799.88	498.2
800.294	503.2
800.708	504
801.123	500.8
801.516	520.8
801.93	491.6
802.345	487.8
802.76	507.6
803.153	506.4
803.568	517
803.983	503.8
804.377	499.8
804.792	490.2
805.207	495.4
805.601	492
806.016	523.6
806.432	497.6
806.826	520.4
807.242	515.8
807.658	505.6
808.052	489.6
808.468	501.8
808.884	490.8
809.279	495.6
809.695	515.2
810.111	525.4
810.506	505.8
810.922	514.6
811.339	501.8
811.734	503
812.151	497.6
812.546	504.8
812.963	488.4
813.38	502
813.776	498.2
814.193	512.2
814.589	494
815.006	497
815.402	491.4
815.82	500
816.237	503.6
816.633	500.2
817.051	497
817.448	501.8
817.866	491.4
818.262	514
818.68	500.4
819.077	499.8
819.495	501.2
819.892	533.2
820.311	499
820.708	497.8
821.127	497.4
821.524	510.6
821.943	506
822.34	513.6
822.759	498.8
823.157	501.4
823.576	505.6
823.974	506.6
824.393	589
824.791	500
825.189	492.8
825.609	500
826.007	500
826.427	495.8
826.826	502.2
827.246	500.2
827.644	486.2
828.043	505.4
828.463	492.8
828.862	502.8
829.261	500.8
829.682	489.8
830.081	505.6
830.502	494.8
830.901	507.2
831.301	496.2
831.722	483.6
832.121	501
832.521	489.6
832.943	493.2
833.342	501.6
833.742	488.8
834.164	496
834.564	491.6
834.965	501.4
835.386	493.2
835.787	498.2
836.188	495.4
836.588	500.8
837.01	499.4
837.411	491.8
837.812	495.2
838.213	501.6
838.636	483.2
839.037	548.2
839.438	493.6
839.84	502.2
840.263	499.6
840.664	495.6
841.066	495
841.468	494.4
841.891	496.8
842.293	505.2
842.695	501
843.098	501
843.5	498.4
843.902	490.6
844.326	498.6
844.729	500.2
845.131	515.2
845.534	498.4
845.937	505.4
846.34	508.4
846.764	493
847.167	501.4
847.571	479
847.974	494.8
848.377	497.6
848.781	538
849.184	507.8
849.588	497.2
849.992	491.4
850.396	497.4
850.821	516.2
851.225	499.6
851.63	493
852.034	513.4
852.438	495.8
852.843	563.6
853.247	494.4
853.652	495.8
854.057	514.8
854.462	496.2
854.867	495.6
855.272	531.6
855.677	504.4
856.082	488.8
