#lambda/nm	C1
208.295	467.4
208.67	432.4
209.045	394.6
209.419	401.2
209.794	543.6
210.169	527.4
210.544	623.6
210.919	543.6
211.295	528.2
211.67	539.2
212.045	530.2
212.421	539.8
212.796	560.2
213.172	521.2
213.547	538.2
213.923	538.6
214.299	539.2
214.675	543.4
215.051	539.4
215.427	541.2
215.803	554.8
216.179	542.2
216.555	537.4
216.932	541.8
217.308	544
217.684	537.8
218.061	538.6
218.438	544
218.814	534.4
219.191	547.4
219.568	530.2
219.945	538.2
220.322	543.8
220.699	540
221.076	540.6
221.453	542
221.83	532
222.208	530.8
222.585	526.6
222.962	539.6
223.34	542
223.717	537.2
224.095	536.6
224.473	545.8
224.851	534.8
225.229	522.8
225.607	551.2
225.985	532.4
226.363	537.4
226.741	532.6
227.119	536
227.497	545
227.876	529.6
228.254	549.6
228.633	545.4
229.011	540.2
229.39	544.4
229.769	535.8
230.148	543.8
230.527	557.8
230.905	531.6
231.284	542.2
231.664	532.2
232.043	544.8
232.422	546.4
232.801	535.8
233.181	539
233.56	533
233.94	536
234.319	526.2
234.699	528.8
235.079	567.4
235.458	562.6
235.838	542.4
236.218	531.4
236.598	521
236.978	527.8
237.358	531
237.738	533.6
238.119	533.6
238.499	525.2
238.88	534
239.26	552.4
239.641	527
240.021	530.2
240.402	532.4
240.783	535.4
241.163	534.4
241.544	544.8
241.925	536.6
242.306	544.8
242.687	529.8
243.069	533.8
243.45	547.2
243.831	533
244.212	538.6
244.594	558.4
244.975	543
245.357	536
245.739	529
246.12	545.2
246.502	545.8
246.884	534.8
247.266	528.8
247.648	543
248.03	550
248.412	540.6
248.794	538.2
249.176	533.6
249.559	545.8
249.941	531.8
250.323	534.4
250.706	536.2
251.089	541
251.471	544
251.854	539.4
252.237	539.6
252.62	543.4
253.002	530.8
253.385	544.8
253.769	548.8
254.152	533.6
254.535	543.6
254.918	531.8
255.301	537.4
255.685	536.2
256.068	533.2
256.452	553.8
256.835	546.2
257.219	544.8
257.603	545.4
257.986	533.6
258.37	543.8
258.754	525.6
259.138	543.2
259.522	544
259.906	528.6
260.29	530
260.675	532.2
261.059	538.4
261.443	528
261.828	543.2
262.212	542.2
262.597	527.4
262.981	532.6
263.366	540.6
263.751	534
264.136	531.4
264.521	534.4
264.906	533.2
265.291	549.4
265.676	539.2
266.061	535.4
266.446	546.2
266.831	537.2
267.217	551.6
267.602	543.6
267.987	539.6
268.373	536.4
268.759	540
269.144	548.4
269.53	538.4
269.916	536.8
270.302	536.4
270.688	535.6
271.074	542
271.46	550.8
271.846	567
272.232	535.2
272.618	531.8
273.004	532.8
273.391	541.4
273.777	543.8
274.164	535.6
274.55	542.2
274.937	531.4
275.324	523.4
275.71	536.4
276.097	541.4
276.484	525.8
276.871	536.6
277.258	537.2
277.645	523
278.032	531.2
278.419	539.4
278.807	541.2
279.194	532.6
279.581	527.4
279.969	536.2
280.356	531
280.744	539
281.131	554.2
281.519	547
281.907	533.2
282.295	529
282.682	554
283.07	538.2
283.458	538.2
283.846	546.8
284.235	546
284.623	534.6
285.011	531.4
285.399	532.6
285.788	530.8
286.176	525.2
286.565	541.8
286.953	531.2
287.342	528
287.731	525.6
288.119	527.8
288.508	529
288.897	529
289.286	524.4
289.675	536
290.064	540
290.453	532.8
290.821	538.6
291.21	549.4
291.599	522
291.989	538.4
292.378	546
292.768	548
293.157	537.2
293.547	545
293.936	533
294.326	532
294.716	536.2
295.106	534.4
295.496	544.4
295.886	539.4
296.276	531.2
296.666	534.6
297.056	529.6
297.446	532.6
297.836	544.6
298.227	533
298.617	539.2
299.008	546.6
299.398	531.4
299.789	537.2
300.179	542
300.57	551
300.961	523.4
301.352	531.6
301.742	542.2
302.133	532.8
302.524	530.2
302.915	532.8
303.307	523.8
303.698	539
304.089	540
304.48	535.4
304.872	537.8
305.263	535.6
305.655	527.8
306.046	538.6
306.438	540
306.829	533
307.221	546.8
307.613	538.6
308.005	543.6
308.397	555.4
308.789	553
309.181	552
309.573	558
309.965	542
310.357	540.4
310.749	545.8
311.142	529
311.534	536
311.926	541.2
312.319	529.6
312.711	531.2
313.104	550.8
313.497	530.8
313.889	565.2
314.282	551.4
314.675	551.8
315.068	539.6
315.461	544.4
315.854	565
316.247	546.8
316.64	537.4
317.033	532.2
317.405	543
317.798	535.2
318.192	537.6
318.585	531.2
318.979	545.8
319.372	529.6
319.766	536.8
320.16	549.4
320.553	550
320.947	549.8
321.341	537.8
321.735	538.4
322.129	533
322.523	554.4
322.917	526.8
323.311	546.8
323.705	532.2
324.099	540
324.494	559.6
324.888	538.2
325.282	538.4
325.677	548.2
326.071	542.2
326.466	556.4
326.861	538.4
327.255	540.6
327.65	554.2
328.045	551.2
328.44	533.6
328.835	530.8
329.23	530.6
329.625	562
330.02	535.8
330.415	548.2
330.81	537.2
331.206	542.2
331.601	541.6
331.996	541
332.37	562
332.766	525.4
333.161	561.4
333.557	526
333.953	535.8
334.348	825.4
334.744	535.6
335.14	529.6
335.536	537
335.932	545.8
336.328	534.4
336.724	543.4
337.12	531.8
337.516	534.8
337.913	537.2
338.309	539.6
338.705	542.8
339.102	541.6
339.498	529.6
339.895	549.2
340.291	538.6
340.688	541.8
341.085	533.2
341.481	530.8
341.878	527
342.275	549
342.672	531.8
343.069	533
343.466	519.8
343.842	541.2
344.239	529.6
344.636	533.8
345.033	530
345.431	523.8
345.828	532
346.225	531.6
346.623	565.4
347.02	535.4
347.418	549.2
347.816	550.4
348.213	535.2
348.611	542
349.009	533
349.407	548.6
349.805	524.6
350.203	526.8
350.601	539.6
350.999	528.2
351.397	585.4
351.795	529.6
352.193	542.6
352.57	532.4
352.969	550.2
353.367	526.4
353.766	528
354.164	540.4
354.563	541
354.961	538
355.36	527
355.759	538.2
356.158	527.6
356.557	526.4
356.956	529.4
357.355	521.4
357.754	538.4
358.153	537
358.552	545.8
358.951	525.2
359.35	545.4
359.75	524
360.149	526.4
360.527	513.8
360.926	526.8
361.326	538.6
361.726	530.6
362.125	523.8
362.525	538
362.925	537.6
363.325	531.4
363.724	541
364.124	526.6
364.524	528.8
364.924	530
365.324	533.6
365.725	515.6
366.125	545.4
366.525	530.2
366.904	523.4
367.304	518.4
367.705	539.8
368.105	537.4
368.506	527.2
368.906	527.8
369.307	537
369.708	532.2
370.108	509.4
370.509	532.6
370.91	524.8
371.311	518.6
371.712	523
372.113	523.4
372.514	520.2
372.894	523.4
373.295	526.2
373.696	532
374.097	536.6
374.499	550.8
374.9	531.2
375.301	520.2
375.703	533.2
376.105	523.2
376.506	534.2
376.908	527.2
377.309	537.4
377.711	524.6
378.113	525.8
378.493	535.2
378.895	522.6
379.297	543.6
379.699	525.2
380.102	529
380.504	528
380.906	518.4
381.308	548.4
381.71	525.6
382.113	538.6
382.515	527
382.918	531.6
383.299	527.2
383.701	534.6
384.104	529.4
384.507	510.6
384.909	527.8
385.312	521.6
385.715	525.2
386.118	523.6
386.521	515.4
386.924	528.2
387.327	522.6
387.709	518.6
388.112	511.6
388.515	526.8
388.918	522.4
389.322	527.4
389.725	520.2
390.129	545.6
390.532	528.2
390.936	525.8
391.339	525.4
391.743	533.2
392.125	526.6
392.529	533.2
392.933	541.6
393.337	528
393.74	532.6
394.144	529.8
394.548	525.2
394.953	525.6
395.357	531.2
395.761	525
396.144	526.6
396.548	526.6
396.952	528.6
397.357	528.4
397.761	525.2
398.166	522.6
398.57	523.2
398.975	518.2
399.379	532
399.763	564.4
400.168	527.2
400.572	522
400.977	524.4
401.382	539.6
401.787	536
402.192	549.8
402.597	535.2
403.002	513.6
403.386	540.4
403.791	535.8
404.197	516.2
404.602	526.2
405.007	521.6
405.413	522
405.818	520.4
406.224	526.2
406.608	520
407.014	518.8
407.42	535.2
407.825	525.6
408.231	533.2
408.637	533
409.043	535.2
409.449	520.2
409.834	528.6
410.24	523.6
410.646	536.6
411.052	528.6
411.458	537
411.865	539
412.271	537.6
412.677	523.2
413.062	526.4
413.469	522.8
413.875	542.4
414.282	540.4
414.689	530
415.095	533.4
415.502	524.6
415.888	527.8
416.294	520.8
416.701	558.6
417.108	518.8
417.515	540
417.923	533
418.33	543.8
418.715	533.2
419.123	532.6
419.53	521.4
419.937	528
420.345	538.4
420.752	528
421.16	539.4
421.546	523.4
421.953	534.2
422.361	512.4
422.769	525.4
423.177	522.4
423.585	545.6
423.992	549.2
424.379	543
424.787	534.6
425.195	544.8
425.603	530.2
426.011	540
426.419	536
426.806	522.4
427.214	533.2
427.623	536.6
428.031	543.6
428.44	530.6
428.848	539
429.235	539
429.644	542.8
430.053	525.8
430.461	541.6
430.87	547.4
431.279	537
431.666	524
432.075	528.4
432.484	530
432.893	529.8
433.302	534.4
433.711	568.4
434.099	531.4
434.508	529
434.918	519.4
435.327	537.6
435.737	525.4
436.125	532
436.534	527.8
436.944	530.4
437.353	526.6
437.763	539.6
438.173	526
438.561	536.6
438.971	518.4
439.381	525
439.791	531
440.201	515.8
440.589	526.8
440.999	533
441.409	528.4
441.819	515.4
442.23	534
442.619	536.6
443.029	527.2
443.439	535.2
443.85	532.2
444.26	536.8
444.649	529.8
445.06	529.8
445.471	521.6
445.881	524
446.292	540.8
446.682	552.2
447.092	522.4
447.503	570
447.914	528
448.325	527
448.715	525.2
449.126	523.6
449.537	525.6
449.948	522.4
450.338	529.2
450.75	539.6
451.161	525.2
451.572	528.6
451.984	516.8
452.374	511.8
452.786	517
453.197	531.4
453.609	528.8
453.999	515.8
454.411	515.4
454.823	528.8
455.235	517.2
455.647	519.2
456.037	526.8
456.449	511
456.862	521.4
457.274	526.8
457.665	515
458.077	529.8
458.489	554.6
458.902	525.6
459.293	525.4
459.705	524.2
460.118	523.2
460.53	530.2
460.921	526.8
461.334	529.6
461.747	521.8
462.16	538.4
462.551	536.8
462.964	534.4
463.377	507.4
463.79	523
464.182	527.4
464.595	512
465.008	523.2
465.421	526.6
465.813	521.6
466.226	527
466.64	517.6
467.053	556.8
467.445	526.2
467.859	532.8
468.272	516.4
468.686	525
469.078	523.8
469.492	505.8
469.906	521.2
470.298	522
470.712	512.2
471.126	544.8
471.54	509.4
471.933	510.6
472.347	515.8
472.761	518.8
473.175	509.8
473.568	518.4
473.982	510
474.397	520.4
474.79	513.2
475.204	525
475.619	516.4
476.033	512.4
476.426	521.8
476.841	514
477.256	537
477.649	512.6
478.064	510.4
478.479	504.2
478.872	511.8
479.287	504.8
479.702	508
480.118	515.4
480.511	517.8
480.927	522
481.342	509
481.736	518.4
482.151	515
482.566	534.4
482.96	514.4
483.376	526.4
483.792	508.2
484.186	521.6
484.602	509.8
485.017	520.4
485.412	512
485.827	521
486.243	517.2
486.638	541.2
487.054	527.8
487.47	528.8
487.865	514.6
488.281	514.2
488.697	518.2
489.092	513.2
489.508	513.2
489.925	525.2
490.32	517.4
490.736	521.8
491.153	522.4
491.548	527.8
491.964	535.4
492.381	511.2
492.776	532.6
493.193	524
493.61	526.8
494.006	514.6
494.422	522.4
494.84	511
495.235	530
495.652	518.2
496.069	515.4
496.465	505.2
496.883	518.4
497.3	536.4
497.696	505.6
498.113	519.4
498.509	507.6
498.927	509.8
499.344	513.6
499.741	510.4
500.158	519.6
500.576	525.2
500.973	516.8
501.39	516.8
501.787	514.8
502.205	523.6
502.623	516.4
503.02	512
503.438	506.6
503.856	515.2
504.253	518.2
504.671	512.6
505.068	517.6
505.486	526.8
505.905	537.6
506.302	518.4
506.72	523.6
507.118	497.8
507.536	521
507.955	509.8
508.352	519.4
508.771	520.4
509.169	530.8
509.587	511.8
510.006	517.2
510.404	509.8
510.823	508.4
511.221	515.6
511.64	507
512.038	523.6
512.457	517.2
512.877	515
513.275	509.8
513.694	515.6
514.092	514
514.512	522
514.91	523.4
515.33	519.6
515.749	522.2
516.148	517
516.568	517
516.966	515
517.386	514.8
517.785	515
518.205	513
518.603	512
519.024	510.6
519.444	524.4
519.843	527
520.263	522.6
520.662	523.6
521.082	514.8
521.481	524.2
521.902	517
522.301	520.4
522.722	524.2
523.121	519
523.542	519.4
523.963	516.6
524.362	520.2
524.783	513.8
525.183	511.8
525.604	514.4
526.003	514.4
526.425	508.4
526.824	522
527.246	523.2
527.646	523.6
528.067	515.2
528.467	516.8
528.888	520.6
529.289	510.2
529.71	507.6
530.11	514.4
530.532	504.6
530.932	502.4
531.354	507
531.755	536
532.176	524.2
532.577	516.6
532.999	520.6
533.4	512.4
533.822	526
534.223	516
534.645	525.4
535.046	516.4
535.468	519.8
535.869	529
536.292	505
536.693	543
537.115	508.8
537.516	516.6
537.939	515
538.34	530.4
538.742	523.6
539.165	517.6
539.566	515.2
539.989	509
540.391	506.8
540.814	516.4
541.216	517
541.639	519.4
542.041	523.6
542.464	513.6
542.866	513.4
543.268	504.4
543.691	526.4
544.093	521.4
544.517	531.2
544.919	510.4
545.343	528.2
545.745	505.2
546.147	515.8
546.571	513.6
546.974	517.2
547.398	508.4
547.8	522.2
548.224	507.4
548.627	508
549.03	517.2
549.454	510.6
549.857	499.6
550.281	506.8
550.684	510
551.087	524.6
551.512	512.2
551.915	512.8
552.34	515.2
552.743	510.6
553.146	513.8
553.571	516.6
553.975	523.8
554.399	505
554.803	554.8
555.207	508
555.632	509.4
556.036	522.8
556.461	504
556.865	514.6
557.268	511.8
557.694	507.2
558.098	518.6
558.502	516.2
558.927	515.2
559.332	518.4
559.736	515.2
560.162	516.6
560.566	513.6
560.992	523.2
561.396	512.2
561.801	511.8
562.227	512
562.631	509.6
563.036	512.8
563.462	519.2
563.867	517.6
564.272	507.2
564.698	512.8
565.103	508.2
565.508	518.8
565.935	508.8
566.34	511.8
566.745	518.8
567.172	504.4
567.577	520.4
567.982	521.4
568.409	513.4
568.815	502.2
569.22	518.6
569.626	512.4
570.053	492.4
570.459	516.2
570.865	516.6
571.292	518.4
571.698	516.6
572.104	499.6
572.531	513.6
572.937	522.6
573.343	520.8
573.75	508.4
574.177	518.2
574.583	521.6
574.99	507.4
575.396	514.2
575.824	504.4
576.231	509.8
576.637	507.4
577.065	540.2
577.472	502.6
577.879	511.6
578.286	520.4
578.714	501.4
579.121	510.4
579.528	513.2
579.935	516.8
580.364	514.8
580.771	492.2
581.178	512
581.585	521.4
582.014	522.4
582.421	507.8
582.829	507.8
583.236	517.4
583.644	507.2
584.073	507.2
584.481	509.2
584.889	497.6
585.296	515.8
585.726	509.2
586.134	505.2
586.542	508
586.95	533.6
587.358	505.6
587.787	506.8
588.196	506.2
588.604	504.4
589.012	510.2
589.421	508.4
589.851	509.8
590.259	515
590.668	503.6
591.076	544
591.485	501.6
591.894	511.8
592.324	521
592.733	514
593.142	499.8
593.551	506.4
593.96	511.8
594.369	506.4
594.8	507
595.209	506
595.618	500.6
596.028	500.4
596.437	494.2
596.847	516.8
597.256	513.8
597.687	513
598.097	506.6
598.507	507.6
598.917	516.2
599.327	519.4
599.736	512.4
600.146	522.8
600.556	510.8
600.988	522.6
601.398	508.2
601.808	517.8
602.219	503.6
602.629	507
603.039	514.8
603.45	532.2
603.86	507.2
604.271	529.2
604.703	512.2
605.114	513.6
605.525	518.4
605.935	514
606.346	532
606.757	518.4
607.168	517
607.579	509.8
607.99	531.6
608.402	520.6
608.813	518.4
609.224	505.6
609.636	508.4
610.047	514.6
610.48	518.4
610.892	522.2
611.303	528.4
611.715	514.2
612.127	513.2
612.539	518.6
612.95	515.6
613.362	505.8
613.774	517.8
614.186	511.4
614.599	515.8
615.011	522.8
615.423	521.4
615.835	510.2
616.248	509.8
616.66	525.2
617.073	515.6
617.485	521.2
617.898	525.2
618.311	518.8
618.723	513
619.136	542
619.549	529.4
619.962	530.4
620.375	516.4
620.788	523
621.201	518.6
621.614	526.8
622.028	520.6
622.441	523.6
622.854	533.2
623.268	508
623.681	525
624.095	521.6
624.509	529.2
624.922	519.2
625.336	509.4
625.728	518.8
626.142	518.4
626.556	538.8
626.97	522.6
627.384	509.4
627.799	510
628.213	527.2
628.627	515.4
629.041	521.8
629.456	509.8
629.87	525.8
630.285	527.2
630.699	528.4
631.093	519.4
631.507	530.2
631.922	525.2
632.337	531
632.752	514
633.167	517.2
633.582	521.2
633.997	519.6
634.412	513.6
634.806	529.4
635.221	518.4
635.637	526.4
636.052	508.2
636.468	522
636.883	536.8
637.299	518.2
637.715	502.4
638.109	522.2
638.525	508.2
638.941	523.2
639.357	516.8
639.773	527.6
640.189	513.4
640.584	513
641	523.4
641.416	508.6
641.832	513.6
642.249	511.6
642.665	518.6
643.06	520.4
643.477	522.2
643.894	505.6
644.31	506.6
644.727	518
645.123	519
645.54	505.4
645.957	513
646.374	522.2
646.77	512.8
647.187	539.6
647.604	506.8
648.021	505.4
648.439	511
648.835	515
649.252	518.4
649.67	510.4
650.088	511.4
650.484	514.2
650.902	516.6
651.32	515.6
651.738	512.6
652.134	514.2
652.552	532.6
652.971	517.4
653.389	510
653.786	524
654.204	519.4
654.622	509.6
655.019	508
655.438	511.8
655.857	515.2
656.275	514.4
656.673	497.2
657.091	524.2
657.51	504
657.908	520.6
658.327	525.2
658.746	498.8
659.144	510.2
659.563	524.6
659.982	504.8
660.38	497.4
660.8	516
661.219	521.8
661.617	517
662.037	507
662.457	521.6
662.855	501
663.275	541.8
663.695	503.2
664.094	510
664.514	513.8
664.934	501.4
665.333	506.6
665.753	503.2
666.152	498.4
666.572	507.2
666.993	519.4
667.392	509.2
667.812	505.8
668.212	510.4
668.632	516.8
669.053	501.6
669.453	508.4
669.874	515.2
670.273	503.2
670.694	495.2
671.116	520.2
671.515	516.4
671.937	507.4
672.337	499.4
672.758	502.4
673.158	511
673.58	492.4
673.98	503.8
674.402	515.6
674.824	512.2
675.224	500.8
675.646	490
676.047	507.6
676.469	507.2
676.869	508
677.292	509.4
677.693	504.6
678.115	512.4
678.516	508.4
678.939	508.2
679.34	506.6
679.762	512.2
680.164	510.8
680.586	503.4
680.988	517.2
681.411	534.8
681.812	505.6
682.236	496.6
682.637	503.2
683.061	499.4
683.462	505.2
683.864	502.8
684.288	516
684.69	497.6
685.114	513.2
685.516	516
685.94	498
686.342	516.2
686.766	496.4
687.168	497.4
687.571	519.2
687.995	505
688.398	495.6
688.822	497.2
689.225	517.2
689.628	526.4
690.052	498.6
690.456	511
690.88	498.4
691.284	494.6
691.687	516.4
692.112	504.4
692.515	500.6
692.919	506.8
693.344	503.8
693.747	502.8
694.173	495.4
694.577	513.6
694.98	510.6
695.406	497.8
695.81	498.8
696.214	514.2
696.64	510.4
697.044	505
697.448	505.6
697.874	506.8
698.279	507
698.684	492.4
699.11	501.6
699.514	504.8
699.919	498
700.324	495.4
700.75	499.4
701.156	505
701.561	515
701.987	510
702.393	511.2
702.798	513.6
703.203	506.8
703.63	503.8
704.036	495.4
704.442	504.8
704.847	507.8
705.274	498
705.68	511
706.086	518.8
706.492	498.4
706.92	504.8
707.326	522.4
707.732	501.6
708.139	496
708.545	503
708.973	507.6
709.38	511.2
709.786	498.6
710.193	517.8
710.6	505.6
711.028	493.8
711.435	506.4
711.842	506.6
712.249	505.8
712.656	510.4
713.064	510.4
713.492	500.2
713.9	501.6
714.307	512.6
714.715	507.4
715.123	506.2
715.53	503
715.938	502.6
716.367	508
716.775	506
717.184	509
717.592	508.8
718	512.2
718.408	534.4
718.816	540.4
719.225	506
719.633	504.2
720.042	492.6
720.472	498.6
720.881	519.8
721.29	506.4
721.699	498.2
722.108	513.4
722.517	505.6
722.926	495.2
723.335	503.8
723.744	501
724.154	500.2
724.563	501.4
724.973	505.6
725.382	498.4
725.792	500
726.202	494.6
726.612	507.4
727.022	503.8
727.432	498.8
779.813	494.8
780.223	537
780.634	500.4
781.044	495
781.454	504.2
781.865	513.4
782.276	493.4
782.686	513.6
783.097	497.4
783.508	503.2
783.919	511.2
784.33	512.8
784.741	514.8
785.152	500.4
785.563	495.2
785.974	493.2
786.386	510.8
786.776	497
787.188	499
787.599	500.8
788.011	511.6
788.423	507
788.835	505.6
789.247	504.2
789.659	497.2
790.071	494.8
790.483	546.2
790.874	501.2
791.286	517.2
791.699	500.6
792.111	504.8
792.524	497.4
792.937	501.2
793.349	494.6
793.741	496.8
794.154	498
794.567	509
794.98	503
795.393	486.8
795.785	508
796.198	493.6
796.612	500.4
797.026	494.2
797.439	483
797.831	497.2
798.245	501.8
798.659	497.2
799.073	499.8
799.487	496
799.88	502
800.294	502.2
800.708	505.4
801.123	509.8
801.516	519.8
801.93	490.6
802.345	492.4
802.76	502.2
803.153	510.8
803.568	511.8
803.983	510.8
804.377	508.8
804.792	493.6
805.207	496.4
805.601	503.6
806.016	537.2
806.432	503
806.826	522.8
807.242	509.2
807.658	498
808.052	498
808.468	497.2
808.884	496.6
809.279	503
809.695	507.8
810.111	515.6
810.506	502
810.922	518
811.339	494.4
811.734	508.6
812.151	494.2
812.546	496.2
812.963	494.2
813.38	502
813.776	491.6
814.193	517.4
814.589	495.2
815.006	488.2
815.402	492.6
815.82	498.8
816.237	496.8
816.633	501
817.051	498.4
817.448	504.2
817.866	486.8
818.262	520
818.68	493
819.077	494.8
819.495	499
819.892	532.2
820.311	491.4
820.708	506.8
821.127	495.4
821.524	506.2
821.943	499
822.34	514.6
822.759	506.6
823.157	495.8
823.576	513.2
823.974	504
824.393	598
824.791	498.4
825.189	492.4
825.609	499.6
826.007	506
826.427	498.6
826.826	494.8
827.246	501.4
827.644	484.2
828.043	512
828.463	491
828.862	504.2
829.261	503.8
829.682	495.6
830.081	510.4
830.502	500.4
830.901	504.4
831.301	499
831.722	488.8
832.121	503
832.521	502.8
832.943	495.8
833.342	503.2
833.742	491
834.164	496
834.564	493.8
834.965	501.2
835.386	495
835.787	493.2
836.188	502
836.588	499.6
837.01	491.2
837.411	494.4
837.812	501.8
838.213	503.4
838.636	490.8
839.037	553.2
839.438	498.6
839.84	502.6
840.263	501.4
840.664	502.6
841.066	498.6
841.468	499.4
841.891	497.2
842.293	514.2
842.695	508.2
843.098	506.4
843.5	490.6
843.902	503
844.326	497.8
844.729	501.2
845.131	515.8
845.534	494.4
845.937	512
846.34	517.4
846.764	492.6
847.167	506.8
847.571	490.6
847.974	504
848.377	498
848.781	539
849.184	505
849.588	493
849.992	495
850.396	499.8
850.821	512.6
851.225	491.8
851.63	496.6
852.034	500.8
852.438	494.4
852.843	525.8
853.247	487.4
853.652	491.8
854.057	512.4
854.462	497
854.867	507.8
855.272	526.6
855.677	496.6
856.082	492.8
