#lambda/nm	C1
208.295	464.8
208.67	433.2
209.045	396.2
209.419	397.8
209.794	541.8
210.169	521.8
210.544	629.2
210.919	539.4
211.295	529.8
211.67	534.4
212.045	534.6
212.421	536.2
212.796	566
213.172	542.2
213.547	533.4
213.923	532.8
214.299	529.4
214.675	539
215.051	541.8
215.427	542.2
215.803	548.8
216.179	539
216.555	526
216.932	543.8
217.308	543.4
217.684	536.4
218.061	537.8
218.438	540.2
218.814	535.6
219.191	545.4
219.568	531.8
219.945	537
220.322	543.2
220.699	544
221.076	543.6
221.453	544
221.83	540.2
222.208	531.2
222.585	533
222.962	538.8
223.34	551.2
223.717	532.2
224.095	538
224.473	539.4
224.851	530.8
225.229	532.4
225.607	544.4
225.985	531.4
226.363	545.6
226.741	539.2
227.119	536.4
227.497	556
227.876	527.2
228.254	543.8
228.633	544
229.011	546
229.39	545
229.769	543.4
230.148	545.8
230.527	560.4
230.905	539.6
231.284	544.2
231.664	534.8
232.043	542.2
232.422	538.2
232.801	536.4
233.181	546.4
233.56	536.8
233.94	533.4
234.319	528.8
234.699	535.8
235.079	569
235.458	571.6
235.838	546
236.218	531.8
236.598	526.8
236.978	531.4
237.358	527.8
237.738	534.6
238.119	542
238.499	530.6
238.88	540.4
239.26	546.8
239.641	532.2
240.021	534.6
240.402	538
240.783	530.2
241.163	536.4
241.544	543.2
241.925	535.6
242.306	555
242.687	531.4
243.069	541
243.45	543
243.831	532.8
244.212	532.2
244.594	559.8
244.975	549
245.357	538.8
245.739	537.6
246.12	534.2
246.502	552.6
246.884	535.2
247.266	533.2
247.648	535
248.03	557
248.412	543.8
248.794	536.2
249.176	538.8
249.559	546.6
249.941	534.8
250.323	525
250.706	534.6
251.089	534
251.471	544.4
251.854	526.8
252.237	534.2
252.62	543.4
253.002	539.4
253.385	535.6
253.769	548.8
254.152	539.8
254.535	545.2
254.918	529
255.301	533.2
255.685	533.8
256.068	532.8
256.452	553.2
256.835	539.2
257.219	541.4
257.603	546
257.986	534.4
258.37	540.6
258.754	524.6
259.138	531
259.522	540.8
259.906	534.6
260.29	540.8
260.675	539.8
261.059	538
261.443	528.8
261.828	534.4
262.212	543.8
262.597	522.4
262.981	529.2
263.366	542.8
263.751	531.4
264.136	536.2
264.521	533.2
264.906	531.4
265.291	543.6
265.676	537.8
266.061	536.2
266.446	553.2
266.831	537.2
267.217	554.8
267.602	545.4
267.987	540.4
268.373	543.4
268.759	549.2
269.144	551.2
269.53	534.6
269.916	533.2
270.302	534.4
270.688	536.6
271.074	545.8
271.46	539.4
271.846	559.4
272.232	530.6
272.618	527.4
273.004	535.6
273.391	536.2
273.777	540
274.164	539.2
274.55	548.4
274.937	539.8
275.324	536.8
275.71	538
276.097	541.4
276.484	529.2
276.871	535.8
277.258	544.4
277.645	526
278.032	537.2
278.419	532.2
278.807	541
279.194	525.6
279.581	534.6
279.969	535.2
280.356	535.4
280.744	534.8
281.131	553
281.519	539.6
281.907	524.2
282.295	535.8
282.682	542.6
283.07	534
283.458	532.8
283.846	549.6
284.235	553.8
284.623	549
285.011	531.2
285.399	539.2
285.788	535.4
286.176	526.8
286.565	539.2
286.953	537.2
287.342	535.6
287.731	536.2
288.119	537.6
288.508	527.4
288.897	534.2
289.286	529.8
289.675	532
290.064	544
290.453	538
290.821	535
291.21	547.8
291.599	535
291.989	537.4
292.378	543.4
292.768	558.8
293.157	536.6
293.547	545
293.936	532
294.326	533.4
294.716	542.4
295.106	533.4
295.496	540.8
295.886	546
296.276	539.6
296.666	536
297.056	531.2
297.446	527.6
297.836	552.4
298.227	540
298.617	533.8
299.008	545.4
299.398	530.8
299.789	529.2
300.179	534.4
300.57	544.6
300.961	533
301.352	540.4
301.742	539.8
302.133	547.4
302.524	536.4
302.915	532.8
303.307	534.8
303.698	549.4
304.089	552.8
304.48	543.6
304.872	541.2
305.263	535.2
305.655	531.2
306.046	551.4
306.438	539.6
306.829	533.6
307.221	546.6
307.613	532.2
308.005	537.8
308.397	549
308.789	551
309.181	554.8
309.573	542.4
309.965	543.4
310.357	537.8
310.749	543.4
311.142	529
311.534	533
311.926	541.4
312.319	535.2
312.711	532.4
313.104	545.2
313.497	538
313.889	566.4
314.282	558.8
314.675	550.6
315.068	542.4
315.461	549.6
315.854	566
316.247	537.8
316.64	539.8
317.033	544
317.405	548.6
317.798	539.8
318.192	545.6
318.585	537
318.979	544.2
319.372	530
319.766	539
320.16	543.8
320.553	547.2
320.947	547.4
321.341	540.6
321.735	539.2
322.129	530.4
322.523	559.4
322.917	526.4
323.311	548.2
323.705	542.2
324.099	542.4
324.494	551.8
324.888	544
325.282	533.2
325.677	547
326.071	547.8
326.466	549.6
326.861	538.8
327.255	547.8
327.65	553
328.045	559.6
328.44	543.4
328.835	541.2
329.23	534.6
329.625	552.2
330.02	534.4
330.415	551
330.81	535.8
331.206	537.4
331.601	541
331.996	540.6
332.37	560
332.766	530
333.161	560.4
333.557	532.8
333.953	542.8
334.348	843.8
334.744	541.4
335.14	532.8
335.536	531.6
335.932	549.8
336.328	530.6
336.724	547.8
337.12	535.8
337.516	539.4
337.913	539.6
338.309	539.6
338.705	537.6
339.102	543.2
339.498	534.6
339.895	551.2
340.291	535
340.688	550.2
341.085	530.6
341.481	536.6
341.878	528.4
342.275	556.6
342.672	532.8
343.069	535.8
343.466	528.8
343.842	532.6
344.239	532
344.636	537.4
345.033	529.6
345.431	522.2
345.828	533.8
346.225	527.8
346.623	558.4
347.02	535.6
347.418	539.8
347.816	549
348.213	531.2
348.611	542
349.009	532.8
349.407	547
349.805	527
350.203	529.4
350.601	540.4
350.999	536.8
351.397	590
351.795	536.8
352.193	534
352.57	535.4
352.969	545.4
353.367	531
353.766	527.8
354.164	528.6
354.563	544
354.961	528
355.36	525.8
355.759	530.4
356.158	523.4
356.557	517.2
356.956	523.4
357.355	525
357.754	537
358.153	547
358.552	552.2
358.951	529.4
359.35	540
359.75	525
360.149	531
360.527	522
360.926	529
361.326	531
361.726	529.6
362.125	534.2
362.525	537.2
362.925	531.8
363.325	535.2
363.724	534.4
364.124	531.8
364.524	530
364.924	530.4
365.324	538.2
365.725	518
366.125	541.2
366.525	532.4
366.904	519.8
367.304	525.2
367.705	542.6
368.105	541.2
368.506	525.4
368.906	525.2
369.307	530
369.708	531.8
370.108	519.4
370.509	535.2
370.91	522.4
371.311	521
371.712	529.4
372.113	524.6
372.514	520
372.894	525.4
373.295	521.2
373.696	533.8
374.097	536.2
374.499	552.8
374.9	528
375.301	525
375.703	531.4
376.105	518
376.506	524.6
376.908	529.8
377.309	529.2
377.711	525.6
378.113	523.2
378.493	533.8
378.895	526
379.297	530.6
379.699	518.4
380.102	535.6
380.504	530.8
380.906	530.6
381.308	549
381.71	534.2
382.113	537.4
382.515	523.2
382.918	534.8
383.299	525.4
383.701	547.4
384.104	530.6
384.507	508
384.909	526.4
385.312	515.6
385.715	519.4
386.118	530.2
386.521	523
386.924	545.2
387.327	532.2
387.709	520.6
388.112	516
388.515	531.6
388.918	518.8
389.322	534.4
389.725	527.2
390.129	548.4
390.532	531.2
390.936	522.8
391.339	519
391.743	528.6
392.125	529
392.529	537.2
392.933	540.8
393.337	533.8
393.74	522.4
394.144	525.8
394.548	521
394.953	526.6
395.357	541
395.761	526
396.144	533.4
396.548	528.8
396.952	529.2
397.357	523.8
397.761	534.6
398.166	523.4
398.57	522
398.975	520.4
399.379	532
399.763	572.6
400.168	528.6
400.572	526.6
400.977	530.4
401.382	546
401.787	531
402.192	535.6
402.597	524.4
403.002	509
403.386	536
403.791	540.8
404.197	514.6
404.602	529.4
405.007	531.2
405.413	521.8
405.818	529.2
406.224	514.8
406.608	524.6
407.014	520.4
407.42	543.6
407.825	523.8
408.231	533.4
408.637	539.2
409.043	547.6
409.449	513.6
409.834	529.2
410.24	526.8
410.646	544.8
411.052	536
411.458	529.4
411.865	537.6
412.271	542.6
412.677	527.2
413.062	531
413.469	520
413.875	552.6
414.282	543.2
414.689	534.2
415.095	533.2
415.502	523
415.888	529
416.294	514.8
416.701	560
417.108	525.4
417.515	538.2
417.923	528.6
418.33	542.4
418.715	541.8
419.123	529.2
419.53	530.8
419.937	527
420.345	537.6
420.752	525
421.16	545.8
421.546	531.8
421.953	538.6
422.361	525.2
422.769	522.4
423.177	524.8
423.585	552.4
423.992	539.6
424.379	535.6
424.787	542.4
425.195	544.8
425.603	533.2
426.011	538.4
426.419	547.6
426.806	533.4
427.214	532.6
427.623	543.2
428.031	542.8
428.44	539.2
428.848	541
429.235	542.2
429.644	532.2
430.053	530
430.461	536
430.87	557.2
431.279	539
431.666	527.8
432.075	529.4
432.484	533.8
432.893	525.4
433.302	536.2
433.711	559.6
434.099	532.8
434.508	526.2
434.918	524.8
435.327	532.2
435.737	522.6
436.125	527.6
436.534	539.4
436.944	524
437.353	535
437.763	545.6
438.173	527
438.561	539.6
438.971	519
439.381	522.8
439.791	528.2
440.201	514.6
440.589	529.4
440.999	534.4
441.409	534
441.819	526.2
442.23	535.4
442.619	531.2
443.029	531.6
443.439	524
443.85	535
444.26	548.4
444.649	533.2
445.06	529.8
445.471	527.2
445.881	535.4
446.292	537.2
446.682	540.4
447.092	518.2
447.503	573.6
447.914	523.6
448.325	524.6
448.715	528.6
449.126	522.8
449.537	523.6
449.948	528.2
450.338	519.6
450.75	534.4
451.161	521.4
451.572	527.2
451.984	515.2
452.374	510.2
452.786	525.4
453.197	526.2
453.609	537
453.999	521.6
454.411	511.4
454.823	536
455.235	531.4
455.647	517.2
456.037	529.4
456.449	514.4
456.862	526.6
457.274	526.2
457.665	511.6
458.077	529
458.489	554
458.902	530.8
459.293	527
459.705	517.8
460.118	529.6
460.53	529.6
460.921	521.8
461.334	523.2
461.747	525
462.16	544.4
462.551	534.2
462.964	533
463.377	515.4
463.79	523.6
464.182	525.6
464.595	521.2
465.008	533.6
465.421	531.4
465.813	523.2
466.226	525.8
466.64	517.4
467.053	556.8
467.445	531.4
467.859	531.8
468.272	517.2
468.686	528.8
469.078	525
469.492	513.4
469.906	523.4
470.298	527
470.712	516.4
471.126	550.4
471.54	518.4
471.933	520.4
472.347	521.4
472.761	512.4
473.175	523.8
473.568	516
473.982	516.2
474.397	515
474.79	524.4
475.204	527.2
475.619	522.4
476.033	523
476.426	528.2
476.841	526.4
477.256	544.6
477.649	516.4
478.064	516.2
478.479	521.4
478.872	515.8
479.287	504.4
479.702	509.4
480.118	522
480.511	515.8
480.927	523
481.342	521.4
481.736	527.2
482.151	523.4
482.566	532.6
482.96	527.2
483.376	533.2
483.792	521.2
484.186	519.2
484.602	520
485.017	523.6
485.412	519
485.827	528.4
486.243	520.2
486.638	535.2
487.054	526
487.47	539.2
487.865	523.4
488.281	522.6
488.697	520.4
489.092	518.6
489.508	518
489.925	525.8
490.32	508.8
490.736	530.4
491.153	525.8
491.548	521.2
491.964	532.8
492.381	512.4
492.776	521.2
493.193	524.8
493.61	517.6
494.006	524
494.422	529.4
494.84	515.2
495.235	532.4
495.652	521.8
496.069	517.4
496.465	510.8
496.883	516
497.3	541.4
497.696	513.2
498.113	532.8
498.509	509
498.927	515.2
499.344	514
499.741	515.2
500.158	521
500.576	526.2
500.973	521.4
501.39	516.6
501.787	514.4
502.205	513.2
502.623	519.4
503.02	505.2
503.438	518.6
503.856	514.6
504.253	515.4
504.671	518.8
505.068	514
505.486	518.4
505.905	542
506.302	520
506.72	528.6
507.118	505.2
507.536	515
507.955	512.4
508.352	516.6
508.771	525
509.169	525.8
509.587	516.6
510.006	518.8
510.404	507.8
510.823	517.2
511.221	513.8
511.64	520
512.038	529.4
512.457	512.6
512.877	520.2
513.275	512.4
513.694	524.2
514.092	523.4
514.512	528.4
514.91	529.8
515.33	517.8
515.749	518.8
516.148	524.4
516.568	521.4
516.966	522
517.386	511.8
517.785	519.4
518.205	522.2
518.603	512.6
519.024	517
519.444	521.4
519.843	524.2
520.263	530.2
520.662	525.4
521.082	515.8
521.481	520.4
521.902	520.8
522.301	519.8
522.722	521.4
523.121	523.4
523.542	513.6
523.963	515.2
524.362	513.2
524.783	529.4
525.183	511.6
525.604	517
526.003	515
526.425	515
526.824	524
527.246	529.2
527.646	525.8
528.067	518.2
528.467	507.8
528.888	517.2
529.289	517
529.71	522
530.11	519.4
530.532	509.4
530.932	505.8
531.354	508.6
531.755	539.4
532.176	514
532.577	521.4
532.999	523.4
533.4	512.4
533.822	527.2
534.223	519.2
534.645	510.8
535.046	508.8
535.468	520.8
535.869	527.6
536.292	508.8
536.693	546
537.115	518.2
537.516	517.8
537.939	509.4
538.34	527.2
538.742	535.4
539.165	518
539.566	517.6
539.989	511
540.391	515
540.814	518.6
541.216	520.6
541.639	521.4
542.041	519
542.464	514
542.866	517
543.268	511
543.691	520.8
544.093	518.4
544.517	529.2
544.919	512
545.343	537.4
545.745	512.2
546.147	518.4
546.571	507.8
546.974	501.8
547.398	513.8
547.8	526.4
548.224	508.6
548.627	511.2
549.03	526.8
549.454	505.8
549.857	502.8
550.281	507.2
550.684	512.4
551.087	520.8
551.512	520.4
551.915	516.6
552.34	514.2
552.743	518.8
553.146	520
553.571	515.4
553.975	532
554.399	513.6
554.803	555.8
555.207	510.8
555.632	521.8
556.036	514.6
556.461	509.6
556.865	507.8
557.268	511.8
557.694	516
558.098	527.8
558.502	520.6
558.927	511.2
559.332	520.8
559.736	514.4
560.162	521.6
560.566	508
560.992	519.6
561.396	518.2
561.801	515.6
562.227	511
562.631	520.8
563.036	512.6
563.462	515.8
563.867	513.6
564.272	501.6
564.698	522.8
565.103	513.4
565.508	520.6
565.935	517.8
566.34	509.8
566.745	523
567.172	511.2
567.577	528.4
567.982	523.4
568.409	520
568.815	505.4
569.22	515.6
569.626	523
570.053	496.6
570.459	516
570.865	517.6
571.292	525.2
571.698	511.6
572.104	500.6
572.531	510.2
572.937	523.6
573.343	517.4
573.75	509
574.177	522.6
574.583	526.4
574.99	508.6
575.396	514.4
575.824	516.6
576.231	518.2
576.637	513.8
577.065	540
577.472	510.2
577.879	514.6
578.286	528.8
578.714	504.4
579.121	508.8
579.528	515.2
579.935	518.8
580.364	513.2
580.771	509.8
581.178	509.6
581.585	517
582.014	522.6
582.421	523.8
582.829	511.6
583.236	519.6
583.644	504.6
584.073	511.8
584.481	521.8
584.889	513.8
585.296	519.4
585.726	511.4
586.134	505.2
586.542	509.4
586.95	527.8
587.358	504.8
587.787	520.2
588.196	512
588.604	511.2
589.012	513.8
589.421	505
589.851	511.8
590.259	510.8
590.668	514.4
591.076	546.2
591.485	503.6
591.894	511.8
592.324	519.8
592.733	519.2
593.142	505.6
593.551	508.2
593.96	540.2
594.369	503.4
594.8	503.8
595.209	514.6
595.618	499.6
596.028	500.8
596.437	498
596.847	511.6
597.256	513.8
597.687	519.2
598.097	507.2
598.507	501.4
598.917	510.2
599.327	519.6
599.736	514.6
600.146	517.4
600.556	509.6
600.988	521
601.398	505.8
601.808	516
602.219	500.8
602.629	509.8
603.039	520.6
603.45	531.4
603.86	508.6
604.271	527.2
604.703	516.2
605.114	517.2
605.525	512.6
605.935	511.2
606.346	533.6
606.757	514.8
607.168	506.2
607.579	512.6
607.99	523.4
608.402	518.8
608.813	523.4
609.224	510
609.636	507.8
610.047	501
610.48	508.6
610.892	518.4
611.303	520.2
611.715	506.8
612.127	505
612.539	505.6
612.95	515.4
613.362	497
613.774	502.8
614.186	508.4
614.599	517.2
615.011	515
615.423	517.2
615.835	506.6
616.248	508.2
616.66	519
617.073	505
617.485	504.8
617.898	519.8
618.311	518
618.723	512.6
619.136	542
619.549	529.8
619.962	523.4
620.375	517.8
620.788	512
621.201	505
621.614	512.4
622.028	514.6
622.441	507.8
622.854	519.4
623.268	502.8
623.681	516.4
624.095	515
624.509	520
624.922	521.2
625.336	504.2
625.728	510.4
626.142	521.4
626.556	518.8
626.97	513.4
627.384	509.4
627.799	517.6
628.213	515
628.627	506
629.041	502.6
629.456	507.4
629.87	515.2
630.285	519.2
630.699	518.4
631.093	514.8
631.507	521.4
631.922	508.6
632.337	520.4
632.752	504
633.167	511
633.582	514.6
633.997	510
634.412	506.4
634.806	514.6
635.221	499.4
635.637	522.2
636.052	497.2
636.468	509.6
636.883	528.6
637.299	506.6
637.715	503.8
638.109	502.4
638.525	502.6
638.941	521.4
639.357	512.2
639.773	514.2
640.189	506.8
640.584	501.8
641	513
641.416	500.2
641.832	507.8
642.249	507.2
642.665	513.6
643.06	514
643.477	513.6
643.894	495
644.31	498.2
644.727	509.2
645.123	506.4
645.54	496.2
645.957	509.2
646.374	518
646.77	503.8
647.187	529.2
647.604	513.2
648.021	494.6
648.439	500.4
648.835	521.2
649.252	506.2
649.67	508.6
650.088	502.4
650.484	512.6
650.902	514.2
651.32	513.8
651.738	506.4
652.134	507
652.552	523.6
652.971	515.4
653.389	500.2
653.786	527.6
654.204	514.6
654.622	501.2
655.019	509
655.438	515.2
655.857	508
656.275	513.2
656.673	504.2
657.091	515.8
657.51	503.8
657.908	508.2
658.327	522.6
658.746	498
659.144	517
659.563	516
659.982	514.6
660.38	500.4
660.8	501.2
661.219	508.4
661.617	506.8
662.037	509.8
662.457	514
662.855	491.2
663.275	526.4
663.695	507.4
664.094	495.6
664.514	510.4
664.934	502.2
665.333	507.6
665.753	501.4
666.152	500
666.572	499.4
666.993	518.2
667.392	504.2
667.812	511
668.212	505.8
668.632	514.4
669.053	497
669.453	518
669.874	506.6
670.273	509.4
670.694	501.8
671.116	514
671.515	517
671.937	508.4
672.337	507
672.758	512.8
673.158	518.4
673.58	492.6
673.98	511.4
674.402	507.8
674.824	505.8
675.224	504.2
675.646	501.8
676.047	503.8
676.469	503.2
676.869	508.6
677.292	512.2
677.693	497.4
678.115	502.2
678.516	511.4
678.939	518.6
679.34	512.4
679.762	513
680.164	518
680.586	497.8
680.988	519.2
681.411	529.6
681.812	506.8
682.236	501.2
682.637	502.2
683.061	496.2
683.462	514.4
683.864	509.2
684.288	516.8
684.69	502
685.114	520.4
685.516	515.8
685.94	497
686.342	515.4
686.766	503.8
687.168	499.6
687.571	524.8
687.995	513.2
688.398	504.4
688.822	500.2
689.225	519.4
689.628	523.2
690.052	510.8
690.456	508
690.88	509.4
691.284	498
691.687	513.2
692.112	494.4
692.515	494
692.919	505.2
693.344	504.4
693.747	509
694.173	500.6
694.577	511.2
694.98	507.4
695.406	501.8
695.81	504.6
696.214	506.6
696.64	504.4
697.044	510.8
697.448	510.2
697.874	499.8
698.279	505.4
698.684	502.2
699.11	498.6
699.514	504.6
699.919	504.2
700.324	503.6
700.75	509.8
701.156	504
701.561	515
701.987	504.4
702.393	506.2
702.798	520
703.203	502.4
703.63	511.6
704.036	501.8
704.442	506.8
704.847	500.8
705.274	508.4
705.68	507.8
706.086	510
706.492	496
706.92	506
707.326	510.4
707.732	504.4
708.139	504.2
708.545	503
708.973	501.6
709.38	508.2
709.786	495
710.193	521.2
710.6	510.2
711.028	501
711.435	508.2
711.842	510.8
712.249	503
712.656	504.4
713.064	518
713.492	498.4
713.9	503.2
714.307	507
714.715	510
715.123	508.6
715.53	512.6
715.938	513
716.367	500.4
716.775	502
717.184	496.6
717.592	507
718	520
718.408	533.8
718.816	541.6
719.225	503.4
719.633	508.2
720.042	501
720.472	505.4
720.881	520.2
721.29	504.2
721.699	496.4
722.108	498.6
722.517	504.6
722.926	500.8
723.335	511.4
723.744	495.2
724.154	504.2
724.563	500.8
724.973	511
725.382	504.6
725.792	501.4
726.202	492.2
726.612	509.2
727.022	501.8
727.432	496.8
779.813	498.4
780.223	538.4
780.634	499
781.044	495.6
781.454	498.6
781.865	512.6
782.276	495.8
782.686	511.2
783.097	501.2
783.508	506.4
783.919	506.6
784.33	518.6
784.741	518.6
785.152	496.4
785.563	493.2
785.974	500.4
786.386	509.4
786.776	509.8
787.188	499.2
787.599	500.4
788.011	504.2
788.423	507.2
788.835	490.8
789.247	496.6
789.659	495.2
790.071	497
790.483	539.2
790.874	498.4
791.286	516
791.699	499.8
792.111	503.2
792.524	508.2
792.937	497
793.349	491
793.741	492
794.154	500.6
794.567	516.2
794.98	500.4
795.393	491.2
795.785	508.6
796.198	497.4
796.612	506.6
797.026	504.8
797.439	492.8
797.831	494.8
798.245	490.6
798.659	501.2
799.073	499
799.487	496.2
799.88	500.2
800.294	502.4
800.708	506.8
801.123	503.2
801.516	511.8
801.93	501
802.345	492.8
802.76	499.6
803.153	513.2
803.568	513.2
803.983	513.2
804.377	504.6
804.792	495.4
805.207	483.2
805.601	507.4
806.016	536
806.432	501
806.826	524
807.242	508.4
807.658	505
808.052	499.2
808.468	494.6
808.884	495.4
809.279	502.4
809.695	507.6
810.111	512.4
810.506	494.2
810.922	514.2
811.339	492.6
811.734	505.4
812.151	492.4
812.546	499.6
812.963	497.6
813.38	498
813.776	504.8
814.193	511.4
814.589	493.4
815.006	497.2
815.402	496.6
815.82	498.8
816.237	499.6
816.633	505.4
817.051	494.4
817.448	509.8
817.866	499.6
818.262	523.2
818.68	500.6
819.077	500.4
819.495	500.6
819.892	532.2
820.311	494.4
820.708	496.2
821.127	497.8
821.524	517.2
821.943	503.4
822.34	517.2
822.759	505.4
823.157	506
823.576	510.6
823.974	509.2
824.393	595.4
824.791	500.6
825.189	496.6
825.609	504.4
826.007	501.2
826.427	496.8
826.826	498.4
827.246	503.2
827.644	488
828.043	515
828.463	502.2
828.862	505.2
829.261	509.8
829.682	487
830.081	506.2
830.502	502.2
830.901	511.2
831.301	495.2
831.722	492.6
832.121	499.8
832.521	506.6
832.943	502.8
833.342	508.8
833.742	495.8
834.164	497
834.564	490.8
834.965	502
835.386	503.2
835.787	505
836.188	499.8
836.588	504.2
837.01	500.2
837.411	493.6
837.812	506.8
838.213	506.8
838.636	496
839.037	553.2
839.438	501.6
839.84	500.8
840.263	506.6
840.664	502.2
841.066	501
841.468	505
841.891	492.8
842.293	502
842.695	501
843.098	503
843.5	496.8
843.902	506
844.326	498.4
844.729	505.4
845.131	510.2
845.534	495.2
845.937	514.4
846.34	515.2
846.764	494.2
847.167	504
847.571	492
847.974	502
848.377	499.4
848.781	536.4
849.184	517.2
849.588	497.8
849.992	497
850.396	498
850.821	521.6
851.225	509.8
851.63	499.2
852.034	509.6
852.438	504.4
852.843	525.8
853.247	492.4
853.652	496.4
854.057	512.8
854.462	494.8
854.867	510.8
855.272	529.8
855.677	503.2
856.082	498.2
