#lambda/nm	C1
208.295	468
208.67	438.8
209.045	397
209.419	402
209.794	534.2
210.169	524.8
210.544	627.4
210.919	541.4
211.295	528.2
211.67	539.2
212.045	526.2
212.421	538.8
212.796	568
213.172	531.6
213.547	538.8
213.923	535
214.299	534.2
214.675	543.8
215.051	540.2
215.427	537.6
215.803	554.8
216.179	544.8
216.555	530.6
216.932	547.4
217.308	535.8
217.684	533.4
218.061	544
218.438	543.2
218.814	525.8
219.191	541.2
219.568	529.4
219.945	539.8
220.322	533.8
220.699	537
221.076	544.4
221.453	535.2
221.83	527
222.208	538
222.585	530.2
222.962	528.4
223.34	536.8
223.717	535.4
224.095	532.8
224.473	541.8
224.851	535
225.229	532.2
225.607	556
225.985	527.2
226.363	535.6
226.741	544
227.119	533.6
227.497	548.6
227.876	528.6
228.254	538.6
228.633	540.8
229.011	537.2
229.39	542.8
229.769	537
230.148	542.8
230.527	559.6
230.905	540
231.284	533.4
231.664	529.6
232.043	544.4
232.422	537.8
232.801	526.4
233.181	537.4
233.56	530.2
233.94	532.8
234.319	527.4
234.699	536.4
235.079	558.2
235.458	568.6
235.838	550.6
236.218	532.8
236.598	520
236.978	533.4
237.358	529.4
237.738	533.6
238.119	544.8
238.499	532
238.88	535.8
239.26	553.8
239.641	531.8
240.021	528
240.402	536.8
240.783	540.8
241.163	534.2
241.544	540
241.925	537.8
242.306	549.4
242.687	534
243.069	537.6
243.45	542.6
243.831	525.2
244.212	527.8
244.594	559.2
244.975	546
245.357	544.4
245.739	535.8
246.12	541.2
246.502	550.2
246.884	530.4
247.266	536
247.648	536.6
248.03	551.4
248.412	540
248.794	534.4
249.176	532.8
249.559	545.2
249.941	524
250.323	521.6
250.706	532.6
251.089	531.4
251.471	534
251.854	542.8
252.237	533.4
252.62	537
253.002	531.2
253.385	542.8
253.769	543.4
254.152	536.8
254.535	539.6
254.918	520.2
255.301	541
255.685	534.6
256.068	536
256.452	554.2
256.835	547.8
257.219	539.8
257.603	544.8
257.986	526.8
258.37	539.4
258.754	531
259.138	534
259.522	551.6
259.906	533.8
260.29	542.8
260.675	532
261.059	535
261.443	525.4
261.828	542
262.212	537.8
262.597	530
262.981	534.6
263.366	543
263.751	539.6
264.136	531.2
264.521	523.8
264.906	534.8
265.291	546.4
265.676	529
266.061	539
266.446	551.8
266.831	540
267.217	550.6
267.602	542
267.987	536.8
268.373	526.8
268.759	538.6
269.144	535.6
269.53	538
269.916	530.6
270.302	531.4
270.688	534.4
271.074	542.2
271.46	544.4
271.846	562.4
272.232	534.4
272.618	535.6
273.004	535
273.391	546
273.777	542.2
274.164	544.2
274.55	546.6
274.937	535.8
275.324	530.2
275.71	538
276.097	536.4
276.484	530.6
276.871	540
277.258	537
277.645	524.2
278.032	534
278.419	530.2
278.807	543
279.194	533.8
279.581	529.2
279.969	536.4
280.356	535.8
280.744	533.6
281.131	552
281.519	543.2
281.907	528
282.295	532
282.682	539
283.07	534.2
283.458	544.2
283.846	549.8
284.235	537.2
284.623	544.6
285.011	529.6
285.399	543
285.788	535.6
286.176	528.2
286.565	543.4
286.953	535.4
287.342	539.8
287.731	529
288.119	530.4
288.508	534.6
288.897	538.4
289.286	527.6
289.675	531
290.064	547
290.453	535.6
290.821	541.4
291.21	551.6
291.599	530
291.989	536.4
292.378	546.2
292.768	557.2
293.157	537.6
293.547	535.8
293.936	538.4
294.326	533.8
294.716	544.4
295.106	529
295.496	539.8
295.886	549.4
296.276	532.8
296.666	534.4
297.056	532.2
297.446	526.8
297.836	554.4
298.227	528.8
298.617	542.6
299.008	543.6
299.398	536.4
299.789	534
300.179	544
300.57	538.6
300.961	535.8
301.352	533.8
301.742	534.8
302.133	540.6
302.524	530.2
302.915	537.2
303.307	530.4
303.698	534
304.089	541.8
304.48	536.4
304.872	543.8
305.263	540.2
305.655	531
306.046	544
306.438	539.8
306.829	530.4
307.221	541
307.613	541.8
308.005	547
308.397	546.4
308.789	547.4
309.181	559.2
309.573	555.6
309.965	546.6
310.357	536.6
310.749	547.4
311.142	526.6
311.534	534.2
311.926	544.6
312.319	534.6
312.711	527.8
313.104	552
313.497	534.6
313.889	567.6
314.282	553
314.675	549.6
315.068	539.2
315.461	546.4
315.854	561.4
316.247	532.2
316.64	533
317.033	532.4
317.405	543.8
317.798	541.2
318.192	535.2
318.585	522.8
318.979	543.2
319.372	527.6
319.766	541.4
320.16	541.4
320.553	541.6
320.947	549.6
321.341	527.2
321.735	539.2
322.129	521
322.523	553
322.917	531.2
323.311	545.4
323.705	540.6
324.099	544.8
324.494	552.8
324.888	542.8
325.282	539.2
325.677	557.6
326.071	546.2
326.466	543.2
326.861	539.8
327.255	547.6
327.65	548.6
328.045	552.6
328.44	543
328.835	539
329.23	529.4
329.625	553.4
330.02	524.8
330.415	549.2
330.81	535.2
331.206	535.8
331.601	528
331.996	536.2
332.37	544.8
332.766	527.8
333.161	553
333.557	527.4
333.953	534.4
334.348	715.8
334.744	543.2
335.14	525.8
335.536	534.6
335.932	553.6
336.328	532.8
336.724	540.6
337.12	540.6
337.516	541
337.913	529.6
338.309	543.2
338.705	528.2
339.102	541.8
339.498	527.2
339.895	544.2
340.291	527
340.688	547.2
341.085	527
341.481	536.6
341.878	536.2
342.275	554
342.672	531
343.069	531
343.466	521.8
343.842	543.2
344.239	533.2
344.636	541
345.033	528
345.431	523.8
345.828	533.8
346.225	522.6
346.623	562
347.02	533.4
347.418	538.2
347.816	545.8
348.213	525.8
348.611	536.2
349.009	528.8
349.407	541.8
349.805	526
350.203	519.6
350.601	543.6
350.999	527.6
351.397	585.4
351.795	532.4
352.193	544.4
352.57	540.2
352.969	542.8
353.367	529.8
353.766	530
354.164	534.2
354.563	537.6
354.961	534.2
355.36	531.6
355.759	536
356.158	530
356.557	534.6
356.956	528.6
357.355	530.2
357.754	524
358.153	545.8
358.552	552.2
358.951	532
359.35	545.4
359.75	534.4
360.149	526.8
360.527	520
360.926	524
361.326	535.6
361.726	535.2
362.125	521.8
362.525	542.6
362.925	533.2
363.325	537.2
363.724	536.8
364.124	536.2
364.524	521
364.924	530.2
365.324	536.2
365.725	520.2
366.125	535.8
366.525	533.8
366.904	526.2
367.304	522
367.705	540.4
368.105	531.4
368.506	530.4
368.906	534
369.307	524
369.708	532
370.108	514.6
370.509	539.6
370.91	522
371.311	539.8
371.712	533.8
372.113	525.6
372.514	513.8
372.894	527.8
373.295	523.6
373.696	529.4
374.097	538
374.499	552.8
374.9	533.8
375.301	524.2
375.703	545.8
376.105	527
376.506	536.8
376.908	538.6
377.309	529.2
377.711	527.2
378.113	520.6
378.493	529.6
378.895	519.6
379.297	528.6
379.699	523.8
380.102	529.6
380.504	524.2
380.906	526.6
381.308	548.8
381.71	532.8
382.113	536.6
382.515	524.8
382.918	520.6
383.299	522.4
383.701	536.6
384.104	526.6
384.507	514.4
384.909	529.2
385.312	521.4
385.715	520.4
386.118	522.4
386.521	517.4
386.924	540.2
387.327	522
387.709	520
388.112	512.8
388.515	530.8
388.918	524.8
389.322	532.2
389.725	517.8
390.129	546.2
390.532	530.2
390.936	525.8
391.339	522.8
391.743	527.6
392.125	527.2
392.529	538.4
392.933	542
393.337	524.6
393.74	521.2
394.144	522
394.548	519.8
394.953	526.8
395.357	526.8
395.761	525
396.144	526.8
396.548	521
396.952	532
397.357	530.6
397.761	524.2
398.166	526.6
398.57	524.4
398.975	521.2
399.379	524.4
399.763	568.2
400.168	530
400.572	524.8
400.977	528.8
401.382	543.6
401.787	535.6
402.192	538.2
402.597	546
403.002	518.2
403.386	537.4
403.791	548.2
404.197	519.8
404.602	517.6
405.007	529.4
405.413	526.6
405.818	526.4
406.224	523.2
406.608	532
407.014	518.4
407.42	533.4
407.825	524.8
408.231	533.6
408.637	532.8
409.043	537.8
409.449	520.4
409.834	522.8
410.24	537
410.646	535.8
411.052	536.8
411.458	535.8
411.865	532.6
412.271	533
412.677	523
413.062	527.2
413.469	518.6
413.875	553.2
414.282	539.6
414.689	530.6
415.095	529.8
415.502	524.4
415.888	529.2
416.294	517.8
416.701	558.6
417.108	516.2
417.515	528.2
417.923	520
418.33	535.4
418.715	529.8
419.123	521.4
419.53	532.8
419.937	532.6
420.345	545.4
420.752	525
421.16	539.8
421.546	524.8
421.953	527.8
422.361	518.4
422.769	523.4
423.177	526.4
423.585	547
423.992	541.8
424.379	539.2
424.787	532.6
425.195	540.4
425.603	520
426.011	538.6
426.419	543.6
426.806	528.2
427.214	534.4
427.623	529.4
428.031	544.4
428.44	530.8
428.848	530.2
429.235	541.2
429.644	537
430.053	516
430.461	536.8
430.87	553.4
431.279	538.8
431.666	530
432.075	527.6
432.484	531.8
432.893	534.8
433.302	539.6
433.711	555.2
434.099	538.6
434.508	529.8
434.918	524
435.327	535.2
435.737	532.2
436.125	529.4
436.534	530
436.944	531
437.353	526.2
437.763	554.8
438.173	519
438.561	535.4
438.971	515.2
439.381	529.2
439.791	535
440.201	506.2
440.589	526.6
440.999	531.8
441.409	532.8
441.819	518.4
442.23	538.6
442.619	530.6
443.029	524.8
443.439	530.8
443.85	537
444.26	541.6
444.649	533.2
445.06	525
445.471	515.4
445.881	529
446.292	546.4
446.682	547
447.092	516.4
447.503	568.6
447.914	524.6
448.325	526.8
448.715	528.6
449.126	520.8
449.537	525.4
449.948	527.8
450.338	520
450.75	528.2
451.161	530.4
451.572	531.6
451.984	517.4
452.374	515.6
452.786	528.8
453.197	529.8
453.609	526.6
453.999	513.4
454.411	520.4
454.823	535
455.235	528.8
455.647	519
456.037	522
456.449	517
456.862	527.2
457.274	527.2
457.665	523
458.077	537.2
458.489	548.6
458.902	528.4
459.293	529.8
459.705	524.6
460.118	517
460.53	526.4
460.921	519
461.334	530.2
461.747	526.8
462.16	540.6
462.551	538.2
462.964	528.2
463.377	513.6
463.79	527.2
464.182	533
464.595	519.4
465.008	531
465.421	528.2
465.813	519.6
466.226	532
466.64	515.4
467.053	556.2
467.445	527.2
467.859	537.8
468.272	524.4
468.686	534.6
469.078	523
469.492	518.4
469.906	531
470.298	528
470.712	516
471.126	547
471.54	510.6
471.933	513
472.347	526.2
472.761	525.6
473.175	517.6
473.568	521.8
473.982	513.4
474.397	517.2
474.79	518.4
475.204	522.6
475.619	513.4
476.033	522.6
476.426	518.2
476.841	517.2
477.256	548.6
477.649	521.8
478.064	511
478.479	511.8
478.872	518.6
479.287	501.2
479.702	516.4
480.118	518.2
480.511	519.6
480.927	521.6
481.342	515.6
481.736	524.6
482.151	510.2
482.566	526.6
482.96	518.6
483.376	526.8
483.792	514.4
484.186	528.8
484.602	518.8
485.017	526.4
485.412	523.2
485.827	534
486.243	517.2
486.638	535.4
487.054	530.8
487.47	535.6
487.865	515.4
488.281	521
488.697	515
489.092	521.6
489.508	512.4
489.925	531.6
490.32	512.8
490.736	522.2
491.153	528.6
491.548	521.6
491.964	530
492.381	514
492.776	531.8
493.193	524.8
493.61	525.8
494.006	520.8
494.422	527.4
494.84	510.8
495.235	534.8
495.652	517.8
496.069	507.6
496.465	509.4
496.883	516.2
497.3	537.2
497.696	518
498.113	526
498.509	506.4
498.927	506.6
499.344	511.8
499.741	514.2
500.158	529.8
500.576	527.8
500.973	515.8
501.39	509.4
501.787	514.6
502.205	522.4
502.623	519.8
503.02	518.8
503.438	509.4
503.856	517.2
504.253	517.2
504.671	522.8
505.068	516.6
505.486	519.8
505.905	535.6
506.302	522.8
506.72	532
507.118	509.6
507.536	513.2
507.955	513.2
508.352	524
508.771	518.8
509.169	527.4
509.587	510.8
510.006	518.4
510.404	508.2
510.823	512.2
511.221	517.4
511.64	515.4
512.038	525.6
512.457	517.2
512.877	515.6
513.275	514.4
513.694	513
514.092	512
514.512	517.6
514.91	523.2
515.33	511.2
515.749	512.4
516.148	515
516.568	514.4
516.966	510.2
517.386	510.2
517.785	508.6
518.205	510.4
518.603	512.6
519.024	498
519.444	518.6
519.843	519.6
520.263	527.4
520.662	510.4
521.082	515.6
521.481	522.6
521.902	514.4
522.301	523.2
522.722	526.4
523.121	511.4
523.542	505.8
523.963	519.2
524.362	521
524.783	515.8
525.183	518.6
525.604	523
526.003	506
526.425	509.4
526.824	521.2
527.246	524
527.646	523.6
528.067	513
528.467	512.8
528.888	518.6
529.289	515.6
529.71	518
530.11	509.2
530.532	512.8
530.932	508.4
531.354	511.6
531.755	536.2
532.176	521
532.577	516.8
532.999	519.4
533.4	517
533.822	518.2
534.223	518.6
534.645	509.6
535.046	509.2
535.468	509.6
535.869	527.6
536.292	503.2
536.693	548.2
537.115	515.4
537.516	519.2
537.939	513
538.34	529
538.742	530.2
539.165	516.2
539.566	514.6
539.989	509.2
540.391	504
540.814	512.2
541.216	516.6
541.639	513.4
542.041	522.2
542.464	511.4
542.866	506.6
543.268	509
543.691	526.4
544.093	518.8
544.517	538.6
544.919	509.2
545.343	534.6
545.745	511.4
546.147	519.8
546.571	511.8
546.974	511
547.398	516.4
547.8	523.4
548.224	519
548.627	504.2
549.03	511.6
549.454	504.2
549.857	503
550.281	511.8
550.684	510.8
551.087	525.8
551.512	515.4
551.915	517.8
552.34	515.6
552.743	507.6
553.146	513.4
553.571	518.4
553.975	530.2
554.399	506
554.803	554.2
555.207	509.2
555.632	511.6
556.036	515
556.461	512
556.865	522.4
557.268	518.6
557.694	505.6
558.098	514
558.502	516
558.927	506
559.332	517
559.736	513.2
560.162	520.4
560.566	495.6
560.992	517.4
561.396	520.2
561.801	507.8
562.227	512.8
562.631	508.8
563.036	512.8
563.462	518
563.867	509.6
564.272	506.4
564.698	522.6
565.103	499.4
565.508	528.4
565.935	512.6
566.34	503.2
566.745	526.4
567.172	522.4
567.577	528.6
567.982	532.6
568.409	523.4
568.815	504.2
569.22	519.4
569.626	519.6
570.053	494
570.459	510.2
570.865	524.6
571.292	521.2
571.698	515.2
572.104	507
572.531	503
572.937	513.8
573.343	519.8
573.75	502.8
574.177	509.4
574.583	509.6
574.99	508.8
575.396	515.4
575.824	506.4
576.231	512.6
576.637	505.2
577.065	533
577.472	513
577.879	510.6
578.286	526.4
578.714	508.6
579.121	509
579.528	517.4
579.935	521
580.364	516.2
580.771	500.6
581.178	505.8
581.585	510.6
582.014	517.4
582.421	517.6
582.829	519
583.236	525.8
583.644	508.6
584.073	513.8
584.481	516.4
584.889	512.4
585.296	509.6
585.726	512
586.134	501
586.542	508.6
586.95	524.6
587.358	506.2
587.787	512.2
588.196	509.8
588.604	510.8
589.012	506.6
589.421	503.8
589.851	505.2
590.259	509.6
590.668	512
591.076	547.8
591.485	509
591.894	512.2
592.324	519.8
592.733	513.4
593.142	502.6
593.551	516.4
593.96	542
594.369	502
594.8	502.6
595.209	511.4
595.618	499.8
596.028	506.6
596.437	500.8
596.847	515.4
597.256	520.2
597.687	520.2
598.097	523
598.507	505.2
598.917	516.4
599.327	518
599.736	516
600.146	520.4
600.556	526.2
600.988	536.4
601.398	512.4
601.808	526.8
602.219	517.6
602.629	523.2
603.039	522.2
603.45	543
603.86	520.8
604.271	533.8
604.703	528.2
605.114	525.4
605.525	526.2
605.935	527.6
606.346	543
606.757	531.8
607.168	527.4
607.579	520
607.99	535.8
608.402	529.2
608.813	542.2
609.224	529
609.636	520.2
610.047	531.2
610.48	533.8
610.892	534.4
611.303	544.6
611.715	534
612.127	532.2
612.539	531.4
612.95	544
613.362	530
613.774	532.6
614.186	529.8
614.599	538.2
615.011	551.2
615.423	542.8
615.835	538
616.248	539.2
616.66	545.2
617.073	543.2
617.485	542.4
617.898	551.6
618.311	553.4
618.723	545.8
619.136	570
619.549	561.4
619.962	566
620.375	548.4
620.788	552.8
621.201	543.4
621.614	563.6
622.028	546.8
622.441	560.8
622.854	561.2
623.268	546.8
623.681	552.4
624.095	555.8
624.509	562.8
624.922	557.6
625.336	544
625.728	553
626.142	563
626.556	566
626.97	561.6
627.384	553.6
627.799	560.4
628.213	562.8
628.627	551
629.041	552.2
629.456	543.4
629.87	556.8
630.285	564.2
630.699	558
631.093	555.8
631.507	559.2
631.922	557
632.337	563.2
632.752	541.6
633.167	540.6
633.582	546.8
633.997	554.2
634.412	548.4
634.806	557.6
635.221	544.8
635.637	554.2
636.052	542
636.468	544
636.883	557.4
637.299	553.2
637.715	536.4
638.109	546.8
638.525	541.8
638.941	551.8
639.357	551.6
639.773	550.4
640.189	545.4
640.584	540.6
641	536.6
641.416	532
641.832	539.4
642.249	533.6
642.665	536.2
643.06	544.2
643.477	554.4
643.894	530.8
644.31	539
644.727	531
645.123	530.4
645.54	539.4
645.957	541
646.374	542.6
646.77	528.8
647.187	558.2
647.604	535.4
648.021	519.8
648.439	529.2
648.835	530.6
649.252	530.4
649.67	525
650.088	529.2
650.484	526.8
650.902	536.4
651.32	532.4
651.738	520.6
652.134	523
652.552	543.6
652.971	522.4
653.389	525.4
653.786	536.4
654.204	523.4
654.622	522
655.019	520
655.438	524.6
655.857	529.6
656.275	529.6
656.673	520.8
657.091	528
657.51	517.6
657.908	533.4
658.327	531
658.746	510.4
659.144	513.4
659.563	529.8
659.982	522
660.38	512
660.8	521.4
661.219	523.8
661.617	519.6
662.037	522.4
662.457	527.4
662.855	507.8
663.275	542.6
663.695	515.2
664.094	512.4
664.514	517.4
664.934	508
665.333	521.4
665.753	517
666.152	504.6
666.572	508.8
666.993	512.2
667.392	513
667.812	512.4
668.212	503.8
668.632	522.6
669.053	515.4
669.453	507.6
669.874	513.2
670.273	511.4
670.694	503.4
671.116	519.6
671.515	524.2
671.937	515.2
672.337	512.6
672.758	514.2
673.158	517.6
673.58	505.4
673.98	517.4
674.402	518.4
674.824	508.8
675.224	514.2
675.646	503.8
676.047	501.8
676.469	516
676.869	512
677.292	513.2
677.693	511
678.115	510.8
678.516	509
678.939	514.2
679.34	507.8
679.762	512.2
680.164	511.6
680.586	507
680.988	515
681.411	530.8
681.812	506.4
682.236	502.6
682.637	507.4
683.061	507
683.462	515
683.864	507.4
684.288	512.8
684.69	504
685.114	516.4
685.516	518.4
685.94	495.6
686.342	508.2
686.766	504.4
687.168	507.2
687.571	524
687.995	507.8
688.398	496.8
688.822	503.6
689.225	513
689.628	515.8
690.052	500.6
690.456	513.2
690.88	509
691.284	501.8
691.687	505.8
692.112	497.2
692.515	498.2
692.919	508.6
693.344	508.6
693.747	508.2
694.173	506.6
694.577	518.8
694.98	510
695.406	500.6
695.81	502.2
696.214	513.4
696.64	505.6
697.044	506
697.448	510.8
697.874	510
698.279	503
698.684	495.8
699.11	490
699.514	502.4
699.919	512
700.324	498.8
700.75	513.6
701.156	510.6
701.561	511.6
701.987	520
702.393	510.8
702.798	511.6
703.203	510
703.63	504.2
704.036	501
704.442	508.4
704.847	500.4
705.274	502.6
705.68	515.2
706.086	507
706.492	499.2
706.92	506
707.326	504.2
707.732	505.6
708.139	501.6
708.545	495.8
708.973	498
709.38	497.8
709.786	492.6
710.193	508.8
710.6	503.8
711.028	498.8
711.435	498
711.842	498
712.249	486.2
712.656	504.4
713.064	506.8
713.492	503.6
713.9	497.2
714.307	501.8
714.715	512.4
715.123	502.4
715.53	517.6
715.938	510.8
716.367	503.6
716.775	500.8
717.184	505.8
717.592	499.6
718	508.2
718.408	533.8
718.816	537.6
719.225	504.4
719.633	509.4
720.042	497.2
720.472	502.4
720.881	521.2
721.29	507.2
721.699	493.8
722.108	504.4
722.517	509
722.926	503.6
723.335	510.2
723.744	508.4
724.154	501.4
724.563	508.4
724.973	509.6
725.382	500.6
725.792	504.8
726.202	497.4
726.612	510.4
727.022	507.8
727.432	500.2
779.813	499.6
780.223	536
780.634	501.4
781.044	487.8
781.454	503.6
781.865	509.8
782.276	494.8
782.686	505
783.097	498
783.508	501.8
783.919	505.2
784.33	519
784.741	508.4
785.152	499.2
785.563	486.2
785.974	498.2
786.386	509.2
786.776	498.2
787.188	497.4
787.599	502.2
788.011	508.2
788.423	507.8
788.835	500.2
789.247	504
789.659	492.4
790.071	499.2
790.483	538.6
790.874	498.2
791.286	509.4
791.699	507.2
792.111	502.6
792.524	505.8
792.937	502
793.349	496
793.741	501
794.154	498.6
794.567	515.2
794.98	499.4
795.393	498.8
795.785	520.4
796.198	503.2
796.612	509.8
797.026	496.8
797.439	492.2
797.831	502
798.245	491.8
798.659	503.2
799.073	498.2
799.487	495
799.88	505
800.294	502.6
800.708	501
801.123	504.6
801.516	516.8
801.93	493.4
802.345	486.8
802.76	503
803.153	511.2
803.568	512.6
803.983	508
804.377	502.8
804.792	495.2
805.207	491.2
805.601	507.4
806.016	532.2
806.432	499.6
806.826	526.4
807.242	507
807.658	504.6
808.052	499.2
808.468	493.2
808.884	498
809.279	493.8
809.695	504.8
810.111	519
810.506	503.2
810.922	512.6
811.339	495.8
811.734	507.8
812.151	497.4
812.546	490
812.963	496.6
813.38	509.8
813.776	503.2
814.193	515
814.589	499.6
815.006	497.4
815.402	494.8
815.82	506.6
816.237	496.6
816.633	507.4
817.051	484.6
817.448	503.6
817.866	495
818.262	517.8
818.68	496.2
819.077	495.8
819.495	501.6
819.892	531
820.311	488
820.708	498
821.127	498.4
821.524	506.8
821.943	500
822.34	521.4
822.759	496.4
823.157	502.4
823.576	508.2
823.974	502.2
824.393	592.4
824.791	500.8
825.189	501.4
825.609	498.6
826.007	501.8
826.427	493.6
826.826	498.8
827.246	516.6
827.644	486.2
828.043	512
828.463	486.6
828.862	510.4
829.261	502.8
829.682	489.8
830.081	503.4
830.502	495.2
830.901	499.6
831.301	498.4
831.722	496
832.121	505
832.521	493.8
832.943	495.6
833.342	499
833.742	492.8
834.164	504.2
834.564	499.6
834.965	506.2
835.386	496.4
835.787	498.4
836.188	499.6
836.588	495.8
837.01	504
837.411	492.4
837.812	496.8
838.213	502.4
838.636	485.6
839.037	547.4
839.438	503.8
839.84	495.4
840.263	503.6
840.664	498.4
841.066	496.8
841.468	499.2
841.891	498.2
842.293	511
842.695	502
843.098	510.8
843.5	497.6
843.902	499.2
844.326	497.4
844.729	501.6
845.131	516.2
845.534	501
845.937	511.6
846.34	515
846.764	496.4
847.167	505.4
847.571	486.6
847.974	494.6
848.377	500.6
848.781	540
849.184	513.4
849.588	502.2
849.992	498.4
850.396	502
850.821	521
851.225	501.4
851.63	496.8
852.034	514.8
852.438	495.2
852.843	518.2
853.247	495.6
853.652	495.4
854.057	510.8
854.462	506.8
854.867	497.6
855.272	519
855.677	499.4
856.082	491.4
856.487	495.6
