#lambda/nm	C1
208.295	462.6
208.67	435.2
209.045	396.6
209.419	399.2
209.794	545.2
210.169	527.2
210.544	626
210.919	549.8
211.295	524.8
211.67	536.8
212.045	529.8
212.421	534
212.796	566.8
213.172	533
213.547	534.6
213.923	531
214.299	536.6
214.675	541
215.051	539.6
215.427	546.2
215.803	550.8
216.179	542
216.555	538.8
216.932	544
217.308	534.8
217.684	539.8
218.061	541.2
218.438	535
218.814	534.6
219.191	547.4
219.568	529
219.945	539.8
220.322	542.6
220.699	538.4
221.076	539.4
221.453	539.4
221.83	533.8
222.208	532.8
222.585	534
222.962	542.2
223.34	539.2
223.717	533
224.095	535.4
224.473	541
224.851	534.6
225.229	531.4
225.607	555.8
225.985	532.4
226.363	538
226.741	539.2
227.119	535.8
227.497	545.6
227.876	532
228.254	540
228.633	543.8
229.011	542
229.39	538.8
229.769	535.4
230.148	540.6
230.527	554.6
230.905	536.6
231.284	544.4
231.664	532.8
232.043	555.2
232.422	551.8
232.801	531.6
233.181	535.8
233.56	542.6
233.94	540.2
234.319	529
234.699	542.6
235.079	575.2
235.458	566.4
235.838	548.6
236.218	529.6
236.598	524.4
236.978	540.8
237.358	534
237.738	527.6
238.119	543.2
238.499	532.2
238.88	538.8
239.26	546.2
239.641	522
240.021	532.6
240.402	535.8
240.783	543.2
241.163	540.2
241.544	536.6
241.925	534.8
242.306	541.6
242.687	533.4
243.069	540
243.45	539
243.831	534.8
244.212	536.6
244.594	565.8
244.975	535.6
245.357	537.2
245.739	528.8
246.12	536
246.502	544.8
246.884	528.6
247.266	532
247.648	538.6
248.03	558
248.412	533.4
248.794	544.6
249.176	529.2
249.559	546.6
249.941	532
250.323	532.4
250.706	538
251.089	538.8
251.471	532.8
251.854	537.6
252.237	539.2
252.62	543
253.002	541
253.385	529.6
253.769	554
254.152	538.8
254.535	542
254.918	527.6
255.301	528.4
255.685	533.4
256.068	533.6
256.452	552.4
256.835	543.2
257.219	542.8
257.603	546.8
257.986	530.6
258.37	547.8
258.754	523.2
259.138	541.4
259.522	551
259.906	537.8
260.29	535.2
260.675	536.4
261.059	532.6
261.443	520.2
261.828	535
262.212	538.8
262.597	535
262.981	536.6
263.366	541.2
263.751	538.4
264.136	535.4
264.521	532
264.906	534.4
265.291	537
265.676	535.4
266.061	547.4
266.446	551.6
266.831	542.2
267.217	545.2
267.602	548.2
267.987	535.4
268.373	537.4
268.759	544.2
269.144	536.4
269.53	539.2
269.916	533.4
270.302	537.2
270.688	544.8
271.074	540.2
271.46	542.8
271.846	560
272.232	537.6
272.618	526.6
273.004	536.8
273.391	545.4
273.777	537.2
274.164	535.8
274.55	545.8
274.937	544.2
275.324	533.8
275.71	547
276.097	543.8
276.484	528.6
276.871	536.6
277.258	544.4
277.645	525.4
278.032	537.4
278.419	530.4
278.807	533
279.194	533.2
279.581	532.8
279.969	544
280.356	545.6
280.744	541
281.131	554.2
281.519	538.6
281.907	526.8
282.295	535.6
282.682	551.6
283.07	539.2
283.458	547.8
283.846	546
284.235	543
284.623	538.2
285.011	537.6
285.399	544
285.788	543.2
286.176	532.4
286.565	541.8
286.953	524.6
287.342	532.8
287.731	531.2
288.119	526
288.508	538.6
288.897	541.6
289.286	521.2
289.675	538.4
290.064	541
290.453	533.6
290.821	537.8
291.21	550.8
291.599	524.2
291.989	537.6
292.378	537.8
292.768	546
293.157	538.4
293.547	546.6
293.936	534.4
294.326	530.6
294.716	537.4
295.106	524.8
295.496	537.2
295.886	538.2
296.276	538.8
296.666	525.4
297.056	532.6
297.446	520.4
297.836	541
298.227	537.8
298.617	538.6
299.008	548.2
299.398	529.6
299.789	522.6
300.179	536
300.57	540.6
300.961	530.4
301.352	532.4
301.742	535
302.133	538.8
302.524	535
302.915	537.4
303.307	530.2
303.698	550.2
304.089	543.4
304.48	535.2
304.872	541
305.263	530.2
305.655	536.6
306.046	543.8
306.438	535.4
306.829	537.8
307.221	548.6
307.613	544
308.005	542.6
308.397	546.8
308.789	550.4
309.181	559.2
309.573	550.4
309.965	543
310.357	532.4
310.749	549.6
311.142	532.6
311.534	531.2
311.926	534.2
312.319	537.6
312.711	528.6
313.104	543
313.497	534.2
313.889	566
314.282	552.8
314.675	550
315.068	541.2
315.461	540.8
315.854	561.6
316.247	535.4
316.64	537.6
317.033	529
317.405	543.8
317.798	539.6
318.192	543
318.585	528.4
318.979	536
319.372	538.8
319.766	531.6
320.16	546
320.553	542
320.947	554
321.341	526
321.735	539
322.129	529.2
322.523	551
322.917	532.6
323.311	546.8
323.705	546.2
324.099	543.2
324.494	551.8
324.888	547.4
325.282	530.6
325.677	541
326.071	541.8
326.466	541.2
326.861	542.4
327.255	549.6
327.65	542
328.045	556.6
328.44	537
328.835	540
329.23	540.6
329.625	553.6
330.02	533.8
330.415	546.6
330.81	533.4
331.206	537.4
331.601	536.8
331.996	547.2
332.37	554.8
332.766	538.6
333.161	548.6
333.557	536.2
333.953	537.4
334.348	882
334.744	536.2
335.14	533
335.536	532.8
335.932	543.8
336.328	538.6
336.724	546.6
337.12	536
337.516	536.8
337.913	537.4
338.309	548.4
338.705	527.6
339.102	542.8
339.498	530.6
339.895	547.6
340.291	530.8
340.688	545.4
341.085	521.4
341.481	540
341.878	532.2
342.275	555
342.672	525
343.069	534.2
343.466	531.4
343.842	544.4
344.239	532
344.636	532.4
345.033	528.2
345.431	529.2
345.828	538
346.225	530.8
346.623	560.6
347.02	535
347.418	539.6
347.816	551.2
348.213	525.6
348.611	533.6
349.009	533.6
349.407	542
349.805	517.8
350.203	524.8
350.601	546
350.999	527.8
351.397	578.8
351.795	532.2
352.193	543.2
352.57	544.2
352.969	543.6
353.367	525.6
353.766	528.4
354.164	532.8
354.563	541.4
354.961	527.6
355.36	524
355.759	530.4
356.158	529.4
356.557	526.6
356.956	523.6
357.355	520.8
357.754	532
358.153	531.6
358.552	549.6
358.951	526.4
359.35	543.2
359.75	527
360.149	524.8
360.527	523
360.926	524.2
361.326	532.4
361.726	528.8
362.125	525
362.525	531.8
362.925	529.6
363.325	534.8
363.724	536.2
364.124	527.4
364.524	528.2
364.924	530.2
365.324	544.8
365.725	522
366.125	535.2
366.525	528.8
366.904	529.2
367.304	517.8
367.705	548
368.105	541.4
368.506	526.2
368.906	537.4
369.307	527
369.708	537.6
370.108	520.2
370.509	541.8
370.91	522.4
371.311	532.4
371.712	527.4
372.113	527.4
372.514	518.4
372.894	529.4
373.295	521.2
373.696	532
374.097	536.4
374.499	556.6
374.9	525.2
375.301	519.4
375.703	527
376.105	525.8
376.506	535.8
376.908	536.4
377.309	536.8
377.711	529
378.113	525
378.493	532.4
378.895	529.2
379.297	542.8
379.699	518
380.102	532.2
380.504	518.8
380.906	528.6
381.308	542.8
381.71	523.8
382.113	539.8
382.515	525.8
382.918	533.6
383.299	528.8
383.701	532.8
384.104	528.4
384.507	516.8
384.909	530.4
385.312	523.8
385.715	515.2
386.118	523.6
386.521	514.6
386.924	522.8
387.327	519.4
387.709	518
388.112	514.6
388.515	523.6
388.918	528
389.322	525.8
389.725	522.4
390.129	534.2
390.532	530.8
390.936	520.8
391.339	517.8
391.743	530
392.125	517.8
392.529	532.6
392.933	539.6
393.337	525.4
393.74	520.6
394.144	523.8
394.548	526.8
394.953	527.2
395.357	537
395.761	525.2
396.144	526.4
396.548	523.2
396.952	523
397.357	527.4
397.761	521
398.166	523
398.57	521.6
398.975	510.4
399.379	519
399.763	557.4
400.168	524.4
400.572	519.2
400.977	518.4
401.382	537.4
401.787	537.8
402.192	546.4
402.597	542.6
403.002	516.2
403.386	535
403.791	546
404.197	525.8
404.602	520.4
405.007	528.2
405.413	525.4
405.818	531
406.224	524
406.608	529.4
407.014	519.4
407.42	546.8
407.825	521.2
408.231	532.8
408.637	526.6
409.043	541.8
409.449	519.8
409.834	527.6
410.24	525
410.646	534.2
411.052	535.8
411.458	527.4
411.865	531.4
412.271	539.8
412.677	522.6
413.062	532.4
413.469	512.2
413.875	536.4
414.282	542.4
414.689	531.6
415.095	540
415.502	526.6
415.888	538.2
416.294	517.6
416.701	555.2
417.108	525.4
417.515	526.2
417.923	525.8
418.33	551.8
418.715	541.8
419.123	523.6
419.53	531.4
419.937	530.2
420.345	544.6
420.752	523.4
421.16	536
421.546	534.4
421.953	534.8
422.361	517.4
422.769	529.2
423.177	524.4
423.585	551.2
423.992	549.8
424.379	538
424.787	537.6
425.195	552.2
425.603	529.2
426.011	541.6
426.419	540.4
426.806	531.6
427.214	534.2
427.623	537
428.031	549.4
428.44	532.2
428.848	542
429.235	537.6
429.644	531.6
430.053	535
430.461	538.8
430.87	554.2
431.279	536.2
431.666	525.8
432.075	529
432.484	534
432.893	535.6
433.302	538.6
433.711	566.8
434.099	527.2
434.508	534.4
434.918	516.8
435.327	532.8
435.737	540.2
436.125	534.4
436.534	534.6
436.944	531.4
437.353	536.4
437.763	556
438.173	521.4
438.561	540.2
438.971	525.8
439.381	526.8
439.791	530.2
440.201	516.4
440.589	527.4
440.999	535.4
441.409	541.2
441.819	518.4
442.23	537.4
442.619	528.4
443.029	535.4
443.439	527.6
443.85	534.8
444.26	542.2
444.649	533.6
445.06	531.4
445.471	528
445.881	529.6
446.292	539
446.682	546.4
447.092	524.6
447.503	569.4
447.914	532
448.325	524.2
448.715	522.2
449.126	526.6
449.537	526.8
449.948	518.4
450.338	522
450.75	538.2
451.161	530
451.572	529.2
451.984	522.2
452.374	508.6
452.786	523.6
453.197	523.4
453.609	527.4
453.999	520.2
454.411	520.8
454.823	531
455.235	526.2
455.647	526
456.037	522.4
456.449	507.4
456.862	522.8
457.274	529.8
457.665	522
458.077	532
458.489	547.8
458.902	522.6
459.293	523.8
459.705	530.2
460.118	522.4
460.53	525.4
460.921	521.2
461.334	528.2
461.747	520.2
462.16	532.6
462.551	530.6
462.964	531.8
463.377	512
463.79	526.4
464.182	528.2
464.595	520.4
465.008	527.4
465.421	526
465.813	518.6
466.226	526.4
466.64	517.4
467.053	565
467.445	531.4
467.859	533.2
468.272	526.4
468.686	527
469.078	509.2
469.492	512.6
469.906	528
470.298	527.6
470.712	518.6
471.126	544.2
471.54	508.2
471.933	512.2
472.347	532.2
472.761	512
473.175	515.4
473.568	520.2
473.982	516.4
474.397	527.4
474.79	524
475.204	528.2
475.619	523.4
476.033	528.6
476.426	514.2
476.841	527
477.256	546.4
477.649	517.4
478.064	512.6
478.479	517
478.872	516.8
479.287	507.8
479.702	522.2
480.118	517.4
480.511	522.8
480.927	519
481.342	521.6
481.736	528
482.151	517.4
482.566	525.4
482.96	519.6
483.376	521.8
483.792	511.6
484.186	522.6
484.602	515.6
485.017	514.4
485.412	515.6
485.827	524.6
486.243	519.2
486.638	537.2
487.054	525.2
487.47	528.8
487.865	516.2
488.281	515.8
488.697	513.6
489.092	514
489.508	515.2
489.925	522
490.32	508.2
490.736	530.2
491.153	528.4
491.548	525.2
491.964	524.2
492.381	501.4
492.776	517.4
493.193	511.4
493.61	525.4
494.006	525
494.422	524.8
494.84	516.8
495.235	523.2
495.652	517.4
496.069	515.6
496.465	511.4
496.883	513.8
497.3	535.4
497.696	511.6
498.113	524.2
498.509	516.6
498.927	511
499.344	519.4
499.741	506.2
500.158	524.4
500.576	520
500.973	528.6
501.39	506.6
501.787	513.6
502.205	522.2
502.623	512
503.02	514.4
503.438	514.2
503.856	523
504.253	520.4
504.671	516.8
505.068	513.4
505.486	508.6
505.905	532.8
506.302	515.8
506.72	528.6
507.118	516.6
507.536	515.4
507.955	507.8
508.352	514.4
508.771	524.2
509.169	519
509.587	514.2
510.006	514.6
510.404	504.2
510.823	510
511.221	510.4
511.64	513
512.038	519.2
512.457	504
512.877	520.8
513.275	507.4
513.694	514.8
514.092	510.2
514.512	519.2
514.91	515.2
515.33	516.2
515.749	518.6
516.148	513.8
516.568	519.2
516.966	518.4
517.386	519.4
517.785	521.8
518.205	513
518.603	514.6
519.024	510.2
519.444	521.2
519.843	525.2
520.263	526.2
520.662	528.2
521.082	513.8
521.481	509.8
521.902	515.8
522.301	514.2
522.722	514.2
523.121	517
523.542	514.6
523.963	517.4
524.362	514.8
524.783	519.2
525.183	514.8
525.604	520.6
526.003	512.4
526.425	512.4
526.824	520.6
527.246	521.6
527.646	524.6
528.067	523.4
528.467	523.4
528.888	522.4
529.289	515
529.71	522.6
530.11	510.6
530.532	508
530.932	509
531.354	510.4
531.755	543.2
532.176	520.2
532.577	520.4
532.999	526.4
533.4	511.6
533.822	521.8
534.223	512.8
534.645	515.6
535.046	516.6
535.468	509.2
535.869	526
536.292	510.4
536.693	546.4
537.115	516.6
537.516	518
537.939	512
538.34	526.4
538.742	528.4
539.165	514.8
539.566	519.2
539.989	516.2
540.391	510.4
540.814	518.8
541.216	517.2
541.639	520.2
542.041	518
542.464	516.6
542.866	518.6
543.268	506.2
543.691	518.8
544.093	517.6
544.517	527.8
544.919	512.4
545.343	534.8
545.745	511.6
546.147	516.4
546.571	511.6
546.974	509.8
547.398	513.8
547.8	524.8
548.224	516
548.627	509.2
549.03	518.6
549.454	504.6
549.857	501
550.281	504.4
550.684	514.2
551.087	519.8
551.512	518.8
551.915	520.4
552.34	514.2
552.743	511.6
553.146	518.8
553.571	519
553.975	529.4
554.399	515.6
554.803	553.8
555.207	509.8
555.632	507.4
556.036	524.4
556.461	508
556.865	510
557.268	506.6
557.694	512.8
558.098	517.6
558.502	519.6
558.927	512.2
559.332	517.4
559.736	515.4
560.162	521.4
560.566	514
560.992	518.8
561.396	519.4
561.801	508.2
562.227	516.4
562.631	509.2
563.036	516.6
563.462	521.4
563.867	514.2
564.272	500.2
564.698	519.8
565.103	501.4
565.508	527
565.935	508.4
566.34	518.4
566.745	518.4
567.172	510.4
567.577	529.2
567.982	531.2
568.409	521
568.815	501
569.22	516
569.626	523
570.053	502.4
570.459	522.8
570.865	518.2
571.292	523
571.698	513
572.104	507.6
572.531	510.6
572.937	519.4
573.343	511.4
573.75	511
574.177	519
574.583	521.4
574.99	509.6
575.396	520.4
575.824	510.2
576.231	516.8
576.637	513.4
577.065	538.6
577.472	507.4
577.879	517.6
578.286	522.2
578.714	508.2
579.121	504.8
579.528	509.4
579.935	519.6
580.364	506.4
580.771	502.4
581.178	508.2
581.585	514
582.014	519.4
582.421	507.4
582.829	506.2
583.236	516.2
583.644	502.8
584.073	514.4
584.481	508
584.889	502.8
585.296	512.6
585.726	511.6
586.134	504.4
586.542	504.8
586.95	527.8
587.358	503
587.787	513.4
588.196	503
588.604	507.8
589.012	507.2
589.421	496.2
589.851	510.2
590.259	515.2
590.668	502.8
591.076	541.2
591.485	500.2
591.894	510.2
592.324	517.2
592.733	526
593.142	501.4
593.551	511
593.96	514
594.369	495.8
594.8	508
595.209	509.2
595.618	493
596.028	509.8
596.437	499
596.847	507
597.256	518.4
597.687	513.2
598.097	515.6
598.507	506
598.917	515.4
599.327	517
599.736	513.6
600.146	523.6
600.556	514.6
600.988	530.2
601.398	509.6
601.808	521.4
602.219	504
602.629	520.4
603.039	514.6
603.45	532
603.86	519.8
604.271	534.4
604.703	521.4
605.114	514.8
605.525	516.4
605.935	528.4
606.346	538.6
606.757	523.8
607.168	519
607.579	516.4
607.99	533.2
608.402	524.6
608.813	528.4
609.224	516.8
609.636	517
610.047	511.6
610.48	529.6
610.892	532.2
611.303	536.6
611.715	525.4
612.127	526
612.539	534.2
612.95	526.2
613.362	521.8
613.774	528.2
614.186	532.6
614.599	537
615.011	542.8
615.423	539
615.835	524.8
616.248	536
616.66	539.8
617.073	527.8
617.485	537.6
617.898	550.4
618.311	540.8
618.723	544
619.136	563
619.549	546.2
619.962	559.4
620.375	543.2
620.788	546.6
621.201	546
621.614	556.6
622.028	545.8
622.441	544.2
622.854	563.6
623.268	543
623.681	559.2
624.095	555.2
624.509	565.6
624.922	560.6
625.336	537.4
625.728	557
626.142	558.2
626.556	569
626.97	555.4
627.384	551
627.799	552.4
628.213	571.4
628.627	554
629.041	550
629.456	547.4
629.87	560
630.285	557.2
630.699	560.6
631.093	553.4
631.507	560.8
631.922	557.8
632.337	564.8
632.752	545.4
633.167	551.8
633.582	551
633.997	552.2
634.412	547.2
634.806	555.2
635.221	550.2
635.637	555.2
636.052	544.4
636.468	553.8
636.883	572.4
637.299	555.4
637.715	540.2
638.109	557.2
638.525	534.6
638.941	557
639.357	544.2
639.773	557.2
640.189	543
640.584	544.2
641	546.6
641.416	536.6
641.832	543.8
642.249	539
642.665	542.2
643.06	542.8
643.477	549.2
643.894	537.4
644.31	537.6
644.727	541.6
645.123	533.4
645.54	526.8
645.957	531.4
646.374	545.4
646.77	533.2
647.187	559
647.604	537.2
648.021	518.6
648.439	525.2
648.835	537.6
649.252	531.8
649.67	534.2
650.088	533.8
650.484	541.8
650.902	533.2
651.32	539
651.738	530.4
652.134	527.2
652.552	544
652.971	526.4
653.389	528
653.786	532.4
654.204	534.6
654.622	526.6
655.019	533
655.438	527.6
655.857	522.8
656.275	529.8
656.673	522.4
657.091	540
657.51	520.4
657.908	536.8
658.327	533
658.746	520
659.144	520.6
659.563	529
659.982	526.2
660.38	516
660.8	521.4
661.219	528.2
661.617	523.8
662.037	524.2
662.457	524.4
662.855	517
663.275	545.2
663.695	523.2
664.094	515.6
664.514	518.6
664.934	519.6
665.333	524
665.753	513.6
666.152	514.6
666.572	514.2
666.993	520
667.392	510
667.812	515
668.212	515
668.632	522.8
669.053	512.2
669.453	519.4
669.874	521.4
670.273	516.4
670.694	512.6
671.116	519
671.515	521.2
671.937	518.4
672.337	519.8
672.758	515.2
673.158	522.4
673.58	503.8
673.98	509.8
674.402	518.2
674.824	519.4
675.224	503.8
675.646	497.8
676.047	502
676.469	510
676.869	509.6
677.292	517.4
677.693	503.8
678.115	509.6
678.516	516.4
678.939	519
679.34	508.8
679.762	514.8
680.164	515.2
680.586	504.2
680.988	513.8
681.411	531.2
681.812	507.8
682.236	499
682.637	507.8
683.061	504
683.462	516.4
683.864	503.6
684.288	510
684.69	502.4
685.114	514.8
685.516	517.4
685.94	497.6
686.342	512
686.766	496.8
687.168	502.2
687.571	514.6
687.995	504.4
688.398	492.4
688.822	504.2
689.225	518.6
689.628	515.8
690.052	503.8
690.456	513
690.88	504
691.284	494.2
691.687	513
692.112	499.2
692.515	503.4
692.919	514.4
693.344	506.2
693.747	500.8
694.173	508.4
694.577	514.2
694.98	501.8
695.406	511.6
695.81	514
696.214	503.4
696.64	508.6
697.044	508.2
697.448	513.4
697.874	507.2
698.279	506.2
698.684	500.4
699.11	499.4
699.514	505.4
699.919	499.4
700.324	504.4
700.75	508.8
701.156	508.2
701.561	515
701.987	501.8
702.393	508.6
702.798	518.2
703.203	506.4
703.63	494.6
704.036	502.2
704.442	511.8
704.847	496.2
705.274	509.6
705.68	502
706.086	515.6
706.492	491.4
706.92	505
707.326	507.8
707.732	501.2
708.139	503.4
708.545	503.2
708.973	501.6
709.38	508
709.786	504.6
710.193	529
710.6	509.4
711.028	503.4
711.435	501.4
711.842	512.6
712.249	504.4
712.656	511.4
713.064	516
713.492	506.4
713.9	509
714.307	507.4
714.715	510
715.123	498.8
715.53	507
715.938	517
716.367	513
716.775	512.2
717.184	498.4
717.592	504.6
718	513.6
718.408	532.4
718.816	539.4
719.225	511.2
719.633	506.2
720.042	500.2
720.472	510
720.881	517.4
721.29	514.8
721.699	504.6
722.108	509.2
722.517	515.2
722.926	494.2
723.335	514
723.744	507.6
724.154	505.8
724.563	509.6
724.973	512
725.382	508.8
725.792	508.2
726.202	495.6
726.612	517.2
727.022	502.8
727.432	500.4
779.813	500
780.223	543.4
780.634	507.8
781.044	495
781.454	504.6
781.865	518
782.276	501.4
782.686	519.4
783.097	507
783.508	494.6
783.919	509.4
784.33	510.4
784.741	515.6
785.152	496.4
785.563	492.6
785.974	503.6
786.386	511.4
786.776	495
787.188	501.2
787.599	496.4
788.011	517.8
788.423	513.8
788.835	498
789.247	497.2
789.659	494.4
790.071	500.8
790.483	544.2
790.874	496
791.286	507.6
791.699	498.6
792.111	503.4
792.524	500.8
792.937	506
793.349	492.8
793.741	494.2
794.154	502.4
794.567	513.2
794.98	502.8
795.393	490.8
795.785	512.4
796.198	494.2
796.612	501
797.026	497
797.439	487.6
797.831	503
798.245	495.8
798.659	503.4
799.073	494.8
799.487	500
799.88	503.4
800.294	502.6
800.708	511.6
801.123	507
801.516	516
801.93	492.6
802.345	491.2
802.76	503.8
803.153	516
803.568	515.6
803.983	515
804.377	500.6
804.792	495.4
805.207	486
805.601	498.6
806.016	535.8
806.432	500
806.826	522.4
807.242	519
807.658	504.6
808.052	504.6
808.468	495.8
808.884	495.6
809.279	499.2
809.695	506.6
810.111	522
810.506	500.2
810.922	520.6
811.339	497.6
811.734	511.4
812.151	503
812.546	494.8
812.963	491.6
813.38	506.8
813.776	505.2
814.193	517.6
814.589	500.4
815.006	509.2
815.402	489.2
815.82	494.6
816.237	503
816.633	498.2
817.051	490
817.448	504
817.866	482.8
818.262	514.8
818.68	495
819.077	498.8
819.495	502.6
819.892	534.6
820.311	497.6
820.708	498.4
821.127	497.4
821.524	514.2
821.943	505.4
822.34	511.6
822.759	503.2
823.157	499.4
823.576	506
823.974	504.8
824.393	561.4
824.791	497.6
825.189	499.8
825.609	502
826.007	508.2
826.427	487
826.826	495.8
827.246	505.6
827.644	488
828.043	513.6
828.463	493
828.862	517.6
829.261	504
829.682	490.8
830.081	508.2
830.502	495.4
830.901	506
831.301	493.4
831.722	499.6
832.121	492
832.521	490.4
832.943	497
833.342	497.4
833.742	487.8
834.164	496.6
834.564	492.4
834.965	503.4
835.386	491.2
835.787	498.2
836.188	496.6
836.588	495.4
837.01	497.2
837.411	489.6
837.812	505.6
838.213	504.4
838.636	492.2
839.037	557.8
839.438	495
839.84	500.4
840.263	503.8
840.664	499.4
841.066	504.2
841.468	500.8
841.891	500.2
842.293	515.4
842.695	515
843.098	501.6
843.5	505
843.902	509.6
844.326	507
844.729	502.8
845.131	509.6
845.534	502.2
845.937	514.8
846.34	518.8
846.764	495.2
847.167	496.8
847.571	499
847.974	502.6
848.377	493.8
848.781	536.8
849.184	506.2
849.588	493.4
849.992	498.6
850.396	504.6
850.821	512
851.225	498.6
851.63	494.2
852.034	514.8
852.438	502.4
852.843	551.8
853.247	485.6
853.652	502
854.057	511.4
854.462	500.4
854.867	503.4
855.272	524.8
855.677	502.4
856.082	494.6
