#lambda/nm	C1
208.295	466.2
208.67	433.2
209.045	395
209.419	403.4
209.794	539.6
210.169	523.2
210.544	622.2
210.919	534
211.295	524.2
211.67	544.8
212.045	529.8
212.421	531.6
212.796	566.6
213.172	526.6
213.547	535.6
213.923	530.4
214.299	531.6
214.675	537.4
215.051	534.8
215.427	537.4
215.803	552.6
216.179	543.4
216.555	534
216.932	556.6
217.308	534.8
217.684	532
218.061	536.8
218.438	539.6
218.814	530.4
219.191	542
219.568	528.6
219.945	523.6
220.322	544.4
220.699	533.4
221.076	550.2
221.453	539.4
221.83	526
222.208	528.2
222.585	529.4
222.962	537.8
223.34	541.8
223.717	536.6
224.095	526.6
224.473	535.4
224.851	536.8
225.229	529.6
225.607	560.8
225.985	534.2
226.363	544.6
226.741	535
227.119	525.2
227.497	554.2
227.876	519.8
228.254	551.6
228.633	542.8
229.011	537.4
229.39	542.6
229.769	539.4
230.148	552.6
230.527	555.6
230.905	534.8
231.284	548.6
231.664	540.2
232.043	547.6
232.422	551
232.801	538.4
233.181	542.2
233.56	529.6
233.94	537.8
234.319	534.2
234.699	530.6
235.079	566.6
235.458	571.6
235.838	553.4
236.218	528.8
236.598	525.8
236.978	527.2
237.358	524.4
237.738	533
238.119	541.2
238.499	527.8
238.88	532
239.26	543.2
239.641	532.4
240.021	530.2
240.402	538.6
240.783	534.2
241.163	542.2
241.544	541.4
241.925	536.2
242.306	545.2
242.687	530
243.069	537
243.45	542.6
243.831	531.8
244.212	536.4
244.594	570.4
244.975	545.2
245.357	537
245.739	535.8
246.12	540.6
246.502	541
246.884	534.2
247.266	536.4
247.648	542
248.03	553.6
248.412	532.8
248.794	545.6
249.176	535.8
249.559	547
249.941	529.4
250.323	538.4
250.706	536.6
251.089	545.2
251.471	543.4
251.854	542
252.237	537.4
252.62	545.4
253.002	543.8
253.385	538.4
253.769	550.8
254.152	540.8
254.535	544.8
254.918	536.2
255.301	532.2
255.685	534
256.068	531.2
256.452	556
256.835	543.4
257.219	539
257.603	555.6
257.986	533.8
258.37	545.8
258.754	526.4
259.138	542.2
259.522	552.8
259.906	538
260.29	535.6
260.675	537.8
261.059	541.2
261.443	523.8
261.828	544.4
262.212	546
262.597	527.2
262.981	531.2
263.366	548
263.751	540
264.136	533.2
264.521	536
264.906	533.8
265.291	546.4
265.676	539
266.061	549.2
266.446	555.4
266.831	533
267.217	554.2
267.602	546
267.987	539.2
268.373	532.6
268.759	545
269.144	545.8
269.53	531.6
269.916	536.8
270.302	535
270.688	541.2
271.074	537.2
271.46	555.6
271.846	562.4
272.232	541.2
272.618	529.2
273.004	532.8
273.391	549
273.777	550.6
274.164	537.8
274.55	550.6
274.937	536.2
275.324	533.6
275.71	550.2
276.097	539.6
276.484	534.6
276.871	544.2
277.258	552.2
277.645	531.4
278.032	541.8
278.419	537.2
278.807	538.2
279.194	536.4
279.581	532
279.969	540.6
280.356	532.8
280.744	536
281.131	557.6
281.519	546
281.907	535.8
282.295	527.6
282.682	546.8
283.07	536.6
283.458	538.8
283.846	551.8
284.235	546.2
284.623	544.2
285.011	526
285.399	540.2
285.788	530.2
286.176	525.8
286.565	541.2
286.953	530.2
287.342	535
287.731	534
288.119	527.6
288.508	530.4
288.897	537
289.286	527.2
289.675	545.4
290.064	543.4
290.453	543.2
290.821	536
291.21	547.6
291.599	538.4
291.989	544.2
292.378	546.8
292.768	547.8
293.157	542.4
293.547	540
293.936	532.8
294.326	528.4
294.716	537
295.106	535.4
295.496	541.4
295.886	541.8
296.276	531.4
296.666	537.2
297.056	536
297.446	524.6
297.836	544
298.227	534.4
298.617	542.2
299.008	548.4
299.398	534
299.789	540.4
300.179	539.2
300.57	549
300.961	531
301.352	540
301.742	540.4
302.133	541.4
302.524	538.6
302.915	545.2
303.307	527.4
303.698	544.6
304.089	534.2
304.48	535.8
304.872	540.2
305.263	541.2
305.655	534.6
306.046	538.8
306.438	536.8
306.829	530.6
307.221	549
307.613	545.8
308.005	544
308.397	543.6
308.789	543
309.181	545
309.573	552.4
309.965	544.8
310.357	531.8
310.749	549
311.142	529.8
311.534	536
311.926	537.6
312.319	533.2
312.711	519.6
313.104	538.8
313.497	533.2
313.889	565.8
314.282	547
314.675	564.6
315.068	539.6
315.461	541.2
315.854	558.2
316.247	539.4
316.64	536.4
317.033	532.4
317.405	532.8
317.798	534.6
318.192	533.4
318.585	538.8
318.979	539
319.372	534
319.766	536.2
320.16	548.2
320.553	550.8
320.947	553.2
321.341	538.2
321.735	536.4
322.129	533
322.523	551.4
322.917	525.6
323.311	548.6
323.705	536.8
324.099	551.4
324.494	550
324.888	542.6
325.282	533.8
325.677	544.6
326.071	541.8
326.466	544.2
326.861	542.6
327.255	547
327.65	542.4
328.045	554.6
328.44	541.8
328.835	538.4
329.23	532.2
329.625	559.6
330.02	535.4
330.415	558.4
330.81	539.4
331.206	541
331.601	534.6
331.996	540.4
332.37	557
332.766	528.4
333.161	556.2
333.557	537
333.953	538.6
334.348	802.2
334.744	529.4
335.14	533
335.536	535.8
335.932	546.4
336.328	540.4
336.724	544.6
337.12	533.6
337.516	536.4
337.913	536.6
338.309	546.6
338.705	538.6
339.102	543.8
339.498	531.2
339.895	548.6
340.291	535
340.688	546.2
341.085	529.8
341.481	535.2
341.878	540.4
342.275	558.2
342.672	533
343.069	532.8
343.466	525.4
343.842	552.2
344.239	529.8
344.636	533.8
345.033	536.4
345.431	533.6
345.828	536
346.225	535.8
346.623	558.6
347.02	529.2
347.418	540.8
347.816	547
348.213	530
348.611	538.2
349.009	530.4
349.407	535.4
349.805	530.8
350.203	524.8
350.601	543.6
350.999	540
351.397	572.6
351.795	531.4
352.193	543.8
352.57	532.6
352.969	539.8
353.367	526.4
353.766	528.2
354.164	530.4
354.563	537
354.961	541
355.36	530.6
355.759	537.2
356.158	520.4
356.557	534
356.956	533.8
357.355	519.8
357.754	537.2
358.153	544.2
358.552	558
358.951	534.6
359.35	551.4
359.75	531.6
360.149	521.8
360.527	525.4
360.926	527.2
361.326	528.8
361.726	534
362.125	524.2
362.525	547.6
362.925	532.2
363.325	529.6
363.724	535.6
364.124	526.4
364.524	526
364.924	528.6
365.324	539.4
365.725	519
366.125	531.6
366.525	537.2
366.904	523
367.304	522
367.705	546.6
368.105	538
368.506	525
368.906	534
369.307	530.8
369.708	540.8
370.108	522
370.509	534.6
370.91	522.6
371.311	531
371.712	528.8
372.113	531.2
372.514	524.6
372.894	527.6
373.295	529.8
373.696	543.6
374.097	534.4
374.499	553.8
374.9	539.2
375.301	523.6
375.703	534.8
376.105	522.4
376.506	536.6
376.908	534
377.309	532.6
377.711	524.2
378.113	523.2
378.493	532.4
378.895	529.4
379.297	539
379.699	519.8
380.102	536.4
380.504	530.6
380.906	517.6
381.308	552
381.71	529.8
382.113	534.6
382.515	531
382.918	530.8
383.299	529.8
383.701	533.8
384.104	528.4
384.507	511.4
384.909	524.4
385.312	522.6
385.715	516.8
386.118	528.4
386.521	517.8
386.924	535
387.327	523.4
387.709	519.2
388.112	518.8
388.515	528.4
388.918	521.8
389.322	528.4
389.725	527
390.129	549.8
390.532	527.4
390.936	531
391.339	517.6
391.743	527.4
392.125	527.6
392.529	534.4
392.933	531.6
393.337	531.2
393.74	524.6
394.144	531
394.548	529.4
394.953	521.6
395.357	536
395.761	524.4
396.144	528.2
396.548	528.2
396.952	535.8
397.357	527.6
397.761	538
398.166	533
398.57	537.6
398.975	523.6
399.379	534.4
399.763	567
400.168	530.8
400.572	526.4
400.977	523.8
401.382	545
401.787	535.4
402.192	537.2
402.597	542
403.002	509
403.386	539
403.791	541.2
404.197	517.6
404.602	522
405.007	520.2
405.413	520.8
405.818	528.4
406.224	520
406.608	525
407.014	520
407.42	532.4
407.825	520.4
408.231	538.8
408.637	525.2
409.043	532
409.449	518.8
409.834	520.2
410.24	524.8
410.646	540.2
411.052	535
411.458	531.6
411.865	520.6
412.271	532.8
412.677	525
413.062	525.4
413.469	521
413.875	544
414.282	535.4
414.689	531.6
415.095	530.8
415.502	518.8
415.888	528.6
416.294	522.2
416.701	554.2
417.108	527.4
417.515	535
417.923	523.4
418.33	542.4
418.715	536.8
419.123	528.4
419.53	524
419.937	531.8
420.345	532.8
420.752	532.2
421.16	544.4
421.546	526.6
421.953	546.6
422.361	529.6
422.769	529
423.177	518.8
423.585	556.6
423.992	544.2
424.379	555.6
424.787	538.8
425.195	546.8
425.603	534.8
426.011	547.4
426.419	545.6
426.806	530.4
427.214	526.4
427.623	546.4
428.031	547.4
428.44	531.6
428.848	539.8
429.235	541.6
429.644	522.6
430.053	529.2
430.461	539
430.87	550.2
431.279	542.4
431.666	524.2
432.075	526
432.484	532
432.893	522.4
433.302	526.2
433.711	561.6
434.099	532.8
434.508	533.6
434.918	527
435.327	537
435.737	540
436.125	532.2
436.534	531.8
436.944	533
437.353	531
437.763	546.6
438.173	523
438.561	536.2
438.971	520.2
439.381	520.4
439.791	534.2
440.201	518.6
440.589	529.8
440.999	536.6
441.409	528.6
441.819	518
442.23	536
442.619	538.6
443.029	524
443.439	528.2
443.85	533.2
444.26	545.4
444.649	537.2
445.06	523
445.471	523.8
445.881	527.6
446.292	542.8
446.682	540.2
447.092	517.2
447.503	576
447.914	526.2
448.325	532.2
448.715	527.2
449.126	520.6
449.537	535.4
449.948	531.4
450.338	521.8
450.75	527.2
451.161	521.4
451.572	532
451.984	532.2
452.374	521.4
452.786	530.2
453.197	528
453.609	531.2
453.999	516.8
454.411	520.8
454.823	532.2
455.235	533.6
455.647	525.2
456.037	532.2
456.449	518
456.862	526.8
457.274	524.8
457.665	529
458.077	528
458.489	558.4
458.902	520.6
459.293	527
459.705	532
460.118	520.4
460.53	528.2
460.921	525.8
461.334	531.4
461.747	529.8
462.16	540.4
462.551	538
462.964	530.2
463.377	512.6
463.79	516.2
464.182	540.2
464.595	521.6
465.008	534
465.421	527.2
465.813	530.8
466.226	534.4
466.64	527.2
467.053	560.8
467.445	531.8
467.859	533.2
468.272	525.8
468.686	536.2
469.078	515.6
469.492	516
469.906	529.6
470.298	534.6
470.712	513.6
471.126	539.8
471.54	513
471.933	518
472.347	526.6
472.761	527
473.175	513.2
473.568	516.6
473.982	519.8
474.397	528
474.79	527.2
475.204	529
475.619	519.4
476.033	516.6
476.426	523
476.841	521.4
477.256	539.8
477.649	510.6
478.064	514.4
478.479	522.2
478.872	510.8
479.287	514.8
479.702	518
480.118	517.4
480.511	516.8
480.927	515.8
481.342	510.2
481.736	528.6
482.151	514
482.566	532.4
482.96	519.4
483.376	535.2
483.792	513.2
484.186	526.6
484.602	518.2
485.017	519.2
485.412	519
485.827	526.4
486.243	513.8
486.638	542.8
487.054	526
487.47	528.4
487.865	514
488.281	524.2
488.697	522.4
489.092	526.4
489.508	512.6
489.925	525.4
490.32	515
490.736	525.4
491.153	517.2
491.548	522.2
491.964	531.6
492.381	510
492.776	529.8
493.193	524.6
493.61	523.8
494.006	519.8
494.422	524.8
494.84	518.8
495.235	528.2
495.652	521.6
496.069	523.8
496.465	510.4
496.883	515.6
497.3	532
497.696	521.8
498.113	523
498.509	512.4
498.927	512.8
499.344	510.8
499.741	513.2
500.158	514.2
500.576	518.8
500.973	520.6
501.39	513.2
501.787	513.2
502.205	520.2
502.623	506.8
503.02	512.6
503.438	507.2
503.856	518
504.253	516.8
504.671	517.2
505.068	513.2
505.486	514.6
505.905	532
506.302	507.4
506.72	517.2
507.118	510.2
507.536	511.6
507.955	516.4
508.352	517.8
508.771	510.8
509.169	515.4
509.587	507
510.006	520.4
510.404	509.2
510.823	511
511.221	513.2
511.64	504.8
512.038	522.8
512.457	519.8
512.877	514
513.275	517.4
513.694	505.2
514.092	509.6
514.512	522.8
514.91	519
515.33	511.8
515.749	524.4
516.148	518
516.568	519
516.966	518.4
517.386	514.2
517.785	524
518.205	509.4
518.603	519
519.024	506.2
519.444	524.6
519.843	527.2
520.263	528
520.662	527.6
521.082	514
521.481	519.2
521.902	516
522.301	521.4
522.722	521.4
523.121	521
523.542	513
523.963	512.2
524.362	517.2
524.783	518.6
525.183	513.6
525.604	518.4
526.003	516.2
526.425	506.6
526.824	520
527.246	517.4
527.646	532.4
528.067	520
528.467	518
528.888	517
529.289	514.4
529.71	511.8
530.11	514.2
530.532	510.6
530.932	503.4
531.354	505.8
531.755	545.2
532.176	525.8
532.577	506.2
532.999	516.2
533.4	516.2
533.822	531.2
534.223	520.8
534.645	512
535.046	514.2
535.468	523.6
535.869	517
536.292	517.6
536.693	545
537.115	528
537.516	518.6
537.939	523.6
538.34	527.4
538.742	530.2
539.165	516.8
539.566	509.8
539.989	510.2
540.391	517
540.814	519.2
541.216	508.2
541.639	518
542.041	528.4
542.464	507.2
542.866	514
543.268	512.6
543.691	518.4
544.093	522
544.517	536.6
544.919	508.8
545.343	537.2
545.745	515.2
546.147	518.8
546.571	514.4
546.974	509
547.398	515.8
547.8	528.2
548.224	518.6
548.627	517.2
549.03	510
549.454	510.8
549.857	507.8
550.281	509
550.684	518.2
551.087	525.6
551.512	524.4
551.915	522
552.34	511
552.743	513
553.146	518.8
553.571	516.2
553.975	524.2
554.399	511
554.803	559
555.207	512.6
555.632	516
556.036	519.2
556.461	508
556.865	522
557.268	506.6
557.694	516.2
558.098	532.4
558.502	515.2
558.927	504
559.332	519.4
559.736	513.2
560.162	523
560.566	507.8
560.992	515.2
561.396	513
561.801	515
562.227	514.4
562.631	512.6
563.036	520.2
563.462	514.6
563.867	518
564.272	505.6
564.698	517.4
565.103	510.8
565.508	530.6
565.935	524.6
566.34	512.2
566.745	524.4
567.172	514
567.577	529.2
567.982	524.6
568.409	515
568.815	506.6
569.22	516.2
569.626	518.8
570.053	502.4
570.459	520
570.865	527.2
571.292	520.2
571.698	519.2
572.104	502.4
572.531	506.8
572.937	528.6
573.343	513.4
573.75	510
574.177	511.4
574.583	517.4
574.99	514.8
575.396	517.6
575.824	507.6
576.231	511.6
576.637	508
577.065	540
577.472	506.8
577.879	511.4
578.286	529.2
578.714	507.8
579.121	515.2
579.528	513.6
579.935	512.4
580.364	509.2
580.771	501
581.178	506.8
581.585	523.2
582.014	512.4
582.421	504.8
582.829	512
583.236	515
583.644	506
584.073	510.2
584.481	513.4
584.889	508.6
585.296	514.6
585.726	517.4
586.134	506.4
586.542	506.8
586.95	529.4
587.358	502.2
587.787	513.4
588.196	500.4
588.604	512.6
589.012	510.2
589.421	509.8
589.851	510.6
590.259	515.2
590.668	512.2
591.076	546.2
591.485	508.2
591.894	515
592.324	529
592.733	520
593.142	498
593.551	516.8
593.96	536.6
594.369	509.2
594.8	501.4
595.209	507.8
595.618	509.6
596.028	504.6
596.437	504.4
596.847	508.4
597.256	510.6
597.687	509.2
598.097	508.2
598.507	491
598.917	513.8
599.327	514.6
599.736	514.8
600.146	524.4
600.556	518
600.988	520.8
601.398	515
601.808	515.2
602.219	503.2
602.629	510.8
603.039	507.8
603.45	534.4
603.86	502.4
604.271	523.4
604.703	507.2
605.114	513.4
605.525	512.6
605.935	517.4
606.346	526.4
606.757	506
607.168	511.6
607.579	510.2
607.99	523.8
608.402	513.4
608.813	515.4
609.224	505.2
609.636	508
610.047	509.4
610.48	516.2
610.892	511.4
611.303	518.8
611.715	507
612.127	507.8
612.539	510.4
612.95	513
613.362	501.6
613.774	512.6
614.186	506.2
614.599	509.2
615.011	514.8
615.423	512.2
615.835	514.6
616.248	509.2
616.66	521.2
617.073	514
617.485	515.8
617.898	518.4
618.311	519.4
618.723	513.6
619.136	540.4
619.549	530.6
619.962	533.4
620.375	521.4
620.788	518.4
621.201	510.6
621.614	523.6
622.028	524.6
622.441	518
622.854	526.8
623.268	511.8
623.681	523.6
624.095	520.6
624.509	526
624.922	525.8
625.336	512.2
625.728	522
626.142	525
626.556	527.8
626.97	523.8
627.384	509
627.799	517.2
628.213	533
628.627	521.4
629.041	518.4
629.456	520.4
629.87	523.8
630.285	527
630.699	536.2
631.093	519.8
631.507	525.6
631.922	524.6
632.337	537
632.752	515.8
633.167	522.2
633.582	517.2
633.997	520.6
634.412	523.4
634.806	521.8
635.221	518.4
635.637	523.6
636.052	511.6
636.468	519
636.883	537.8
637.299	517.2
637.715	511.4
638.109	523
638.525	505.8
638.941	529.8
639.357	527
639.773	528.6
640.189	514.2
640.584	517.2
641	523.4
641.416	512.4
641.832	515
642.249	516.4
642.665	520.4
643.06	521.4
643.477	530
643.894	515.2
644.31	520.2
644.727	515.8
645.123	518.4
645.54	509
645.957	524.6
646.374	524.6
646.77	515
647.187	542.2
647.604	515
648.021	508.4
648.439	515.2
648.835	519
649.252	524.6
649.67	515
650.088	513.8
650.484	519.8
650.902	519.4
651.32	517.8
651.738	515.2
652.134	515.2
652.552	526.8
652.971	525.8
653.389	514.4
653.786	524.2
654.204	513.6
654.622	512.4
655.019	522
655.438	520.2
655.857	516.2
656.275	517.4
656.673	515.6
657.091	520
657.51	510.8
657.908	519
658.327	526.2
658.746	504.2
659.144	514.2
659.563	521.8
659.982	517.6
660.38	503.6
660.8	508.6
661.219	517.4
661.617	518.8
662.037	501
662.457	514.4
662.855	503.8
663.275	544.4
663.695	518.2
664.094	509.8
664.514	514.2
664.934	503.8
665.333	517.4
665.753	507.8
666.152	508.2
666.572	507
666.993	519.4
667.392	508.2
667.812	511.4
668.212	512.4
668.632	516.8
669.053	506.4
669.453	508.2
669.874	513.8
670.273	517
670.694	502.6
671.116	519.6
671.515	515
671.937	508.2
672.337	503.6
672.758	509.4
673.158	510.8
673.58	500.8
673.98	509.6
674.402	518.8
674.824	510.4
675.224	501.8
675.646	501.4
676.047	505.2
676.469	509
676.869	513
677.292	512.8
677.693	498.8
678.115	501
678.516	514.6
678.939	513.6
679.34	507.4
679.762	519
680.164	507.8
680.586	501
680.988	516
681.411	527
681.812	501.4
682.236	500
682.637	500.8
683.061	492.8
683.462	506.2
683.864	506.6
684.288	514
684.69	493
685.114	507.6
685.516	523
685.94	499.6
686.342	516.6
686.766	510.2
687.168	500.8
687.571	518
687.995	511.2
688.398	498.2
688.822	507.6
689.225	526.6
689.628	522
690.052	504.8
690.456	520
690.88	510.6
691.284	501.2
691.687	511.6
692.112	496
692.515	507.8
692.919	503.8
693.344	510.8
693.747	498.6
694.173	500.4
694.577	514.6
694.98	507.6
695.406	499
695.81	512.8
696.214	513.6
696.64	505.2
697.044	504.2
697.448	510.4
697.874	499.2
698.279	496.4
698.684	490.2
699.11	496.6
699.514	511.2
699.919	508.4
700.324	495.6
700.75	504.4
701.156	509.2
701.561	516.2
701.987	505.8
702.393	517.4
702.798	510.6
703.203	501.4
703.63	501.2
704.036	501.2
704.442	505.8
704.847	494
705.274	506.8
705.68	504.8
706.086	507.6
706.492	499.2
706.92	501.4
707.326	513
707.732	506.8
708.139	501.6
708.545	498.4
708.973	507.4
709.38	505.2
709.786	503.6
710.193	525.6
710.6	510.4
711.028	501.2
711.435	505.8
711.842	511
712.249	502.4
712.656	507.4
713.064	510.8
713.492	499
713.9	499.4
714.307	511
714.715	505.2
715.123	506.2
715.53	515
715.938	518
716.367	507
716.775	510.4
717.184	498.6
717.592	506.8
718	505.4
718.408	531
718.816	540
719.225	509.8
719.633	512.8
720.042	501.2
720.472	505.4
720.881	522
721.29	510.2
721.699	492.2
722.108	505.4
722.517	503.2
722.926	504.2
723.335	510.2
723.744	500.8
724.154	502
724.563	508.2
724.973	506
725.382	510.2
725.792	508
726.202	501
726.612	511.4
727.022	509.4
727.432	504
779.813	503.2
780.223	538.6
780.634	501.4
781.044	500
781.454	504.6
781.865	511.4
782.276	493.2
782.686	509
783.097	509.8
783.508	502.2
783.919	500.6
784.33	510.4
784.741	506.4
785.152	501
785.563	494.8
785.974	504
786.386	504.6
786.776	500.6
787.188	505.8
787.599	490.6
788.011	505.4
788.423	510
788.835	501.6
789.247	498.4
789.659	505.4
790.071	497.6
790.483	541.6
790.874	502.8
791.286	508.8
791.699	502.4
792.111	505.8
792.524	508.6
792.937	505
793.349	499
793.741	499.4
794.154	500
794.567	514.6
794.98	501.2
795.393	498.4
795.785	514.2
796.198	500.8
796.612	512.2
797.026	500.8
797.439	486.2
797.831	507
798.245	494.8
798.659	510.6
799.073	503.2
799.487	497.8
799.88	503.6
800.294	498
800.708	499.8
801.123	505.4
801.516	518.2
801.93	495.6
802.345	493.6
802.76	498
803.153	519
803.568	516.4
803.983	511
804.377	511
804.792	500.2
805.207	496.6
805.601	499.8
806.016	539
806.432	496.2
806.826	537.6
807.242	512.2
807.658	499.8
808.052	499.8
808.468	502.6
808.884	494.8
809.279	502.2
809.695	514
810.111	522
810.506	506.6
810.922	516
811.339	508.8
811.734	509.8
812.151	499
812.546	504.6
812.963	503.6
813.38	507.4
813.776	504.6
814.193	511
814.589	494.8
815.006	499.2
815.402	495.2
815.82	500.4
816.237	505.4
816.633	508.2
817.051	496
817.448	499.8
817.866	492.4
818.262	521
818.68	501.2
819.077	498.4
819.495	496.8
819.892	537.6
820.311	505.4
820.708	505.8
821.127	494
821.524	506.4
821.943	498.6
822.34	509.8
822.759	499.2
823.157	499
823.576	511
823.974	504.4
824.393	595.2
824.791	496
825.189	493
825.609	503.2
826.007	502.8
826.427	493.6
826.826	499.4
827.246	496.4
827.644	488.2
828.043	501.8
828.463	498
828.862	511.6
829.261	510.8
829.682	488.6
830.081	508.4
830.502	492.8
830.901	504
831.301	491.2
831.722	496.8
832.121	499.2
832.521	507.2
832.943	504
833.342	495.8
833.742	489.4
834.164	502
834.564	497.2
834.965	490.4
835.386	491.6
835.787	506
836.188	501.2
836.588	505.4
837.01	501.6
837.411	497.8
837.812	504.2
838.213	508.8
838.636	501
839.037	558.8
839.438	496.4
839.84	507.4
840.263	501.8
840.664	513
841.066	497.2
841.468	507
841.891	499.4
842.293	512.2
842.695	504
843.098	508.4
843.5	497.6
843.902	503.6
844.326	500.8
844.729	490
845.131	507.4
845.534	500.2
845.937	510.6
846.34	509.6
846.764	492.8
847.167	495
847.571	494
847.974	493.2
848.377	492
848.781	540.8
849.184	510.6
849.588	496.2
849.992	490.6
850.396	497.4
850.821	512.8
851.225	503.4
851.63	493.6
852.034	506.2
852.438	496.6
852.843	568.2
853.247	491.4
853.652	496.6
854.057	512
854.462	503.4
854.867	497.8
855.272	522.8
855.677	502.4
856.082	493.2
856.487	490.2
856.893	504.6
857.298	499.8
857.704	497.4
