#lambda/nm	C1
208.295	469
208.67	432.8
209.045	395.8
209.419	399.2
209.794	542
210.169	522.8
210.544	635.8
210.919	541.6
211.295	537.2
211.67	544.6
212.045	534.4
212.421	540.4
212.796	570
213.172	534
213.547	534.2
213.923	537
214.299	536.8
214.675	544.8
215.051	539.8
215.427	547.8
215.803	544.2
216.179	547.4
216.555	537.4
216.932	545.2
217.308	541
217.684	537.2
218.061	545.4
218.438	543.4
218.814	536.8
219.191	540
219.568	533.8
219.945	531.6
220.322	546.8
220.699	537.2
221.076	546
221.453	545.4
221.83	535.2
222.208	537.2
222.585	535.4
222.962	537.8
223.34	546.4
223.717	536
224.095	539.6
224.473	547.2
224.851	539.8
225.229	525.8
225.607	545.8
225.985	530
226.363	541.4
226.741	539.4
227.119	534.6
227.497	554
227.876	525.2
228.254	541.4
228.633	547.8
229.011	535.6
229.39	536.8
229.769	534.2
230.148	545.8
230.527	548.4
230.905	536.2
231.284	536.8
231.664	533.8
232.043	546
232.422	540.2
232.801	538.8
233.181	547.4
233.56	536.6
233.94	530.2
234.319	528
234.699	535.4
235.079	577.8
235.458	564.4
235.838	549.6
236.218	525.8
236.598	530.6
236.978	530.6
237.358	530
237.738	535.2
238.119	539.4
238.499	521.8
238.88	542.8
239.26	555.8
239.641	532
240.021	537.2
240.402	541.4
240.783	537.8
241.163	535.8
241.544	541.6
241.925	538.2
242.306	547.2
242.687	533.8
243.069	539.8
243.45	544.8
243.831	531.6
244.212	528.8
244.594	569
244.975	543.6
245.357	537.4
245.739	528.6
246.12	530.6
246.502	547.4
246.884	536.4
247.266	532.6
247.648	545.6
248.03	556.2
248.412	535.6
248.794	537
249.176	535.8
249.559	535.8
249.941	528
250.323	527.2
250.706	529.8
251.089	537.4
251.471	539.8
251.854	529
252.237	537.2
252.62	546
253.002	526.6
253.385	531.4
253.769	548.6
254.152	539.4
254.535	545.2
254.918	529.6
255.301	534
255.685	537.6
256.068	527.2
256.452	556.6
256.835	544.2
257.219	551.6
257.603	546.2
257.986	524.4
258.37	541.8
258.754	525.2
259.138	539.8
259.522	541
259.906	533
260.29	542.8
260.675	536.2
261.059	539.4
261.443	528
261.828	539.4
262.212	542.2
262.597	532.2
262.981	530.8
263.366	541
263.751	537.2
264.136	534.6
264.521	544.4
264.906	530.2
265.291	549.6
265.676	535.8
266.061	540.2
266.446	552.6
266.831	534.4
267.217	556.8
267.602	542.6
267.987	538.2
268.373	542.2
268.759	549
269.144	544.2
269.53	530.6
269.916	537.8
270.302	531.4
270.688	535.4
271.074	535.2
271.46	546.2
271.846	567
272.232	536.6
272.618	540.8
273.004	539
273.391	546
273.777	553.2
274.164	543.4
274.55	547
274.937	542.6
275.324	533.8
275.71	540.2
276.097	551.2
276.484	530
276.871	540
277.258	538.4
277.645	531.4
278.032	535
278.419	542
278.807	536.4
279.194	528.6
279.581	532
279.969	547.8
280.356	537
280.744	537
281.131	554.4
281.519	541
281.907	535.4
282.295	532.8
282.682	550
283.07	543.6
283.458	547
283.846	553.6
284.235	545.6
284.623	543.4
285.011	529.6
285.399	541.8
285.788	538
286.176	524
286.565	552.2
286.953	528.4
287.342	533
287.731	527.4
288.119	529
288.508	537.8
288.897	539
289.286	527.8
289.675	542.2
290.064	544.4
290.453	531
290.821	542.4
291.21	552.6
291.599	530
291.989	539.8
292.378	544.2
292.768	550.4
293.157	541.2
293.547	543.4
293.936	527.2
294.326	524
294.716	532.8
295.106	521.2
295.496	538.2
295.886	546.6
296.276	533.4
296.666	534
297.056	527.8
297.446	527.6
297.836	551
298.227	536
298.617	539.4
299.008	540.8
299.398	533.4
299.789	536.2
300.179	540
300.57	549.6
300.961	532
301.352	534.4
301.742	543.8
302.133	533.8
302.524	536.4
302.915	535.2
303.307	521.2
303.698	546.2
304.089	537.4
304.48	535.2
304.872	533.4
305.263	536.8
305.655	529.2
306.046	537.4
306.438	538.6
306.829	534.2
307.221	538
307.613	541.8
308.005	544
308.397	545.8
308.789	550.8
309.181	556.4
309.573	552.8
309.965	551.4
310.357	538.2
310.749	552
311.142	521.4
311.534	528.8
311.926	543.4
312.319	539
312.711	530
313.104	549
313.497	536.2
313.889	572
314.282	555.2
314.675	552
315.068	542.2
315.461	549
315.854	560
316.247	543.8
316.64	539.6
317.033	537.8
317.405	542.2
317.798	537
318.192	544.8
318.585	535
318.979	548.4
319.372	525.8
319.766	536.2
320.16	544.8
320.553	545.8
320.947	560.4
321.341	543
321.735	533.2
322.129	530.6
322.523	563.4
322.917	529.4
323.311	545.2
323.705	531.4
324.099	539
324.494	557.8
324.888	546.2
325.282	539.4
325.677	554
326.071	540.2
326.466	543.8
326.861	544
327.255	541.6
327.65	551.4
328.045	557.4
328.44	538.2
328.835	538
329.23	532.6
329.625	555.4
330.02	538.4
330.415	557.2
330.81	541.2
331.206	546.4
331.601	532.4
331.996	537.6
332.37	560
332.766	531.6
333.161	560.8
333.557	533
333.953	539.4
334.348	792.4
334.744	535.4
335.14	531
335.536	537
335.932	545
336.328	534.2
336.724	543
337.12	531.2
337.516	539.6
337.913	532.4
338.309	551.8
338.705	537.8
339.102	541.6
339.498	542.6
339.895	541.2
340.291	533
340.688	541
341.085	532.6
341.481	532
341.878	531.8
342.275	552.4
342.672	527.2
343.069	524.4
343.466	515
343.842	541.8
344.239	532
344.636	538
345.033	535
345.431	533.4
345.828	537.2
346.225	531
346.623	560.6
347.02	534
347.418	532.8
347.816	545.2
348.213	529
348.611	534.6
349.009	526.6
349.407	541.2
349.805	525.6
350.203	525.8
350.601	548.2
350.999	535.2
351.397	572.4
351.795	526.4
352.193	532.8
352.57	541.8
352.969	539
353.367	523.4
353.766	529
354.164	532.6
354.563	540.8
354.961	533.8
355.36	536.4
355.759	531.6
356.158	524
356.557	524.8
356.956	524
357.355	529
357.754	534
358.153	533.4
358.552	554.4
358.951	533
359.35	543.6
359.75	527.6
360.149	527
360.527	526.6
360.926	529.2
361.326	532.8
361.726	533.6
362.125	524.6
362.525	542
362.925	532.8
363.325	536.6
363.724	532.4
364.124	532.8
364.524	535.2
364.924	532.4
365.324	544.6
365.725	519
366.125	537.2
366.525	530
366.904	525.6
367.304	515.6
367.705	553.8
368.105	539.6
368.506	535.6
368.906	533.4
369.307	534.4
369.708	536.6
370.108	527.6
370.509	528
370.91	523.6
371.311	532.6
371.712	529.4
372.113	526.6
372.514	520.8
372.894	525.8
373.295	523.2
373.696	537.8
374.097	537.2
374.499	553.4
374.9	534.8
375.301	524.4
375.703	535.6
376.105	530.6
376.506	537
376.908	535.2
377.309	533.8
377.711	526.4
378.113	525.6
378.493	523.4
378.895	529.4
379.297	540.4
379.699	523.2
380.102	526
380.504	526.8
380.906	527.2
381.308	550.4
381.71	536.6
382.113	534.2
382.515	522.4
382.918	525.4
383.299	526.2
383.701	546.2
384.104	529.2
384.507	509.4
384.909	528.4
385.312	523
385.715	520.2
386.118	528.6
386.521	517.2
386.924	533.2
387.327	523.2
387.709	517.4
388.112	513.2
388.515	528.4
388.918	525.6
389.322	533.6
389.725	533.4
390.129	536.6
390.532	527.4
390.936	526
391.339	516
391.743	529
392.125	518.2
392.529	529
392.933	534
393.337	526.8
393.74	530
394.144	525.4
394.548	521.8
394.953	528.8
395.357	532.8
395.761	516
396.144	523.4
396.548	527.4
396.952	520.6
397.357	538.8
397.761	530.2
398.166	534.2
398.57	518.2
398.975	521.8
399.379	532.2
399.763	574.2
400.168	525.6
400.572	528.4
400.977	521
401.382	542.4
401.787	532
402.192	542
402.597	533
403.002	521.8
403.386	538.6
403.791	539.4
404.197	525.8
404.602	523.2
405.007	528.4
405.413	528.8
405.818	525
406.224	528
406.608	531.6
407.014	526
407.42	542.2
407.825	524.4
408.231	538.2
408.637	540.6
409.043	535.2
409.449	525.6
409.834	527.6
410.24	520
410.646	533
411.052	534.4
411.458	542.8
411.865	537.2
412.271	530.6
412.677	529.2
413.062	524
413.469	525.6
413.875	551.4
414.282	540
414.689	529.8
415.095	530.6
415.502	524.4
415.888	526.8
416.294	520.8
416.701	564.8
417.108	525.8
417.515	534
417.923	525
418.33	544.6
418.715	531.2
419.123	531.8
419.53	527.4
419.937	529
420.345	537.8
420.752	522.4
421.16	548
421.546	526.2
421.953	537.2
422.361	521.4
422.769	526.2
423.177	525.2
423.585	543.2
423.992	546
424.379	540.4
424.787	537
425.195	543.2
425.603	529.6
426.011	535.8
426.419	543.4
426.806	530.8
427.214	532.2
427.623	538.6
428.031	542.6
428.44	533.8
428.848	529.6
429.235	546
429.644	535.4
430.053	529.2
430.461	546.6
430.87	559.2
431.279	540
431.666	524.2
432.075	536.4
432.484	544.8
432.893	521.4
433.302	536.2
433.711	567
434.099	537.8
434.508	525.6
434.918	528.6
435.327	541.6
435.737	534.2
436.125	531.4
436.534	532.4
436.944	534.8
437.353	538.4
437.763	541
438.173	513.2
438.561	536
438.971	517
439.381	523
439.791	527
440.201	510.6
440.589	525.4
440.999	533.6
441.409	527
441.819	519
442.23	532.4
442.619	537.4
443.029	530.6
443.439	525.4
443.85	539.4
444.26	543.8
444.649	531.4
445.06	527.2
445.471	523
445.881	534
446.292	538.8
446.682	537.8
447.092	509.6
447.503	565.4
447.914	523.6
448.325	528.6
448.715	525.2
449.126	527.6
449.537	529
449.948	531.6
450.338	530
450.75	531.8
451.161	523.6
451.572	535.6
451.984	525.2
452.374	513
452.786	523.8
453.197	527.6
453.609	535.2
453.999	513.2
454.411	514.2
454.823	532.8
455.235	536
455.647	513.8
456.037	529.6
456.449	522.6
456.862	525.6
457.274	527.6
457.665	514
458.077	533.2
458.489	543.2
458.902	524.2
459.293	529.2
459.705	525.2
460.118	525
460.53	517.4
460.921	525.8
461.334	521.6
461.747	528.6
462.16	539.4
462.551	538.4
462.964	531
463.377	516
463.79	518.2
464.182	528.8
464.595	512.6
465.008	524.2
465.421	526.4
465.813	518.8
466.226	531
466.64	523.6
467.053	558.4
467.445	538.2
467.859	532
468.272	526
468.686	525.6
469.078	520
469.492	517.4
469.906	529.6
470.298	532.4
470.712	530.6
471.126	549
471.54	515.4
471.933	515.8
472.347	509.8
472.761	514
473.175	509.8
473.568	526.6
473.982	522.2
474.397	525.8
474.79	523.6
475.204	527
475.619	514.2
476.033	523.6
476.426	529.6
476.841	512.8
477.256	541
477.649	510.4
478.064	512
478.479	515.8
478.872	511
479.287	507
479.702	520.4
480.118	520.8
480.511	521.8
480.927	524.8
481.342	512
481.736	521.4
482.151	515.6
482.566	528.4
482.96	526.8
483.376	533.4
483.792	514.8
484.186	528.2
484.602	522.6
485.017	514.8
485.412	515.8
485.827	528.6
486.243	527
486.638	536.8
487.054	527.8
487.47	528.8
487.865	512.8
488.281	512.6
488.697	514.4
489.092	512.4
489.508	508.8
489.925	521
490.32	506.6
490.736	518.6
491.153	516.4
491.548	518.2
491.964	522.4
492.381	507
492.776	518.4
493.193	522
493.61	523.2
494.006	521.8
494.422	529.6
494.84	518.8
495.235	527.2
495.652	519.6
496.069	515
496.465	510.2
496.883	515.2
497.3	534.8
497.696	512.4
498.113	522.8
498.509	512.2
498.927	512.4
499.344	508.4
499.741	504.6
500.158	525
500.576	527.4
500.973	522.6
501.39	510
501.787	507
502.205	516.2
502.623	518.8
503.02	506.4
503.438	516
503.856	514.2
504.253	518
504.671	522.8
505.068	513
505.486	523
505.905	529.6
506.302	521.8
506.72	533.8
507.118	512.2
507.536	521.2
507.955	518.8
508.352	517.8
508.771	531.8
509.169	520.2
509.587	515.4
510.006	523.2
510.404	514.8
510.823	512.8
511.221	514.4
511.64	510.2
512.038	528.6
512.457	511.2
512.877	521
513.275	514.4
513.694	521.2
514.092	519
514.512	519.2
514.91	532.8
515.33	516.6
515.749	516.6
516.148	520
516.568	520.4
516.966	510.8
517.386	516.6
517.785	517.2
518.205	519.4
518.603	521.2
519.024	516.4
519.444	516.4
519.843	521.2
520.263	530.2
520.662	524
521.082	523.8
521.481	519.6
521.902	519
522.301	523
522.722	518.2
523.121	521
523.542	516.2
523.963	521.2
524.362	519.8
524.783	521.2
525.183	514.6
525.604	519.2
526.003	512.2
526.425	518.6
526.824	529
527.246	528
527.646	519.4
528.067	521.4
528.467	516.6
528.888	524
529.289	521.2
529.71	517
530.11	511
530.532	509.6
530.932	512.6
531.354	505.2
531.755	551.4
532.176	524.8
532.577	519.6
532.999	519.4
533.4	512
533.822	525.6
534.223	514.8
534.645	509
535.046	510
535.468	511.4
535.869	532.2
536.292	513
536.693	543.8
537.115	513
537.516	514.6
537.939	511.4
538.34	538.4
538.742	523.8
539.165	519.4
539.566	513.4
539.989	510.4
540.391	503.4
540.814	514.8
541.216	516.6
541.639	515.6
542.041	520.6
542.464	517.2
542.866	510.8
543.268	507.8
543.691	521.2
544.093	524.4
544.517	524.8
544.919	509.8
545.343	535.6
545.745	503
546.147	519.6
546.571	514.6
546.974	511.2
547.398	514.4
547.8	528
548.224	512.4
548.627	510.6
549.03	528.6
549.454	507.4
549.857	513.6
550.281	503.4
550.684	511.2
551.087	526.6
551.512	520.4
551.915	519.2
552.34	513.8
552.743	514.8
553.146	517.8
553.571	517.2
553.975	527.6
554.399	510.2
554.803	552.4
555.207	511.8
555.632	506.8
556.036	522
556.461	509.6
556.865	516.2
557.268	514.6
557.694	514.8
558.098	526.2
558.502	513.4
558.927	510.2
559.332	516
559.736	520
560.162	526.4
560.566	515.6
560.992	518.6
561.396	525
561.801	510.6
562.227	516.6
562.631	516
563.036	512.4
563.462	523
563.867	512.4
564.272	507.2
564.698	519
565.103	516.8
565.508	533
565.935	514.4
566.34	512.8
566.745	523.4
567.172	510.6
567.577	533.2
567.982	520.6
568.409	518.4
568.815	504.8
569.22	515.6
569.626	524.2
570.053	502
570.459	517.6
570.865	519.8
571.292	513.4
571.698	520.6
572.104	502.4
572.531	507.2
572.937	519.6
573.343	508.2
573.75	512.8
574.177	514.4
574.583	517
574.99	509.4
575.396	516.4
575.824	509.6
576.231	516.4
576.637	505
577.065	529
577.472	505.8
577.879	514.4
578.286	526.2
578.714	507.8
579.121	515.4
579.528	517.4
579.935	514.4
580.364	513.6
580.771	503
581.178	506.4
581.585	515.8
582.014	517.6
582.421	508.6
582.829	517.2
583.236	520.4
583.644	510.2
584.073	511.2
584.481	510.8
584.889	508
585.296	506
585.726	510.6
586.134	505
586.542	507.8
586.95	527.2
587.358	501.8
587.787	508.8
588.196	500
588.604	506.4
589.012	511.8
589.421	506.6
589.851	509.2
590.259	519.4
590.668	515
591.076	541.6
591.485	505.4
591.894	514.8
592.324	525.6
592.733	520.6
593.142	490.8
593.551	505
593.96	514.8
594.369	501.8
594.8	507.8
595.209	508.2
595.618	501.2
596.028	504.4
596.437	504.8
596.847	521.6
597.256	521.2
597.687	511
598.097	507.4
598.507	504
598.917	510.4
599.327	514.4
599.736	512.2
600.146	522.8
600.556	516.6
600.988	526.4
601.398	515.8
601.808	525.2
602.219	504.8
602.629	515.6
603.039	515.4
603.45	544.4
603.86	517.2
604.271	525.2
604.703	514.6
605.114	518.8
605.525	524.2
605.935	528.8
606.346	533.2
606.757	514.8
607.168	512.4
607.579	517
607.99	528
608.402	522.6
608.813	524.2
609.224	512.8
609.636	514.4
610.047	505.2
610.48	522
610.892	524
611.303	522.2
611.715	521.4
612.127	510.6
612.539	513.2
612.95	517.2
613.362	501.8
613.774	506.8
614.186	518.6
614.599	520.8
615.011	526.8
615.423	522.2
615.835	525.2
616.248	506.2
616.66	522.4
617.073	505.4
617.485	515.6
617.898	534
618.311	523.6
618.723	524.2
619.136	543.6
619.549	528
619.962	539.6
620.375	526.2
620.788	528.8
621.201	523.8
621.614	526.6
622.028	518
622.441	524.4
622.854	533
623.268	524
623.681	525.8
624.095	527.4
624.509	527.8
624.922	526.2
625.336	516.2
625.728	524.4
626.142	530.8
626.556	539
626.97	525.8
627.384	521
627.799	520.2
628.213	535.6
628.627	521.8
629.041	520.4
629.456	520.8
629.87	524.6
630.285	528.8
630.699	530.8
631.093	529.6
631.507	524.2
631.922	523.2
632.337	525.6
632.752	510.8
633.167	517.2
633.582	517.2
633.997	515
634.412	508.8
634.806	522.6
635.221	508.2
635.637	533.6
636.052	511.4
636.468	521
636.883	534.6
637.299	521.2
637.715	509.8
638.109	519.2
638.525	508
638.941	534.6
639.357	520.8
639.773	528.4
640.189	515.2
640.584	511.2
641	514
641.416	503.4
641.832	515.2
642.249	512.8
642.665	521.6
643.06	525.2
643.477	523
643.894	508.4
644.31	514.2
644.727	521.8
645.123	515.6
645.54	507.4
645.957	515.4
646.374	527.8
646.77	519.4
647.187	541.2
647.604	516
648.021	503.4
648.439	513.4
648.835	517.2
649.252	519.2
649.67	508
650.088	509.2
650.484	521.2
650.902	521.8
651.32	521.8
651.738	517
652.134	522.6
652.552	529.4
652.971	518.8
653.389	515.8
653.786	523.6
654.204	518
654.622	503.8
655.019	509.6
655.438	518.4
655.857	516
656.275	522.4
656.673	510.2
657.091	526.2
657.51	510.2
657.908	525.6
658.327	523.4
658.746	503.6
659.144	507
659.563	517.2
659.982	509
660.38	511.6
660.8	515
661.219	517
661.617	511
662.037	504.6
662.457	522.4
662.855	504.2
663.275	534.2
663.695	512.8
664.094	506.8
664.514	523.4
664.934	501.6
665.333	521.6
665.753	512
666.152	506.6
666.572	513.8
666.993	522.6
667.392	511.6
667.812	507
668.212	502.6
668.632	507.6
669.053	509.8
669.453	512
669.874	507.6
670.273	512.8
670.694	505
671.116	513.8
671.515	516.2
671.937	504.8
672.337	509.2
672.758	504.2
673.158	519.6
673.58	498.4
673.98	512.6
674.402	520.2
674.824	508.2
675.224	512.6
675.646	504.8
676.047	505.6
676.469	507.2
676.869	516
677.292	512
677.693	502.4
678.115	503.8
678.516	514.2
678.939	511
679.34	504.2
679.762	517.4
680.164	511.6
680.586	503
680.988	508.8
681.411	523.2
681.812	493.6
682.236	507.6
682.637	492.2
683.061	495.4
683.462	508.2
683.864	504.8
684.288	504.6
684.69	489.8
685.114	520.8
685.516	516.4
685.94	492
686.342	512.4
686.766	503.2
687.168	503.2
687.571	512.8
687.995	505.4
688.398	500.6
688.822	503.6
689.225	526.8
689.628	525
690.052	504.4
690.456	513.4
690.88	507
691.284	502
691.687	507.8
692.112	493.2
692.515	500.2
692.919	511.8
693.344	503.4
693.747	512
694.173	500.4
694.577	514.2
694.98	503
695.406	504.2
695.81	511
696.214	503
696.64	508.8
697.044	508.2
697.448	510.2
697.874	515.4
698.279	510.6
698.684	496.8
699.11	501
699.514	507.4
699.919	501.6
700.324	502.8
700.75	505.4
701.156	508.2
701.561	518.8
701.987	513
702.393	511.6
702.798	518.2
703.203	501.2
703.63	505.2
704.036	503.6
704.442	511.8
704.847	491.8
705.274	507
705.68	511
706.086	510.4
706.492	496.2
706.92	506.4
707.326	512
707.732	506.8
708.139	503.8
708.545	498
708.973	506.6
709.38	509.4
709.786	498.8
710.193	512.6
710.6	507
711.028	498.6
711.435	501.6
711.842	502.6
712.249	504.2
712.656	505.4
713.064	519
713.492	498.6
713.9	497.8
714.307	512.2
714.715	507
715.123	517
715.53	513.8
715.938	514.4
716.367	509.2
716.775	508.4
717.184	499.2
717.592	505.8
718	517
718.408	535.2
718.816	535.8
719.225	510.6
719.633	502
720.042	499.8
720.472	497.6
720.881	519.4
721.29	505.2
721.699	495.8
722.108	511
722.517	510.2
722.926	503
723.335	505.8
723.744	510.8
724.154	513
724.563	506.6
724.973	503
725.382	504.4
725.792	503.4
726.202	500.6
726.612	508.4
727.022	505.2
727.432	511.2
779.813	502.4
780.223	543.2
780.634	508.4
781.044	493.8
781.454	500.4
781.865	513.4
782.276	489.6
782.686	512
783.097	501.4
783.508	495
783.919	497.6
784.33	513.6
784.741	509.4
785.152	494.4
785.563	496.4
785.974	494.8
786.386	509.6
786.776	498
787.188	490.2
787.599	495.4
788.011	499.2
788.423	505.2
788.835	503
789.247	499.2
789.659	494.8
790.071	492.4
790.483	535.8
790.874	494
791.286	513.6
791.699	494.6
792.111	502.6
792.524	513.4
792.937	502.4
793.349	495.2
793.741	500
794.154	500
794.567	514.8
794.98	498.4
795.393	499.4
795.785	518.8
796.198	503.6
796.612	510.2
797.026	495
797.439	492.6
797.831	502.2
798.245	501
798.659	500.4
799.073	500.2
799.487	491.8
799.88	512.2
800.294	496.6
800.708	512.6
801.123	505.4
801.516	532
801.93	497.8
802.345	493.6
802.76	499.8
803.153	513.4
803.568	516.4
803.983	510.8
804.377	505.4
804.792	496.8
805.207	489.8
805.601	505.2
806.016	530.2
806.432	500.4
806.826	528.2
807.242	508.4
807.658	512.6
808.052	496.2
808.468	502.4
808.884	502.8
809.279	500.8
809.695	512
810.111	525.2
810.506	503.4
810.922	512.4
811.339	503.8
811.734	512.4
812.151	496.6
812.546	499
812.963	495.6
813.38	500.8
813.776	500.2
814.193	515
814.589	496
815.006	502.6
815.402	504.6
815.82	501
816.237	503.6
816.633	510.8
817.051	492.8
817.448	500
817.866	499.4
818.262	519.2
818.68	498.4
819.077	492
819.495	506.8
819.892	537
820.311	498.4
820.708	498.8
821.127	496.4
821.524	517
821.943	505.6
822.34	517.2
822.759	500
823.157	504.8
823.576	508.6
823.974	513.8
824.393	562.4
824.791	497.8
825.189	500.6
825.609	495.8
826.007	504
826.427	497.8
826.826	493.2
827.246	503.4
827.644	489.2
828.043	510.8
828.463	502
828.862	510
829.261	501.8
829.682	491.4
830.081	505.6
830.502	492.8
830.901	498
831.301	492.2
831.722	483.4
832.121	498
832.521	494.6
832.943	494.8
833.342	500.2
833.742	496.2
834.164	495.6
834.564	497.2
834.965	496
835.386	505.2
835.787	503.2
836.188	497.8
836.588	498
837.01	493.4
837.411	494.2
837.812	505.2
838.213	496.8
838.636	493.4
839.037	559.4
839.438	507.2
839.84	497.6
840.263	505.2
840.664	504.2
841.066	497.4
841.468	499.6
841.891	500.2
842.293	499.8
842.695	500.2
843.098	505.6
843.5	493
843.902	504.2
844.326	510.2
844.729	505.4
845.131	511.6
845.534	505.4
845.937	510.4
846.34	518.2
846.764	500
847.167	500.4
847.571	493.4
847.974	503
848.377	503.4
848.781	539.6
849.184	503.6
849.588	499
849.992	500.8
850.396	496.8
850.821	511.6
851.225	503
851.63	494.4
852.034	513.4
852.438	508.4
852.843	526.2
853.247	493
853.652	502
854.057	510.6
854.462	502.6
854.867	496.2
855.272	517.8
855.677	498.6
856.082	492.4
856.487	489.2
856.893	507
