#lambda/nm	C1
208.295	470.6
208.67	431.2
209.045	394.4
209.419	398.8
209.794	532.2
210.169	522.6
210.544	618.6
210.919	537.4
211.295	527
211.67	531.4
212.045	528.4
212.421	529.2
212.796	559.4
213.172	518.2
213.547	522
213.923	523.6
214.299	526.2
214.675	540.6
215.051	536.2
215.427	539.6
215.803	544
216.179	533.2
216.555	518.4
216.932	534.4
217.308	528.4
217.684	527.6
218.061	533.4
218.438	525.2
218.814	525
219.191	537.8
219.568	521.4
219.945	527.4
220.322	533.2
220.699	535.8
221.076	534.8
221.453	527
221.83	521.6
222.208	519.6
222.585	518.8
222.962	530.8
223.34	525
223.717	524.6
224.095	525.6
224.473	528.8
224.851	525.4
225.229	522.8
225.607	535
225.985	524
226.363	533
226.741	524.6
227.119	526.4
227.497	535
227.876	521.2
228.254	527.4
228.633	525
229.011	524
229.39	537
229.769	535.4
230.148	534.6
230.527	546.6
230.905	526.8
231.284	526.6
231.664	522.8
232.043	530.4
232.422	535
232.801	525.4
233.181	535.8
233.56	523.8
233.94	526.4
234.319	522.4
234.699	523.6
235.079	557.2
235.458	565.6
235.838	548.2
236.218	522
236.598	526.4
236.978	526.8
237.358	524.2
237.738	526.2
238.119	533.2
238.499	520.4
238.88	519.4
239.26	541.6
239.641	520.6
240.021	522.8
240.402	523.8
240.783	529
241.163	531
241.544	526.6
241.925	522.2
242.306	549.4
242.687	522.6
243.069	526.6
243.45	530.6
243.831	524.6
244.212	527.6
244.594	555.6
244.975	529.2
245.357	535.4
245.739	521.8
246.12	531.6
246.502	546.6
246.884	528.2
247.266	530.8
247.648	530
248.03	547.2
248.412	533.2
248.794	535.2
249.176	525.8
249.559	533.4
249.941	521.8
250.323	521
250.706	526.8
251.089	530.8
251.471	538.4
251.854	526.6
252.237	527.8
252.62	526.6
253.002	532
253.385	533.6
253.769	541.8
254.152	534.6
254.535	540.2
254.918	526.8
255.301	533.2
255.685	525.6
256.068	525.8
256.452	540
256.835	536.8
257.219	532.6
257.603	540.6
257.986	524.4
258.37	532.4
258.754	522.4
259.138	535
259.522	532.6
259.906	522.4
260.29	535.8
260.675	524.2
261.059	525.8
261.443	517.8
261.828	525.6
262.212	529
262.597	517.6
262.981	522.4
263.366	536.4
263.751	526
264.136	525
264.521	528.6
264.906	521.4
265.291	536.4
265.676	523.8
266.061	538.6
266.446	543
266.831	527
267.217	547.2
267.602	532.8
267.987	524.8
268.373	532
268.759	538.6
269.144	536
269.53	535.4
269.916	525.6
270.302	531.8
270.688	531.2
271.074	524.8
271.46	540.2
271.846	550.8
272.232	527.4
272.618	517.2
273.004	529.2
273.391	532.8
273.777	545.4
274.164	526
274.55	541.8
274.937	531.8
275.324	522
275.71	534.8
276.097	534.2
276.484	521.8
276.871	530.8
277.258	535.8
277.645	520.2
278.032	528.6
278.419	525.4
278.807	524.8
279.194	525.8
279.581	529.6
279.969	532.6
280.356	531.6
280.744	525.2
281.131	556
281.519	532.4
281.907	527
282.295	533.2
282.682	534.8
283.07	538.6
283.458	532.8
283.846	535.6
284.235	535.2
284.623	540.2
285.011	530.2
285.399	535
285.788	529.8
286.176	520.8
286.565	541
286.953	526
287.342	528.6
287.731	526
288.119	523.2
288.508	526
288.897	531.8
289.286	518.8
289.675	532.8
290.064	536.8
290.453	524.2
290.821	530.4
291.21	538.2
291.599	527.4
291.989	531.2
292.378	533
292.768	536
293.157	538.6
293.547	541.6
293.936	524.2
294.326	529.6
294.716	529
295.106	529.2
295.496	534.8
295.886	532
296.276	532.2
296.666	519
297.056	524.2
297.446	515.8
297.836	542.2
298.227	527.6
298.617	525.2
299.008	534.2
299.398	525.6
299.789	520.8
300.179	524.6
300.57	538.8
300.961	525.4
301.352	524
301.742	541.6
302.133	528.2
302.524	522.6
302.915	530.4
303.307	514
303.698	534
304.089	536
304.48	518.6
304.872	527.8
305.263	532
305.655	520.8
306.046	533.8
306.438	528.8
306.829	527
307.221	537
307.613	531.6
308.005	539.2
308.397	542.8
308.789	545.4
309.181	544
309.573	539.4
309.965	540.6
310.357	525.6
310.749	540.2
311.142	525.8
311.534	524.4
311.926	535.4
312.319	533.2
312.711	526.2
313.104	545.6
313.497	530.6
313.889	565.6
314.282	542.2
314.675	549.2
315.068	527.2
315.461	537
315.854	558.8
316.247	532
316.64	525.6
317.033	525.8
317.405	535.8
317.798	526.4
318.192	528.2
318.585	519.2
318.979	531
319.372	521
319.766	527.2
320.16	541.6
320.553	539
320.947	544.6
321.341	520.6
321.735	523.6
322.129	516.6
322.523	547.2
322.917	517.4
323.311	536.4
323.705	532.6
324.099	529.6
324.494	537.2
324.888	533.4
325.282	527.6
325.677	539.2
326.071	526
326.466	535
326.861	535.2
327.255	534.6
327.65	535.4
328.045	539
328.44	524.8
328.835	529.4
329.23	523.2
329.625	551.6
330.02	527.4
330.415	541.8
330.81	530.4
331.206	525.6
331.601	534.4
331.996	530
332.37	538.4
332.766	521.6
333.161	547.2
333.557	529.8
333.953	525.6
334.348	697.8
334.744	532.6
335.14	525
335.536	523.6
335.932	543.6
336.328	518.6
336.724	532.8
337.12	519.2
337.516	531.2
337.913	532.4
338.309	534.4
338.705	527.6
339.102	532.2
339.498	520.2
339.895	536.8
340.291	525
340.688	537.8
341.085	520
341.481	520.8
341.878	522.2
342.275	544.8
342.672	522.4
343.069	518.4
343.466	520.2
343.842	532.6
344.239	520.4
344.636	536.4
345.033	522
345.431	519.8
345.828	520.2
346.225	521.4
346.623	550.8
347.02	525.2
347.418	537.2
347.816	542
348.213	522.2
348.611	532.2
349.009	521.2
349.407	536
349.805	523
350.203	512.6
350.601	531.8
350.999	521.4
351.397	573.2
351.795	530.8
352.193	538.6
352.57	535.6
352.969	536.4
353.367	518.2
353.766	522.6
354.164	528.6
354.563	529.6
354.961	535.4
355.36	516.6
355.759	517.8
356.158	511.2
356.557	509.8
356.956	516.6
357.355	517.8
357.754	523
358.153	523
358.552	540
358.951	519.8
359.35	539
359.75	527.8
360.149	516.2
360.527	516.4
360.926	516
361.326	527
361.726	522.8
362.125	521.4
362.525	534
362.925	521.6
363.325	522.6
363.724	525.6
364.124	515.6
364.524	521.4
364.924	518
365.324	535.6
365.725	509.4
366.125	526
366.525	516
366.904	515.4
367.304	509.2
367.705	533.6
368.105	532.6
368.506	522.8
368.906	523.8
369.307	525.2
369.708	528.4
370.108	508.2
370.509	522.8
370.91	518.6
371.311	520.8
371.712	524.4
372.113	523
372.514	510.8
372.894	527.8
373.295	514.2
373.696	527.8
374.097	526
374.499	538.2
374.9	525.2
375.301	515.6
375.703	527.2
376.105	517.2
376.506	527.6
376.908	526
377.309	522.4
377.711	526.6
378.113	522.8
378.493	517.4
378.895	520.2
379.297	526
379.699	509.2
380.102	517.4
380.504	522.4
380.906	517.2
381.308	537.6
381.71	510.6
382.113	527.8
382.515	522.4
382.918	522.6
383.299	525.2
383.701	527.4
384.104	518.6
384.507	503.6
384.909	516.2
385.312	512
385.715	506
386.118	511
386.521	516.4
386.924	524.6
387.327	514.4
387.709	511.4
388.112	509.4
388.515	528.6
388.918	521.2
389.322	532.6
389.725	516
390.129	542
390.532	524.8
390.936	512
391.339	518
391.743	526.6
392.125	518.8
392.529	531.8
392.933	529.6
393.337	522.6
393.74	522.4
394.144	520.8
394.548	511.2
394.953	521.8
395.357	526.2
395.761	505.2
396.144	516.2
396.548	520.8
396.952	525.4
397.357	520.8
397.761	517
398.166	519
398.57	520.2
398.975	508.8
399.379	523.2
399.763	560.2
400.168	517
400.572	522.6
400.977	518.2
401.382	537.6
401.787	525.4
402.192	530.4
402.597	531.4
403.002	509.2
403.386	529.8
403.791	529.2
404.197	517.2
404.602	527.2
405.007	521.2
405.413	524.8
405.818	518.2
406.224	512.4
406.608	519.4
407.014	513.8
407.42	536.8
407.825	515.2
408.231	527.2
408.637	534.6
409.043	531.4
409.449	518.6
409.834	511.8
410.24	518.4
410.646	538
411.052	529
411.458	524.6
411.865	529.4
412.271	529
412.677	527.8
413.062	529.6
413.469	517.6
413.875	551.2
414.282	526.8
414.689	522.8
415.095	528.2
415.502	515.6
415.888	523.8
416.294	511.4
416.701	553.4
417.108	517.6
417.515	522.4
417.923	516.4
418.33	535
418.715	527.6
419.123	515
419.53	517
419.937	524.2
420.345	525.2
420.752	513.6
421.16	531
421.546	524
421.953	526.8
422.361	515.2
422.769	525
423.177	512.4
423.585	536.8
423.992	535.6
424.379	533.8
424.787	521
425.195	535.4
425.603	523.2
426.011	527
426.419	543.2
426.806	523.4
427.214	526.4
427.623	533.4
428.031	541
428.44	530.4
428.848	536.2
429.235	545.4
429.644	541.6
430.053	550.6
430.461	563
430.87	580.2
431.279	577.8
431.666	579.2
432.075	585.6
432.484	606.2
432.893	618
433.302	641
433.711	684.6
434.099	681.4
434.508	691
434.918	709.2
435.327	737.6
435.737	756.2
436.125	777.2
436.534	791.8
436.944	829
437.353	854.6
437.763	887.8
438.173	899
438.561	942
438.971	942.8
439.381	968.2
439.791	1003.4
440.201	1009.2
440.589	1043
440.999	1073.6
441.409	1084.6
441.819	1102.4
442.23	1129.4
442.619	1153.8
443.029	1165.8
443.439	1181.8
443.85	1195.6
444.26	1215.4
444.649	1214.6
445.06	1231
445.471	1251.4
445.881	1274.2
446.292	1278.2
446.682	1305.6
447.092	1283.8
447.503	1346.6
447.914	1304.8
448.325	1322
448.715	1321.4
449.126	1308.4
449.537	1329.4
449.948	1332
450.338	1329.8
450.75	1351.4
451.161	1355.2
451.572	1366
451.984	1377.6
452.374	1349.2
452.786	1370
453.197	1374
453.609	1374.8
453.999	1368.4
454.411	1373.2
454.823	1390.6
455.235	1384.4
455.647	1392
456.037	1398.4
456.449	1387.8
456.862	1412
457.274	1400.2
457.665	1409.8
458.077	1404.2
458.489	1438.8
458.902	1407.8
459.293	1409.6
459.705	1400.4
460.118	1398.4
460.53	1414.8
460.921	1423.2
461.334	1422.4
461.747	1437.4
462.16	1439.6
462.551	1447.2
462.964	1425.6
463.377	1429.8
463.79	1419.8
464.182	1440.4
464.595	1423.4
465.008	1435.8
465.421	1428.6
465.813	1413.8
466.226	1425
466.64	1424.8
467.053	1454.8
467.445	1433.2
467.859	1448.6
468.272	1441.6
468.686	1447.8
469.078	1426
469.492	1419.6
469.906	1428.4
470.298	1445.6
470.712	1426.2
471.126	1439.6
471.54	1411.4
471.933	1415.4
472.347	1427.6
472.761	1414.4
473.175	1421.4
473.568	1416.2
473.982	1400.2
474.397	1407.2
474.79	1413
475.204	1401.4
475.619	1400.4
476.033	1396.6
476.426	1380.4
476.841	1387.4
477.256	1397
477.649	1377.8
478.064	1360.2
478.479	1365.2
478.872	1344.2
479.287	1355.6
479.702	1341
480.118	1342.8
480.511	1354.8
480.927	1336.6
481.342	1338.8
481.736	1329.4
482.151	1328.6
482.566	1323
482.96	1325.2
483.376	1317.2
483.792	1294
484.186	1321.4
484.602	1305.2
485.017	1298.2
485.412	1305
485.827	1287
486.243	1290
486.638	1292.8
487.054	1283
487.47	1297
487.865	1272.4
488.281	1263.2
488.697	1262
489.092	1245.4
489.508	1242.2
489.925	1236.2
490.32	1225.2
490.736	1240.2
491.153	1224.6
491.548	1212
491.964	1220.8
492.381	1195.6
492.776	1202.6
493.193	1184.4
493.61	1193.4
494.006	1179.6
494.422	1183.2
494.84	1161
495.235	1176.2
495.652	1179.2
496.069	1147.6
496.465	1143.8
496.883	1147.8
497.3	1162.6
497.696	1134.6
498.113	1130.2
498.509	1107
498.927	1114.2
499.344	1101.4
499.741	1100.2
500.158	1104.4
500.576	1099.8
500.973	1093
501.39	1076
501.787	1075.6
502.205	1068.6
502.623	1053.2
503.02	1055.8
503.438	1051
503.856	1034
504.253	1028.4
504.671	1048.6
505.068	1034.8
505.486	1031.8
505.905	1035.2
506.302	1020.2
506.72	1015.4
507.118	1005.6
507.536	987.8
507.955	991
508.352	995.8
508.771	981.4
509.169	992.4
509.587	977.6
510.006	980.2
510.404	961.8
510.823	956.8
511.221	950.2
511.64	950.6
512.038	952.4
512.457	940.6
512.877	938.2
513.275	922.8
513.694	918
514.092	928
514.512	923.4
514.91	920.8
515.33	908.2
515.749	918.2
516.148	920.8
516.568	901.4
516.966	892
517.386	890.4
517.785	876
518.205	878.6
518.603	869.4
519.024	864.6
519.444	868.8
519.843	879.8
520.263	867.2
520.662	855.6
521.082	849.4
521.481	847.4
521.902	850.8
522.301	837
522.722	829
523.121	832.6
523.542	824.6
523.963	823.4
524.362	820.6
524.783	823
525.183	814.4
525.604	823.4
526.003	805.2
526.425	810
526.824	813
527.246	805.8
527.646	802.4
528.067	795.2
528.467	792.2
528.888	788.2
529.289	775.2
529.71	778.4
530.11	776.8
530.532	759.8
530.932	769
531.354	755.6
531.755	778.4
532.176	760.6
532.577	762.8
532.999	763
533.4	748
533.822	750.6
534.223	735.4
534.645	749.6
535.046	740.8
535.468	739.6
535.869	746.2
536.292	734
536.693	763.8
537.115	736.6
537.516	729.2
537.939	736.6
538.34	731.6
538.742	741.4
539.165	711
539.566	716.6
539.989	705.2
540.391	716
540.814	715
541.216	714.2
541.639	716.2
542.041	711.4
542.464	707.8
542.866	697.6
543.268	695.4
543.691	703.6
544.093	697
544.517	709.2
544.919	690.8
545.343	706.8
545.745	679.6
546.147	677.6
546.571	668.2
546.974	668.8
547.398	663.2
547.8	685.2
548.224	663.2
548.627	667
549.03	676.8
549.454	655.8
549.857	649
550.281	665.2
550.684	659.4
551.087	673.8
551.512	659
551.915	655.8
552.34	659
552.743	649.4
553.146	653
553.571	645.6
553.975	656
554.399	641.2
554.803	680.8
555.207	636.8
555.632	637
556.036	647.6
556.461	629.4
556.865	627.4
557.268	630.6
557.694	633
558.098	633.8
558.502	632
558.927	627.4
559.332	628.2
559.736	617.4
560.162	627.6
560.566	616.8
560.992	614.8
561.396	619.6
561.801	609.4
562.227	617.8
562.631	612.6
563.036	623
563.462	614
563.867	609
564.272	603.2
564.698	605.4
565.103	595.6
565.508	620.6
565.935	606.4
566.34	605.2
566.745	625.8
567.172	586.6
567.577	622.4
567.982	604.2
568.409	597.8
568.815	587.8
569.22	596.4
569.626	592.4
570.053	578
570.459	592.6
570.865	592.4
571.292	589.2
571.698	590
572.104	580.8
572.531	583.4
572.937	587.4
573.343	581.4
573.75	579
574.177	584
574.583	589.6
574.99	570.2
575.396	578.8
575.824	577
576.231	583.8
576.637	581.6
577.065	598.2
577.472	578.8
577.879	578
578.286	587.8
578.714	569.8
579.121	571.2
579.528	569.4
579.935	580.8
580.364	558
580.771	556
581.178	569.2
581.585	571.2
582.014	566.4
582.421	563.2
582.829	561
583.236	576.6
583.644	556.6
584.073	560.8
584.481	562.6
584.889	553
585.296	560.8
585.726	553.2
586.134	560.6
586.542	550.4
586.95	573.4
587.358	547.4
587.787	561
588.196	539.8
588.604	549.8
589.012	551
589.421	544.2
589.851	544.6
590.259	549.6
590.668	553.6
591.076	579.8
591.485	542.8
591.894	551
592.324	564.4
592.733	553.4
593.142	539.6
593.551	539.8
593.96	551.8
594.369	529.4
594.8	538.2
595.209	535.2
595.618	531.8
596.028	531.6
596.437	532.8
596.847	539.2
597.256	537.8
597.687	545
598.097	544.2
598.507	528.8
598.917	540.4
599.327	544
599.736	533
600.146	544.2
600.556	535.8
600.988	547.6
601.398	532.6
601.808	546.2
602.219	525.6
602.629	530
603.039	536.6
603.45	554
603.86	534
604.271	544.6
604.703	543.2
605.114	529.6
605.525	529.8
605.935	536.6
606.346	543.6
606.757	536.8
607.168	534.6
607.579	515.8
607.99	533.4
608.402	533.8
608.813	527.2
609.224	526.8
609.636	522.2
610.047	525.4
610.48	530.6
610.892	537
611.303	533.2
611.715	528.6
612.127	525.6
612.539	526.8
612.95	531.2
613.362	523.6
613.774	521.2
614.186	530.4
614.599	530.4
615.011	537.8
615.423	526.8
615.835	524.4
616.248	518.4
616.66	524.6
617.073	526.4
617.485	528.4
617.898	532.6
618.311	543.8
618.723	528
619.136	560
619.549	542.4
619.962	546
620.375	531.6
620.788	535.6
621.201	533.4
621.614	536.2
622.028	535.8
622.441	533.4
622.854	548
623.268	527.4
623.681	534.6
624.095	538.8
624.509	538.2
624.922	545.4
625.336	522.6
625.728	531.2
626.142	543
626.556	549.2
626.97	539.2
627.384	523.2
627.799	530.4
628.213	537.6
628.627	521.6
629.041	528.8
629.456	525.2
629.87	527
630.285	528
630.699	536
631.093	527.8
631.507	537.4
631.922	538.2
632.337	549.4
632.752	525.6
633.167	527
633.582	533.8
633.997	527.6
634.412	526.2
634.806	529.4
635.221	526
635.637	530.4
636.052	516.8
636.468	524.8
636.883	551.4
637.299	534.6
637.715	516.4
638.109	526.2
638.525	520.8
638.941	532.8
639.357	538.8
639.773	532.6
640.189	521.6
640.584	524.6
641	528.4
641.416	518.4
641.832	523.2
642.249	526.4
642.665	528.4
643.06	529.6
643.477	530.6
643.894	509
644.31	521
644.727	511
645.123	513.4
645.54	512
645.957	511.4
646.374	527.6
646.77	521.6
647.187	545.4
647.604	529
648.021	505.4
648.439	512.8
648.835	524
649.252	516
649.67	516
650.088	514.8
650.484	526.8
650.902	518.8
651.32	527.2
651.738	506.8
652.134	522.6
652.552	537
652.971	517
653.389	514.8
653.786	518.8
654.204	511.6
654.622	513
655.019	512.4
655.438	520.4
655.857	522.4
656.275	519
656.673	513.6
657.091	517.2
657.51	511.8
657.908	520
658.327	524
658.746	502.8
659.144	512.2
659.563	523.8
659.982	512.4
660.38	496
660.8	512
661.219	518.6
661.617	520.4
662.037	506.2
662.457	519.8
662.855	498.8
663.275	544.4
663.695	511.8
664.094	503.2
664.514	515.4
664.934	503.2
665.333	517
665.753	505.4
666.152	503.6
666.572	503.6
666.993	514.8
667.392	510.4
667.812	501.4
668.212	506.6
668.632	514.8
669.053	510.2
669.453	509.6
669.874	512.6
670.273	513.8
670.694	499.2
671.116	511.4
671.515	510.6
671.937	507.8
672.337	501.2
672.758	512
673.158	504.6
673.58	502.6
673.98	508.2
674.402	514.6
674.824	506.2
675.224	511.4
675.646	501.8
676.047	501
676.469	499.8
676.869	514
677.292	507.6
677.693	500.6
678.115	501.2
678.516	508.8
678.939	506.2
679.34	501.6
679.762	513.6
680.164	514
680.586	493.4
680.988	505.2
681.411	525.8
681.812	511.2
682.236	508.6
682.637	493
683.061	498.2
683.462	503.6
683.864	500.4
684.288	508.4
684.69	492.6
685.114	503.6
685.516	504.6
685.94	491.6
686.342	510.6
686.766	498.4
687.168	503.2
687.571	508
687.995	501.4
688.398	491.4
688.822	498.2
689.225	516
689.628	515
690.052	504.8
690.456	503.2
690.88	510.6
691.284	491
691.687	503.4
692.112	492
692.515	495.8
692.919	499.4
693.344	497
693.747	501.6
694.173	500.6
694.577	510.8
694.98	503.6
695.406	496.8
695.81	510
696.214	505.2
696.64	500.4
697.044	506.4
697.448	507.6
697.874	500
698.279	500.8
698.684	491
699.11	495.6
699.514	498
699.919	497.8
700.324	495.2
700.75	496
701.156	498.8
701.561	509.6
701.987	507
702.393	507.4
702.798	504.4
703.203	502
703.63	492.2
704.036	502.8
704.442	496.6
704.847	487.6
705.274	496.8
705.68	501.6
706.086	509.2
706.492	495.2
706.92	494.6
707.326	512
707.732	492.4
708.139	487.2
708.545	494.6
708.973	492
709.38	502
709.786	487
710.193	502.4
710.6	497.8
711.028	481.2
711.435	496.2
711.842	501.2
712.249	496.4
712.656	493.2
713.064	492.8
713.492	489.2
713.9	493.8
714.307	506
714.715	500.4
715.123	496.8
715.53	496.8
715.938	500.8
716.367	496
716.775	497.6
717.184	495
717.592	489
718	510
718.408	528
718.816	537.2
719.225	502.8
719.633	500.6
720.042	488
720.472	497.2
720.881	512.2
721.29	494.8
721.699	486.8
722.108	497.6
722.517	495.2
722.926	493.6
723.335	501.6
723.744	502.4
724.154	490.6
724.563	502.2
724.973	499.8
725.382	502.8
725.792	496.2
726.202	488.4
726.612	509
727.022	501.6
727.432	493
779.813	492.2
780.223	532.2
780.634	490.6
781.044	487
781.454	496.8
781.865	508.4
782.276	492.2
782.686	498.8
783.097	496.2
783.508	496
783.919	498.6
784.33	502.4
784.741	506
785.152	486.8
785.563	495
785.974	491.2
786.386	505.8
786.776	498.6
787.188	496.6
787.599	489.6
788.011	504.4
788.423	500
788.835	493
789.247	491.6
789.659	493
790.071	495
790.483	531.4
790.874	492.4
791.286	491.4
791.699	485
792.111	490.8
792.524	491.2
792.937	489.2
793.349	485.8
793.741	481.2
794.154	494.8
794.567	500
794.98	493
795.393	483
795.785	503
796.198	490
796.612	500.2
797.026	488.6
797.439	482
797.831	494
798.245	481
798.659	488.2
799.073	489.8
799.487	492.2
799.88	490.2
800.294	492
800.708	500
801.123	496.2
801.516	507.6
801.93	490.8
802.345	484.4
802.76	496.4
803.153	512
803.568	503
803.983	501.6
804.377	494
804.792	490.6
805.207	489.6
805.601	501.4
806.016	528.2
806.432	499.4
806.826	518.4
807.242	507.8
807.658	500.8
808.052	494.8
808.468	483.4
808.884	490.8
809.279	502.6
809.695	509.4
810.111	512.4
810.506	502.6
810.922	517.8
811.339	492.4
811.734	498.2
812.151	487.8
812.546	489
812.963	486
813.38	493
813.776	485.8
814.193	506.8
814.589	484.2
815.006	487.6
815.402	481.4
815.82	483.2
816.237	497
816.633	497.4
817.051	486
817.448	498.4
817.866	488.4
818.262	505.2
818.68	492.6
819.077	490.2
819.495	490.2
819.892	525.6
820.311	490.8
820.708	495
821.127	495
821.524	499.2
821.943	492.4
822.34	509.8
822.759	491.2
823.157	493.4
823.576	507.2
823.974	497.2
824.393	581.6
824.791	492.6
825.189	500.8
825.609	491.4
826.007	492
826.427	483
826.826	488
827.246	500.2
827.644	480.8
828.043	500.4
828.463	491.6
828.862	504.6
829.261	498.4
829.682	483.8
830.081	499.6
830.502	486.6
830.901	497
831.301	488.8
831.722	482.2
832.121	494.2
832.521	487
832.943	491.4
833.342	493
833.742	493.2
834.164	491.6
834.564	489.8
834.965	495.8
835.386	489.6
835.787	487.2
836.188	502
836.588	493
837.01	492
837.411	480.2
837.812	499.2
838.213	499.6
838.636	496
839.037	550
839.438	498
839.84	483.8
840.263	504.2
840.664	492.6
841.066	487.8
841.468	492.4
841.891	489.8
842.293	503.6
842.695	494.6
843.098	501.6
843.5	488.4
843.902	495.2
844.326	498.8
844.729	497.8
845.131	507.4
845.534	494
845.937	505.4
846.34	502.8
846.764	486.4
847.167	495.2
847.571	486.4
847.974	482
848.377	499
848.781	534.4
849.184	495.8
849.588	488
849.992	495.6
850.396	498.4
850.821	507.2
851.225	492.2
851.63	496.2
