#lambda/nm	C1
208.295	468.2
208.67	432.4
209.045	397.8
209.419	398.4
209.794	530
210.169	515.6
210.544	611.2
210.919	526.2
211.295	523.8
211.67	531.6
212.045	523.2
212.421	527
212.796	550.2
213.172	520.4
213.547	527.2
213.923	526.2
214.299	523
214.675	532.6
215.051	536
215.427	541.8
215.803	551
216.179	531.8
216.555	515.6
216.932	533
217.308	528.4
217.684	524.6
218.061	537.6
218.438	528.8
218.814	517
219.191	536.8
219.568	521.4
219.945	520
220.322	532.6
220.699	530.2
221.076	537
221.453	525.6
221.83	513
222.208	522.4
222.585	525
222.962	526.8
223.34	526.8
223.717	524
224.095	524.8
224.473	535.8
224.851	522.8
225.229	520.2
225.607	536.2
225.985	522
226.363	529.2
226.741	519.4
227.119	524.8
227.497	538.6
227.876	519.6
228.254	539.6
228.633	530.4
229.011	528.6
229.39	532
229.769	529.8
230.148	538.2
230.527	547.4
230.905	530.6
231.284	538.6
231.664	530
232.043	543.2
232.422	530.4
232.801	522.2
233.181	534
233.56	531.8
233.94	528.2
234.319	514.4
234.699	526
235.079	558
235.458	556
235.838	539.2
236.218	520.6
236.598	520.6
236.978	523.6
237.358	526
237.738	522.8
238.119	529.4
238.499	522.8
238.88	525.6
239.26	542.8
239.641	518
240.021	523
240.402	529.2
240.783	531
241.163	527.4
241.544	525.6
241.925	530
242.306	543
242.687	526.2
243.069	529.4
243.45	541.2
243.831	532.6
244.212	535
244.594	554
244.975	535
245.357	535
245.739	529.6
246.12	525.6
246.502	545.8
246.884	534
247.266	524
247.648	528.2
248.03	538.8
248.412	538.2
248.794	532.6
249.176	525.6
249.559	538.6
249.941	526.4
250.323	520.8
250.706	519.8
251.089	534.2
251.471	528.4
251.854	519.6
252.237	532.2
252.62	535.8
253.002	533.4
253.385	533.2
253.769	540.4
254.152	529.2
254.535	534.6
254.918	524.4
255.301	522.6
255.685	529
256.068	527.6
256.452	550
256.835	547
257.219	537.2
257.603	536.2
257.986	522.8
258.37	527
258.754	522.6
259.138	530.8
259.522	536
259.906	531.2
260.29	537.6
260.675	529.4
261.059	528.8
261.443	528.6
261.828	533.6
262.212	532
262.597	525.8
262.981	519.2
263.366	531.2
263.751	532.6
264.136	525.8
264.521	522.8
264.906	521.6
265.291	529.4
265.676	525.6
266.061	530.2
266.446	542.8
266.831	523.6
267.217	539.8
267.602	532.4
267.987	530.2
268.373	524
268.759	530
269.144	526
269.53	524
269.916	517.2
270.302	518.6
270.688	527.8
271.074	529
271.46	530
271.846	548.4
272.232	517.2
272.618	524.8
273.004	526.2
273.391	534.8
273.777	533.4
274.164	533.8
274.55	544.8
274.937	530.8
275.324	522.8
275.71	532.4
276.097	529.8
276.484	520
276.871	536.2
277.258	531
277.645	513.2
278.032	523.8
278.419	522.4
278.807	524.4
279.194	526.2
279.581	513.2
279.969	532.8
280.356	530.2
280.744	528.4
281.131	550.4
281.519	538
281.907	531.8
282.295	522.8
282.682	541.6
283.07	523.8
283.458	535
283.846	534
284.235	533.8
284.623	531.2
285.011	524.4
285.399	530
285.788	537.2
286.176	520.2
286.565	536.6
286.953	523.2
287.342	519.2
287.731	518
288.119	519.6
288.508	523.2
288.897	530.2
289.286	522.4
289.675	527.8
290.064	527.6
290.453	514.6
290.821	527.6
291.21	542.6
291.599	523
291.989	528.2
292.378	530.8
292.768	542.4
293.157	531.6
293.547	537.6
293.936	521
294.326	525.8
294.716	528
295.106	529
295.496	540.6
295.886	533.2
296.276	527.6
296.666	528
297.056	524.4
297.446	518.6
297.836	543
298.227	527
298.617	527.4
299.008	536.6
299.398	526.8
299.789	525.8
300.179	538.2
300.57	547.6
300.961	517.2
301.352	524
301.742	536.8
302.133	526.8
302.524	527.4
302.915	531.6
303.307	526.4
303.698	536.6
304.089	527.4
304.48	526.2
304.872	536.4
305.263	528.8
305.655	524.8
306.046	530.4
306.438	529.8
306.829	527
307.221	540
307.613	528
308.005	532.8
308.397	535.8
308.789	542.6
309.181	550.2
309.573	539.8
309.965	544.8
310.357	523.6
310.749	540.6
311.142	517.6
311.534	527.4
311.926	534
312.319	525.8
312.711	526.8
313.104	541.6
313.497	531.8
313.889	565.6
314.282	542.8
314.675	546
315.068	526
315.461	530
315.854	554.6
316.247	529.6
316.64	527.2
317.033	522.4
317.405	534.8
317.798	519.2
318.192	527.6
318.585	514.6
318.979	524.6
319.372	516.6
319.766	521.6
320.16	527.2
320.553	536.8
320.947	534.8
321.341	518
321.735	522.8
322.129	516.4
322.523	548.6
322.917	519.6
323.311	535.2
323.705	539.2
324.099	528.6
324.494	538.6
324.888	535
325.282	526.2
325.677	541.6
326.071	534.2
326.466	536.4
326.861	526.4
327.255	549
327.65	540.2
328.045	539.8
328.44	529.4
328.835	531.6
329.23	528.2
329.625	547
330.02	522.2
330.415	549.2
330.81	522.6
331.206	521
331.601	527.4
331.996	533.8
332.37	539
332.766	524.6
333.161	540.2
333.557	531.6
333.953	528.8
334.348	746.6
334.744	525.6
335.14	521.6
335.536	519.2
335.932	536.4
336.328	521
336.724	532
337.12	527.6
337.516	532.2
337.913	528.2
338.309	539.8
338.705	521.6
339.102	535.6
339.498	516.2
339.895	540.8
340.291	528.2
340.688	533
341.085	523.2
341.481	526.4
341.878	529.2
342.275	539.4
342.672	526.2
343.069	523.2
343.466	522.2
343.842	536.8
344.239	535.2
344.636	526.6
345.033	522
345.431	520.4
345.828	532
346.225	517
346.623	558
347.02	523.4
347.418	530.6
347.816	539
348.213	518.2
348.611	527.8
349.009	525.4
349.407	534.2
349.805	514
350.203	516.6
350.601	532.2
350.999	524.6
351.397	556
351.795	521
352.193	524
352.57	535.4
352.969	533
353.367	519.8
353.766	513.2
354.164	523.8
354.563	536.2
354.961	524.4
355.36	532.6
355.759	519.8
356.158	518.2
356.557	521.2
356.956	516
357.355	511.8
357.754	525.6
358.153	530.8
358.552	546.2
358.951	520.2
359.35	537.4
359.75	521.4
360.149	519.6
360.527	516.4
360.926	516.6
361.326	525.2
361.726	529.4
362.125	510.4
362.525	526.2
362.925	515.2
363.325	520
363.724	522.2
364.124	512.8
364.524	520.4
364.924	512.4
365.324	526.6
365.725	505.8
366.125	521.4
366.525	517.2
366.904	509.8
367.304	507.4
367.705	539
368.105	526.6
368.506	516.4
368.906	527.6
369.307	522.2
369.708	528
370.108	502.8
370.509	525.6
370.91	513.4
371.311	526.6
371.712	521
372.113	517.2
372.514	516.4
372.894	518.2
373.295	521
373.696	530.6
374.097	524.2
374.499	542.6
374.9	515.4
375.301	513.4
375.703	525.4
376.105	513.2
376.506	523.4
376.908	522.6
377.309	523.2
377.711	516
378.113	517.8
378.493	520.4
378.895	523
379.297	530
379.699	509.4
380.102	524
380.504	515.6
380.906	505.6
381.308	532
381.71	515
382.113	522.4
382.515	509.8
382.918	523.6
383.299	521.8
383.701	526.2
384.104	523
384.507	508.2
384.909	516.6
385.312	508.8
385.715	512.8
386.118	518
386.521	508.2
386.924	528.8
387.327	511.4
387.709	508.8
388.112	505.2
388.515	515.2
388.918	520
389.322	529.4
389.725	516.4
390.129	542.6
390.532	524.2
390.936	518.4
391.339	514
391.743	519.8
392.125	520.2
392.529	529.8
392.933	530.6
393.337	515.2
393.74	518.4
394.144	520.4
394.548	512.6
394.953	521.8
395.357	531.8
395.761	507.6
396.144	522.8
396.548	521.8
396.952	516.4
397.357	518.8
397.761	518.6
398.166	523.8
398.57	515.4
398.975	505.4
399.379	515.2
399.763	558.4
400.168	516.2
400.572	518.4
400.977	521.8
401.382	538.6
401.787	528.4
402.192	531.8
402.597	535.8
403.002	514.6
403.386	530.8
403.791	535.8
404.197	521
404.602	518.4
405.007	525.6
405.413	514.8
405.818	514.4
406.224	522.4
406.608	521
407.014	511.2
407.42	531.4
407.825	517.2
408.231	527.4
408.637	520.8
409.043	529.6
409.449	513.6
409.834	514.2
410.24	520
410.646	531.8
411.052	525.4
411.458	520.4
411.865	516.8
412.271	532
412.677	515.2
413.062	525
413.469	514
413.875	540
414.282	530
414.689	518.6
415.095	528.6
415.502	508.2
415.888	519.6
416.294	505.6
416.701	544
417.108	513
417.515	526.8
417.923	513.6
418.33	540
418.715	523.4
419.123	507.4
419.53	518.6
419.937	512.4
420.345	535.4
420.752	514.4
421.16	530.8
421.546	520.2
421.953	522.4
422.361	513
422.769	520.2
423.177	509.6
423.585	535.6
423.992	533
424.379	529.4
424.787	524.2
425.195	538.8
425.603	518.4
426.011	529.4
426.419	533.6
426.806	516.4
427.214	524.4
427.623	531.8
428.031	533.2
428.44	520
428.848	532.4
429.235	535.4
429.644	524.2
430.053	530.2
430.461	535.6
430.87	540.4
431.279	524.6
431.666	525
432.075	530
432.484	528.2
432.893	521.4
433.302	543.6
433.711	563.4
434.099	537
434.508	532.2
434.918	530.8
435.327	561.2
435.737	559.4
436.125	562.6
436.534	558.6
436.944	571.8
437.353	570.8
437.763	596.4
438.173	585.2
438.561	608.4
438.971	585.2
439.381	606.4
439.791	618.8
440.201	603.6
440.589	622.4
440.999	648.8
441.409	644.6
441.819	637
442.23	653.8
442.619	664
443.029	664.6
443.439	665.4
443.85	681
444.26	697.8
444.649	689.2
445.06	687
445.471	686
445.881	706.2
446.292	723.6
446.682	738.6
447.092	704.8
447.503	747.2
447.914	717.6
448.325	733.6
448.715	733.2
449.126	723.4
449.537	732.6
449.948	746.4
450.338	735.4
450.75	744.2
451.161	747.2
451.572	752
451.984	746.4
452.374	738.8
452.786	762
453.197	759.2
453.609	769.6
453.999	753.8
454.411	752.8
454.823	773.2
455.235	761.8
455.647	764
456.037	775.4
456.449	753.4
456.862	770.2
457.274	773
457.665	770.8
458.077	781.4
458.489	793.2
458.902	771.8
459.293	784.4
459.705	779.8
460.118	773.4
460.53	779.6
460.921	781.8
461.334	787.2
461.747	788
462.16	808.6
462.551	811.4
462.964	801.4
463.377	786.2
463.79	805.4
464.182	806.4
464.595	795.8
465.008	810.6
465.421	807.6
465.813	811.2
466.226	810.6
466.64	803.8
467.053	846.6
467.445	824.2
467.859	825.2
468.272	826.6
468.686	840.6
469.078	833.4
469.492	817.8
469.906	824.2
470.298	831.2
470.712	818
471.126	847.8
471.54	816.8
471.933	819.6
472.347	838
472.761	820.2
473.175	825.2
473.568	836
473.982	817.6
474.397	826.2
474.79	829.4
475.204	826.6
475.619	816.2
476.033	822.6
476.426	830
476.841	820.8
477.256	850
477.649	817.2
478.064	815
478.479	822.8
478.872	815.4
479.287	819.8
479.702	813.8
480.118	821.6
480.511	815.2
480.927	822.6
481.342	818
481.736	813
482.151	813.2
482.566	813
482.96	813.2
483.376	824.6
483.792	799.4
484.186	820.2
484.602	808.4
485.017	804
485.412	803
485.827	800.4
486.243	804
486.638	831.8
487.054	810.2
487.47	820.6
487.865	800.6
488.281	795
488.697	803.2
489.092	795.4
489.508	792.8
489.925	808.4
490.32	782.6
490.736	804.4
491.153	785.6
491.548	793.8
491.964	797.8
492.381	772
492.776	786.8
493.193	785.4
493.61	783.8
494.006	777.2
494.422	775.2
494.84	774.8
495.235	783.6
495.652	775.2
496.069	769.2
496.465	758.4
496.883	755.2
497.3	780.8
497.696	755.8
498.113	760.2
498.509	752
498.927	746
499.344	751.4
499.741	747.2
500.158	752.2
500.576	754
500.973	746.4
501.39	734.2
501.787	739.8
502.205	752.4
502.623	730.2
503.02	730.8
503.438	730.6
503.856	736.6
504.253	732
504.671	729
505.068	734
505.486	718.2
505.905	734.8
506.302	712
506.72	721.8
507.118	713.8
507.536	717.2
507.955	710.4
508.352	728
508.771	718.2
509.169	709
509.587	701.4
510.006	704.4
510.404	694
510.823	694.2
511.221	696.6
511.64	691
512.038	701.4
512.457	686.6
512.877	679
513.275	686.4
513.694	673
514.092	685.8
514.512	683.8
514.91	687
515.33	678.2
515.749	669.6
516.148	679.2
516.568	673.4
516.966	667.2
517.386	662.6
517.785	669.4
518.205	665.2
518.603	662.4
519.024	660.8
519.444	663.4
519.843	665.6
520.263	664.8
520.662	659
521.082	658.2
521.481	657.6
521.902	656.8
522.301	658.4
522.722	661.6
523.121	644
523.542	645.2
523.963	647
524.362	641.4
524.783	648.4
525.183	640.2
525.604	651.2
526.003	641.6
526.425	639
526.824	638.2
527.246	641.2
527.646	634
528.067	633
528.467	627.8
528.888	627
529.289	627.4
529.71	624.2
530.11	617
530.532	622.6
530.932	616.2
531.354	612.2
531.755	646.2
532.176	622.2
532.577	616.6
532.999	612.4
533.4	626.6
533.822	617
534.223	610.6
534.645	600.2
535.046	601.8
535.468	621.2
535.869	609
536.292	598.6
536.693	636.4
537.115	609.6
537.516	612.4
537.939	602
538.34	616.6
538.742	615.2
539.165	600.4
539.566	604.8
539.989	598.2
540.391	599.6
540.814	595.6
541.216	596
541.639	605
542.041	607.6
542.464	597.8
542.866	595.2
543.268	594.2
543.691	589.8
544.093	599.8
544.517	617
544.919	587.4
545.343	610
545.745	578.8
546.147	594.2
546.571	591.2
546.974	576.8
547.398	583.8
547.8	602
548.224	586.2
548.627	586.8
549.03	589
549.454	577.6
549.857	568.8
550.281	580.2
550.684	572
551.087	602.6
551.512	578.2
551.915	580.4
552.34	576.6
552.743	570.2
553.146	578.8
553.571	577.2
553.975	589.2
554.399	562.4
554.803	608
555.207	568.8
555.632	569.4
556.036	571.2
556.461	558.8
556.865	571.2
557.268	566.2
557.694	555.6
558.098	569.2
558.502	570
558.927	560.8
559.332	561.8
559.736	555.2
560.162	564
560.566	557.4
560.992	565
561.396	567.2
561.801	555.2
562.227	562
562.631	557.6
563.036	561.8
563.462	565.8
563.867	553
564.272	542.6
564.698	554.8
565.103	547.6
565.508	569
565.935	554
566.34	550
566.745	562.4
567.172	551.8
567.577	565.8
567.982	574.2
568.409	554.8
568.815	548.2
569.22	553
569.626	551.6
570.053	535.6
570.459	553.8
570.865	551.4
571.292	541.2
571.698	552.4
572.104	534.6
572.531	543
572.937	550.4
573.343	545.8
573.75	540.2
574.177	542.8
574.583	540.4
574.99	533
575.396	547.4
575.824	536
576.231	536.6
576.637	541.4
577.065	557.6
577.472	539
577.879	537.4
578.286	549.2
578.714	528.4
579.121	542
579.528	548.2
579.935	545.8
580.364	534.6
580.771	524
581.178	527.2
581.585	540.6
582.014	537
582.421	529.2
582.829	531.8
583.236	539.4
583.644	534.4
584.073	533.2
584.481	530.4
584.889	532.6
585.296	541.6
585.726	539.8
586.134	524
586.542	529
586.95	551.2
587.358	520.4
587.787	531.8
588.196	527.8
588.604	523.4
589.012	535.8
589.421	526.8
589.851	520.2
590.259	530.2
590.668	519
591.076	556.6
591.485	529.2
591.894	534.8
592.324	542.6
592.733	528.4
593.142	516.6
593.551	519
593.96	525.4
594.369	515.6
594.8	524.2
595.209	520.8
595.618	514.2
596.028	518.8
596.437	514
596.847	520.4
597.256	519.2
597.687	523
598.097	524.4
598.507	508
598.917	522.8
599.327	521.8
599.736	517
600.146	523.4
600.556	519.6
600.988	525
601.398	523
601.808	521.6
602.219	510
602.629	521.4
603.039	514.8
603.45	543.2
603.86	515.2
604.271	528.2
604.703	514.2
605.114	510.8
605.525	506.8
605.935	526.4
606.346	528.4
606.757	510.6
607.168	515.2
607.579	504
607.99	523.4
608.402	506.2
608.813	510
609.224	503
609.636	492.8
610.047	499.2
610.48	503
610.892	516.6
611.303	512
611.715	512.6
612.127	496.8
612.539	505.2
612.95	510
613.362	501
613.774	501.2
614.186	508
614.599	511
615.011	519
615.423	513.4
615.835	503
616.248	511.4
616.66	510
617.073	502
617.485	510.6
617.898	512.8
618.311	511.4
618.723	516.4
619.136	528.2
619.549	527.2
619.962	532.2
620.375	512.4
620.788	512
621.201	512.2
621.614	520.4
622.028	505.2
622.441	522
622.854	529
623.268	505.6
623.681	518.8
624.095	509.4
624.509	517.4
624.922	511.6
625.336	501
625.728	517.4
626.142	514.6
626.556	523.4
626.97	508.2
627.384	503.4
627.799	513.8
628.213	520
628.627	510.4
629.041	508.8
629.456	503
629.87	510
630.285	514.8
630.699	528
631.093	511.8
631.507	515
631.922	515.8
632.337	523.4
632.752	502.6
633.167	513.6
633.582	504
633.997	511.2
634.412	508.2
634.806	509.6
635.221	504.6
635.637	512.2
636.052	498.6
636.468	514.2
636.883	521.4
637.299	508.8
637.715	498.8
638.109	506.8
638.525	505
638.941	517.6
639.357	507.6
639.773	507.6
640.189	504.2
640.584	502.6
641	517.2
641.416	496.2
641.832	505.6
642.249	502.2
642.665	505
643.06	507.4
643.477	515.4
643.894	494.6
644.31	513
644.727	503.4
645.123	514.6
645.54	499.8
645.957	507.4
646.374	526
646.77	506.4
647.187	521
647.604	506.8
648.021	489.2
648.439	502.6
648.835	505.4
649.252	508.4
649.67	500.6
650.088	505.6
650.484	505.2
650.902	511.4
651.32	508
651.738	496.2
652.134	512.6
652.552	521.4
652.971	512.6
653.389	512.4
653.786	514.8
654.204	505.4
654.622	497
655.019	505.2
655.438	512.2
655.857	513
656.275	512
656.673	502.4
657.091	509.4
657.51	509.4
657.908	509.6
658.327	515.8
658.746	506.4
659.144	501.6
659.563	515.8
659.982	507.2
660.38	497.4
660.8	502.2
661.219	510.2
661.617	512.8
662.037	512
662.457	507.6
662.855	492.4
663.275	530
663.695	506.2
664.094	501.2
664.514	504.8
664.934	504.2
665.333	501.6
665.753	502.4
666.152	493.4
666.572	501.8
666.993	514.2
667.392	497
667.812	504.6
668.212	495.6
668.632	516.2
669.053	499
669.453	496.4
669.874	497.4
670.273	502.6
670.694	504.4
671.116	512
671.515	504.4
671.937	490.6
672.337	503.6
672.758	502.6
673.158	496.8
673.58	494.4
673.98	497
674.402	512
674.824	506.8
675.224	500.2
675.646	489.2
676.047	499
676.469	499.6
676.869	508
677.292	500.2
677.693	496.2
678.115	493.2
678.516	501.8
678.939	503.2
679.34	501.6
679.762	511.8
680.164	507.4
680.586	495.8
680.988	502.8
681.411	519
681.812	508.6
682.236	490.2
682.637	490.4
683.061	497.4
683.462	499.2
683.864	498
684.288	499.8
684.69	492.6
685.114	506
685.516	506.2
685.94	499.6
686.342	509.8
686.766	496.4
687.168	501.8
687.571	508.8
687.995	494
688.398	490.6
688.822	498.6
689.225	507.6
689.628	514.2
690.052	497.6
690.456	505.8
690.88	497.4
691.284	495.6
691.687	504.2
692.112	495.6
692.515	494.6
692.919	510.4
693.344	499.2
693.747	504.8
694.173	497
694.577	508.2
694.98	495.6
695.406	500.4
695.81	505
696.214	502.8
696.64	497.8
697.044	505.4
697.448	510
697.874	500.4
698.279	495.8
698.684	492.6
699.11	499.8
699.514	498.6
699.919	490.4
700.324	494
700.75	501.4
701.156	501
701.561	507
701.987	495.2
702.393	514
702.798	505.8
703.203	495
703.63	502.2
704.036	489.4
704.442	497.2
704.847	480.2
705.274	493.8
705.68	497
706.086	496
706.492	492.2
706.92	501.6
707.326	494.2
707.732	483.4
708.139	487
708.545	488.4
708.973	488.4
709.38	486
709.786	478.4
710.193	504.4
710.6	497
711.028	482
711.435	483.2
711.842	491.2
712.249	493.8
712.656	485.6
713.064	498.2
713.492	496.2
713.9	490.4
714.307	498.4
714.715	500
715.123	496
715.53	490.6
715.938	504.2
716.367	496.2
716.775	494.8
717.184	492.8
717.592	491.8
718	504.4
718.408	520.2
718.816	531
719.225	503.6
719.633	491.4
720.042	490.8
720.472	487.2
720.881	513.4
721.29	504.8
721.699	485.8
722.108	499
722.517	486.6
722.926	492.8
723.335	499.8
723.744	492.6
724.154	489.6
724.563	502.6
724.973	486.6
725.382	493.4
725.792	495.4
726.202	485.2
726.612	501.6
727.022	493.2
727.432	490.6
779.813	489
780.223	528.8
780.634	495
781.044	491.6
781.454	500.2
781.865	499.4
782.276	488.8
782.686	502.6
783.097	492
783.508	491
783.919	500
784.33	504
784.741	510.6
785.152	492.2
785.563	485.6
785.974	491.2
786.386	502.8
786.776	495.4
787.188	489.6
787.599	482.2
788.011	507.4
788.423	497.4
788.835	485.4
789.247	496
789.659	496.4
790.071	495.6
790.483	531
790.874	494.8
791.286	503.4
791.699	492
792.111	488
792.524	505.2
792.937	481.4
793.349	487.6
793.741	489.2
794.154	492.2
794.567	508.2
794.98	495.2
795.393	490
795.785	510.6
796.198	491.6
796.612	488
797.026	490.2
797.439	479.6
797.831	492.4
798.245	493.2
798.659	489.6
799.073	495.4
799.487	489.2
799.88	497.4
800.294	489.8
800.708	499.6
801.123	490.8
801.516	515.8
801.93	483.6
802.345	489
802.76	499
803.153	500.4
803.568	497.8
803.983	499.4
804.377	498.6
804.792	486
805.207	480.2
805.601	495
806.016	525
806.432	488.2
806.826	521.2
807.242	504
807.658	503
808.052	490.6
808.468	492
808.884	487.6
809.279	491
809.695	502
810.111	512.8
810.506	496.4
810.922	506.4
811.339	494
811.734	498.2
812.151	492.4
812.546	487.2
812.963	489.8
813.38	494.6
813.776	499
814.193	513.8
814.589	489
815.006	488.2
815.402	487.8
815.82	485.6
816.237	488.4
816.633	496.6
817.051	487.4
817.448	486.6
817.866	486.6
818.262	510
818.68	488.8
819.077	486.2
819.495	486.8
819.892	519.6
820.311	491.6
820.708	484.8
821.127	486.4
821.524	502
821.943	490.8
822.34	511.2
822.759	494.2
823.157	495.4
823.576	506.2
823.974	494.8
824.393	579.6
824.791	497.6
825.189	494.4
825.609	490.2
826.007	495
826.427	481.4
826.826	488.6
827.246	493.8
827.644	485.4
828.043	499.4
828.463	494
828.862	497.6
829.261	497.2
829.682	485.6
830.081	494.6
830.502	485.8
830.901	497
831.301	489.2
831.722	482.2
832.121	491
832.521	484.6
832.943	492
833.342	496
833.742	493.6
834.164	490.2
834.564	487.8
834.965	490.2
835.386	488
835.787	495.8
836.188	485.8
836.588	493.4
837.01	498
837.411	490.6
837.812	504.2
838.213	488
838.636	496.2
839.037	548
839.438	491
839.84	495.2
840.263	492
840.664	492.6
841.066	488.6
841.468	495.4
841.891	490.4
842.293	502
842.695	493.2
843.098	501
843.5	481.6
843.902	500.8
844.326	497
844.729	492
845.131	499.4
845.534	494.8
845.937	499
846.34	503.8
846.764	497.8
847.167	491.8
847.571	484.6
847.974	493
848.377	485.8
848.781	531.4
849.184	498.8
849.588	486.8
849.992	488.6
850.396	489
850.821	510.4
851.225	495.2
851.63	489.6
852.034	500.4
852.438	487.4
852.843	553.8
853.247	483.8
853.652	481
854.057	506.4
854.462	487.8
854.867	490
855.272	504
855.677	486
856.082	479.2
856.487	482.8
856.893	484.8
857.298	483.2
857.704	471.4
