#lambda/nm	C1
208.295	465.2
208.67	436.6
209.045	392.4
209.419	398.4
209.794	531
210.169	522.4
210.544	615.8
210.919	531.2
211.295	517
211.67	532.4
212.045	529.4
212.421	531.2
212.796	553
213.172	526
213.547	527
213.923	514.2
214.299	522.4
214.675	534.4
215.051	539
215.427	530.4
215.803	539.6
216.179	533.6
216.555	525.4
216.932	528.4
217.308	541
217.684	524.2
218.061	529
218.438	541
218.814	530.2
219.191	535
219.568	525
219.945	525.8
220.322	538.8
220.699	530.8
221.076	537
221.453	533.8
221.83	521.8
222.208	524.2
222.585	525
222.962	525
223.34	527.8
223.717	525
224.095	531.6
224.473	522
224.851	520.2
225.229	511.2
225.607	546.2
225.985	516.8
226.363	526
226.741	530.6
227.119	530.2
227.497	543.8
227.876	521.8
228.254	543.8
228.633	537.8
229.011	531.2
229.39	535.6
229.769	536
230.148	535.2
230.527	534
230.905	528.8
231.284	529.6
231.664	522.8
232.043	541
232.422	540
232.801	527.8
233.181	533.2
233.56	532.4
233.94	530.4
234.319	520.2
234.699	523.4
235.079	562.2
235.458	561
235.838	542.8
236.218	525.8
236.598	525
236.978	529
237.358	525
237.738	532.6
238.119	526.6
238.499	509.8
238.88	524.8
239.26	534.2
239.641	512.8
240.021	518.2
240.402	525.4
240.783	523.8
241.163	522.2
241.544	533.6
241.925	524.8
242.306	544.8
242.687	533.4
243.069	532
243.45	531
243.831	522.4
244.212	521.8
244.594	564.8
244.975	533.4
245.357	529
245.739	529.4
246.12	524.8
246.502	541
246.884	522
247.266	521.6
247.648	527.6
248.03	545.4
248.412	529
248.794	531.8
249.176	525.8
249.559	531
249.941	525.2
250.323	523
250.706	517.8
251.089	529.2
251.471	530.6
251.854	529.8
252.237	529.6
252.62	530
253.002	525.2
253.385	533.4
253.769	534
254.152	531.8
254.535	535
254.918	517
255.301	525.8
255.685	527.8
256.068	528.2
256.452	549
256.835	540.4
257.219	531
257.603	535.4
257.986	529.6
258.37	541.2
258.754	522
259.138	536.8
259.522	542.6
259.906	522.4
260.29	531.8
260.675	523
261.059	526.2
261.443	521
261.828	532.8
262.212	530.4
262.597	517.4
262.981	521
263.366	536.4
263.751	522
264.136	526.2
264.521	523
264.906	520
265.291	540.6
265.676	524.4
266.061	538.4
266.446	545.2
266.831	534.6
267.217	542
267.602	528.6
267.987	533.2
268.373	522.2
268.759	530
269.144	534
269.53	522.8
269.916	530.2
270.302	524.6
270.688	524
271.074	517.6
271.46	528.6
271.846	551.2
272.232	530.2
272.618	517.8
273.004	518.2
273.391	526.6
273.777	536
274.164	528
274.55	536.4
274.937	524.4
275.324	519.2
275.71	533.8
276.097	530.8
276.484	527.2
276.871	532.2
277.258	529
277.645	515.2
278.032	526.2
278.419	520.4
278.807	533
279.194	524.6
279.581	521.8
279.969	532.4
280.356	519.2
280.744	522
281.131	540.4
281.519	532.8
281.907	518.4
282.295	518.8
282.682	539.2
283.07	529.6
283.458	538
283.846	533.8
284.235	536.2
284.623	534
285.011	513.4
285.399	533
285.788	522.2
286.176	511.6
286.565	537
286.953	519
287.342	527.6
287.731	521.2
288.119	516.4
288.508	529.2
288.897	526
289.286	512.6
289.675	525.4
290.064	542
290.453	518.4
290.821	530.6
291.21	547
291.599	528.6
291.989	534.4
292.378	537.6
292.768	541.4
293.157	538.6
293.547	532.8
293.936	527.6
294.326	528.6
294.716	524.6
295.106	532
295.496	537
295.886	530.6
296.276	522.2
296.666	525.8
297.056	526.8
297.446	519.2
297.836	544.6
298.227	523.6
298.617	526.8
299.008	537.4
299.398	525.2
299.789	525.2
300.179	530
300.57	536.2
300.961	529.4
301.352	533.2
301.742	535
302.133	532.6
302.524	525.2
302.915	530.2
303.307	522.6
303.698	537.4
304.089	532.4
304.48	523.2
304.872	526.8
305.263	528.6
305.655	514.2
306.046	528.2
306.438	530.4
306.829	520.8
307.221	532.6
307.613	532
308.005	533.6
308.397	532.6
308.789	544.4
309.181	548.4
309.573	541
309.965	534.8
310.357	528.2
310.749	533.4
311.142	527.2
311.534	531
311.926	530.6
312.319	535
312.711	523
313.104	540.4
313.497	522.2
313.889	553.4
314.282	537.6
314.675	552.8
315.068	538.2
315.461	528.6
315.854	549
316.247	539.2
316.64	530.8
317.033	530.2
317.405	535.4
317.798	527.8
318.192	535.6
318.585	529.8
318.979	530.8
319.372	525.8
319.766	523.2
320.16	538.8
320.553	537.2
320.947	534
321.341	518.6
321.735	526.6
322.129	518.2
322.523	545.8
322.917	522.8
323.311	539.8
323.705	531.2
324.099	539.6
324.494	539
324.888	534.2
325.282	532.4
325.677	543.8
326.071	536.6
326.466	537.8
326.861	532.2
327.255	537.6
327.65	538.2
328.045	528.6
328.44	531
328.835	527.4
329.23	530
329.625	542.4
330.02	528.2
330.415	547
330.81	528.6
331.206	525.6
331.601	523.2
331.996	533.2
332.37	537.8
332.766	520.8
333.161	544.4
333.557	523.2
333.953	530.2
334.348	786.8
334.744	529.2
335.14	525.2
335.536	527.8
335.932	543.8
336.328	528.6
336.724	534.2
337.12	523.4
337.516	525
337.913	527.4
338.309	533.8
338.705	526
339.102	533.2
339.498	520.4
339.895	537.4
340.291	520.6
340.688	535.2
341.085	521.8
341.481	530.8
341.878	516.6
342.275	536.6
342.672	521.4
343.069	522.8
343.466	514.6
343.842	531.8
344.239	522.2
344.636	529.8
345.033	524.4
345.431	526
345.828	527
346.225	512
346.623	558.6
347.02	522.6
347.418	533
347.816	536.8
348.213	521
348.611	535.4
349.009	520.4
349.407	535.2
349.805	511.8
350.203	525.6
350.601	531
350.999	528.2
351.397	569.4
351.795	528.8
352.193	532.4
352.57	539.6
352.969	536.6
353.367	521
353.766	517
354.164	517
354.563	527.8
354.961	528
355.36	523.6
355.759	525.4
356.158	511.4
356.557	521.2
356.956	513.4
357.355	513
357.754	522.4
358.153	529
358.552	540.4
358.951	520.8
359.35	537.4
359.75	519.6
360.149	516.8
360.527	514.4
360.926	517.4
361.326	526.6
361.726	532.6
362.125	518.2
362.525	529
362.925	518.6
363.325	522.4
363.724	521.6
364.124	515.2
364.524	510.8
364.924	516.8
365.324	535
365.725	511.8
366.125	525.4
366.525	522
366.904	520.2
367.304	508.6
367.705	532.4
368.105	535
368.506	522.8
368.906	522
369.307	511.2
369.708	521.8
370.108	503
370.509	525
370.91	515.2
371.311	520.6
371.712	516
372.113	517.8
372.514	519.4
372.894	522.6
373.295	509.6
373.696	525.2
374.097	528.4
374.499	536.4
374.9	523.8
375.301	515
375.703	518.2
376.105	520.4
376.506	517.4
376.908	528
377.309	518.6
377.711	521.8
378.113	513.8
378.493	518.2
378.895	516.4
379.297	520.8
379.699	505
380.102	517.2
380.504	518.8
380.906	514.8
381.308	540.2
381.71	518
382.113	527.6
382.515	520.4
382.918	519
383.299	525.2
383.701	527.4
384.104	521.8
384.507	498.8
384.909	513.6
385.312	513.4
385.715	515.2
386.118	516.4
386.521	517.8
386.924	519.6
387.327	510.4
387.709	518.4
388.112	504
388.515	518.2
388.918	516.8
389.322	516.6
389.725	516.8
390.129	543.4
390.532	515.6
390.936	521
391.339	511.6
391.743	528.4
392.125	513.2
392.529	526
392.933	524.2
393.337	516.8
393.74	516.4
394.144	525.2
394.548	516.8
394.953	526
395.357	529
395.761	509.8
396.144	522.2
396.548	524.6
396.952	517.6
397.357	518.2
397.761	516.2
398.166	518.6
398.57	511.4
398.975	515.8
399.379	513.6
399.763	556.6
400.168	518.8
400.572	515.2
400.977	514.2
401.382	534.6
401.787	527.8
402.192	531.8
402.597	529.4
403.002	510.8
403.386	531.6
403.791	536.4
404.197	515.4
404.602	517.6
405.007	509.4
405.413	511.8
405.818	521.8
406.224	512
406.608	509
407.014	508.6
407.42	532.2
407.825	509.6
408.231	532.4
408.637	522
409.043	531.2
409.449	518
409.834	513.6
410.24	516.8
410.646	528.8
411.052	519
411.458	524.8
411.865	525.8
412.271	527
412.677	523
413.062	517
413.469	516.6
413.875	530.6
414.282	533.8
414.689	517.6
415.095	527.2
415.502	518
415.888	520.2
416.294	509.2
416.701	553.6
417.108	514.4
417.515	519.2
417.923	514.2
418.33	539.8
418.715	531.4
419.123	524.6
419.53	514.2
419.937	516.8
420.345	525.4
420.752	510.2
421.16	532.4
421.546	513.2
421.953	521.8
422.361	510.2
422.769	524.2
423.177	510.2
423.585	536.6
423.992	531.8
424.379	529.8
424.787	532.4
425.195	539.4
425.603	514.6
426.011	527.4
426.419	529.2
426.806	516.4
427.214	518.6
427.623	528.2
428.031	531.4
428.44	518.6
428.848	530.6
429.235	531.8
429.644	524.2
430.053	517.2
430.461	537
430.87	552.4
431.279	534
431.666	523
432.075	530.2
432.484	533.2
432.893	526.4
433.302	543.2
433.711	564.4
434.099	542.6
434.508	538
434.918	533.8
435.327	544
435.737	542.4
436.125	542.8
436.534	557.2
436.944	549.2
437.353	557.4
437.763	568.4
438.173	555.6
438.561	572
438.971	555.6
439.381	565.6
439.791	579.2
440.201	559.8
440.589	580.2
440.999	589.4
441.409	590.6
441.819	580.8
442.23	607
442.619	602.2
443.029	592
443.439	608.8
443.85	611
444.26	621.6
444.649	618.2
445.06	619.6
445.471	614
445.881	613.2
446.292	636
446.682	636.6
447.092	610.2
447.503	661.2
447.914	633.4
448.325	634.6
448.715	639
449.126	623.6
449.537	633.8
449.948	634.4
450.338	637
450.75	649.6
451.161	644
451.572	642.2
451.984	640.8
452.374	630.4
452.786	640.4
453.197	652.8
453.609	652.2
453.999	638.4
454.411	637.6
454.823	659.6
455.235	658.6
455.647	643.8
456.037	652.2
456.449	637.8
456.862	650.2
457.274	654.2
457.665	646.2
458.077	656.8
458.489	679.2
458.902	648.4
459.293	659.6
459.705	654.4
460.118	642.2
460.53	648
460.921	654
461.334	657.4
461.747	659.8
462.16	670
462.551	678.2
462.964	664.4
463.377	652.8
463.79	659
464.182	669.2
464.595	655.4
465.008	668.6
465.421	663.6
465.813	663
466.226	667.6
466.64	665
467.053	704
467.445	672.2
467.859	679
468.272	674.6
468.686	674.6
469.078	671.8
469.492	663.2
469.906	673.8
470.298	678.2
470.712	670.6
471.126	693.2
471.54	660.8
471.933	672.2
472.347	672.6
472.761	662.2
473.175	673
473.568	667.2
473.982	658
474.397	665.4
474.79	668.2
475.204	671.8
475.619	669.4
476.033	669.4
476.426	669.4
476.841	659.6
477.256	685.2
477.649	658.6
478.064	659.8
478.479	654.6
478.872	662
479.287	661.4
479.702	662.8
480.118	666
480.511	666.2
480.927	662.2
481.342	669.8
481.736	660.2
482.151	666.8
482.566	672
482.96	664.2
483.376	673.2
483.792	658
484.186	663.2
484.602	665.2
485.017	662
485.412	664
485.827	661.2
486.243	656.2
486.638	676.2
487.054	666
487.47	672
487.865	649.2
488.281	661.6
488.697	654
489.092	647.4
489.508	647.6
489.925	661.6
490.32	648.4
490.736	655.4
491.153	650.4
491.548	657
491.964	655.4
492.381	647.8
492.776	651.2
493.193	640.6
493.61	658.2
494.006	650.2
494.422	652.6
494.84	631.2
495.235	647.6
495.652	643.4
496.069	647.2
496.465	630.4
496.883	632.8
497.3	655.4
497.696	634.4
498.113	632.6
498.509	627.4
498.927	628.4
499.344	625
499.741	624.8
500.158	637.8
500.576	639.2
500.973	627.6
501.39	618.2
501.787	617.8
502.205	627.6
502.623	617.8
503.02	621.2
503.438	613.6
503.856	628.4
504.253	624.8
504.671	623
505.068	616.4
505.486	620.4
505.905	634.2
506.302	623.2
506.72	623.8
507.118	600
507.536	615.6
507.955	603.8
508.352	612.4
508.771	616.4
509.169	618.6
509.587	593
510.006	608.8
510.404	596.8
510.823	604
511.221	609.4
511.64	610.2
512.038	615.6
512.457	603.8
512.877	597.2
513.275	599
513.694	598.8
514.092	598.8
514.512	598.4
514.91	609.2
515.33	601.2
515.749	602.8
516.148	593.4
516.568	592.4
516.966	587.2
517.386	595.8
517.785	596
518.205	595.8
518.603	584.6
519.024	591.8
519.444	591.8
519.843	598.6
520.263	599.6
520.662	593.2
521.082	585.6
521.481	590
521.902	584.6
522.301	581.4
522.722	592.4
523.121	593
523.542	583.2
523.963	583.4
524.362	578
524.783	585.2
525.183	588.8
525.604	589
526.003	577.4
526.425	568.2
526.824	582.2
527.246	570.4
527.646	577.4
528.067	577.6
528.467	569.4
528.888	583.2
529.289	572
529.71	568.8
530.11	575
530.532	561.8
530.932	561.8
531.354	560
531.755	598.4
532.176	569.8
532.577	567.8
532.999	565.8
533.4	561.6
533.822	564.4
534.223	562.8
534.645	555.2
535.046	557.4
535.468	561.2
535.869	569.4
536.292	552.6
536.693	591
537.115	557.8
537.516	555.8
537.939	553
538.34	569.2
538.742	568.6
539.165	566.2
539.566	558
539.989	557.4
540.391	555.4
540.814	554.8
541.216	553.8
541.639	544.8
542.041	566.6
542.464	543.8
542.866	547.6
543.268	551.6
543.691	556.4
544.093	558.2
544.517	567.8
544.919	547.4
545.343	564
545.745	546
546.147	559.4
546.571	544.6
546.974	541.8
547.398	543.2
547.8	564.6
548.224	543.6
548.627	541.8
549.03	552.2
549.454	545.8
549.857	543.8
550.281	547.6
550.684	548.2
551.087	560
551.512	550
551.915	547.6
552.34	544
552.743	544
553.146	543.2
553.571	538.6
553.975	551
554.399	535.2
554.803	570
555.207	539.4
555.632	532.4
556.036	543.2
556.461	536
556.865	535.2
557.268	528
557.694	539
558.098	546.2
558.502	539.2
558.927	526.8
559.332	535.6
559.736	528
560.162	539.4
560.566	524
560.992	539.4
561.396	531.2
561.801	532.4
562.227	535
562.631	531.2
563.036	531.2
563.462	542.4
563.867	534.6
564.272	519
564.698	528.8
565.103	522.2
565.508	542.8
565.935	525.4
566.34	530.2
566.745	539.4
567.172	522.2
567.577	553
567.982	530.8
568.409	523.8
568.815	513.6
569.22	528.4
569.626	540.2
570.053	519.6
570.459	533.4
570.865	528.8
571.292	533.8
571.698	523
572.104	507.6
572.531	518.4
572.937	527.2
573.343	523
573.75	522.6
574.177	520.6
574.583	526.4
574.99	519.8
575.396	534.6
575.824	520
576.231	524.6
576.637	522.8
577.065	545.8
577.472	518.4
577.879	521.4
578.286	534
578.714	520.6
579.121	528
579.528	524.6
579.935	527.6
580.364	524.8
580.771	510.4
581.178	510.8
581.585	530.6
582.014	530.4
582.421	517
582.829	518.8
583.236	528.2
583.644	521.2
584.073	524.2
584.481	517.4
584.889	515.4
585.296	534.2
585.726	520.6
586.134	517.2
586.542	527.2
586.95	534.8
587.358	513.8
587.787	519
588.196	512
588.604	510.6
589.012	520.6
589.421	509.4
589.851	515.8
590.259	519.2
590.668	520.4
591.076	546.4
591.485	513.8
591.894	516.6
592.324	529.6
592.733	518.6
593.142	502.6
593.551	504
593.96	522.4
594.369	499
594.8	510.2
595.209	507.2
595.618	503.2
596.028	508.8
596.437	500.4
596.847	511.6
597.256	512.8
597.687	517.2
598.097	516.8
598.507	501.8
598.917	509.4
599.327	523.8
599.736	512.4
600.146	520.2
600.556	515.2
600.988	524.2
601.398	508.4
601.808	516
602.219	505.2
602.629	508.2
603.039	512
603.45	527.2
603.86	507.6
604.271	524.8
604.703	511.2
605.114	511.4
605.525	509.8
605.935	513
606.346	529
606.757	520
607.168	506.4
607.579	508.6
607.99	513.6
608.402	514
608.813	508.4
609.224	510
609.636	498.6
610.047	501.4
610.48	512.4
610.892	517.8
611.303	513.4
611.715	508
612.127	490.4
612.539	508
612.95	510.4
613.362	496.2
613.774	499.4
614.186	499.4
614.599	507.8
615.011	515.4
615.423	510.8
615.835	506.2
616.248	506.6
616.66	510.4
617.073	502.6
617.485	505.4
617.898	513.8
618.311	512.2
618.723	510.2
619.136	526.8
619.549	521.2
619.962	530.2
620.375	506.2
620.788	511.2
621.201	506.2
621.614	517.6
622.028	507.2
622.441	506
622.854	518.4
623.268	509.8
623.681	507.8
624.095	515
624.509	514.2
624.922	514.4
625.336	501
625.728	508
626.142	514.6
626.556	522.6
626.97	517.8
627.384	497
627.799	506.8
628.213	515
628.627	503.4
629.041	502.6
629.456	503.8
629.87	501
630.285	521.2
630.699	512.6
631.093	508.8
631.507	509.4
631.922	508
632.337	512.4
632.752	502.2
633.167	497.8
633.582	498.6
633.997	497
634.412	503.6
634.806	504.6
635.221	498.6
635.637	519
636.052	490.8
636.468	505.6
636.883	520
637.299	503.2
637.715	495.4
638.109	504.4
638.525	494.8
638.941	509.2
639.357	516
639.773	516.4
640.189	505.4
640.584	506
641	507.4
641.416	491.4
641.832	502.6
642.249	499.2
642.665	503
643.06	509.2
643.477	505.8
643.894	499
644.31	501
644.727	509.6
645.123	511.6
645.54	498.4
645.957	497.6
646.374	515.6
646.77	501.2
647.187	527.6
647.604	504.4
648.021	497.6
648.439	493.4
648.835	502.6
649.252	502.2
649.67	508.2
650.088	503
650.484	507.4
650.902	508.2
651.32	513.8
651.738	500.4
652.134	503.6
652.552	523.4
652.971	507.6
653.389	505.6
653.786	516
654.204	507
654.622	504.4
655.019	501.8
655.438	506.2
655.857	502.4
656.275	503.4
656.673	500.2
657.091	508.2
657.51	496
657.908	504
658.327	516.4
658.746	490.8
659.144	496.8
659.563	507
659.982	502.6
660.38	490
660.8	499
661.219	506.8
661.617	503.4
662.037	506.8
662.457	511.8
662.855	485.4
663.275	516.8
663.695	511
664.094	496.6
664.514	501.8
664.934	489
665.333	505.6
665.753	493.2
666.152	496.6
666.572	487
666.993	503.4
667.392	490.2
667.812	488.8
668.212	492
668.632	508.6
669.053	497.4
669.453	503
669.874	500.8
670.273	504
670.694	490.4
671.116	505.4
671.515	501.6
671.937	502
672.337	498
672.758	495.2
673.158	510.2
673.58	490.2
673.98	502.6
674.402	514.2
674.824	494
675.224	493.2
675.646	495.8
676.047	497.2
676.469	493.6
676.869	502.4
677.292	493.2
677.693	493.6
678.115	497.6
678.516	510
678.939	491.2
679.34	499.6
679.762	510
680.164	502.4
680.586	496
680.988	502
681.411	517
681.812	487.2
682.236	492.4
682.637	486.6
683.061	497
683.462	504.8
683.864	496.6
684.288	505.2
684.69	496
685.114	505
685.516	505.6
685.94	489.4
686.342	509
686.766	489.6
687.168	499.4
687.571	508.4
687.995	495.6
688.398	494.8
688.822	497
689.225	505.6
689.628	516.6
690.052	497.4
690.456	498.6
690.88	496.8
691.284	487.4
691.687	492.8
692.112	492
692.515	487.8
692.919	490.8
693.344	505.4
693.747	488.6
694.173	494.8
694.577	510.6
694.98	498.6
695.406	492.2
695.81	494.2
696.214	500.2
696.64	503
697.044	496
697.448	503.2
697.874	493.8
698.279	497.8
698.684	490.4
699.11	494.6
699.514	490
699.919	498
700.324	490.6
700.75	498.4
701.156	498.6
701.561	510.2
701.987	502.6
702.393	497
702.798	499
703.203	500.6
703.63	498.4
704.036	493.8
704.442	498
704.847	490.8
705.274	485
705.68	495.6
706.086	501.6
706.492	494.6
706.92	496.4
707.326	509.4
707.732	490.8
708.139	491.2
708.545	485.6
708.973	490.2
709.38	497.8
709.786	490.8
710.193	515
710.6	495.8
711.028	496.4
711.435	496
711.842	495.2
712.249	497.2
712.656	490.8
713.064	505.6
713.492	488.8
713.9	498.8
714.307	505
714.715	494.6
715.123	501.8
715.53	497.2
715.938	506.4
716.367	495.8
716.775	500.8
717.184	494
717.592	497.6
718	508.6
718.408	523.4
718.816	530.4
719.225	500
719.633	491
720.042	488.6
720.472	495
720.881	502
721.29	499
721.699	486.4
722.108	505.2
722.517	499.2
722.926	493.4
723.335	497.8
723.744	490.8
724.154	502
724.563	495.4
724.973	501.2
725.382	496.2
725.792	487.6
726.202	491.4
726.612	503.4
727.022	488.6
727.432	500.2
779.813	491.4
780.223	521.8
780.634	486
781.044	494
781.454	497.2
781.865	508.2
782.276	491.2
782.686	491.4
783.097	493.4
783.508	495.8
783.919	500
784.33	503.4
784.741	510
785.152	496
785.563	486.4
785.974	489.4
786.386	508.6
786.776	493.8
787.188	487.8
787.599	489
788.011	500
788.423	495.4
788.835	493
789.247	488.4
789.659	497.4
790.071	495.6
790.483	534.2
790.874	492.8
791.286	500.4
791.699	491.4
792.111	490
792.524	499.2
792.937	489.8
793.349	482.4
793.741	486.6
794.154	494.2
794.567	505.2
794.98	493.2
795.393	491.2
795.785	499.6
796.198	492.8
796.612	500
797.026	493
797.439	486.6
797.831	498
798.245	479.8
798.659	483.6
799.073	489.6
799.487	491.2
799.88	488.4
800.294	496.6
800.708	492.2
801.123	495.4
801.516	501.8
801.93	488.6
802.345	479
802.76	488.8
803.153	502
803.568	501
803.983	506
804.377	488.4
804.792	484
805.207	481
805.601	492
806.016	521.6
806.432	483.2
806.826	515.6
807.242	495.8
807.658	495.4
808.052	484.6
808.468	496.6
808.884	485
809.279	489.6
809.695	496.6
810.111	508.2
810.506	496.4
810.922	502.2
811.339	491.6
811.734	499.4
812.151	493.2
812.546	480.6
812.963	489.4
813.38	495.4
813.776	489.4
814.193	510
814.589	478.6
815.006	486.2
815.402	483.6
815.82	483.6
816.237	481
816.633	489
817.051	486.8
817.448	487.8
817.866	481.4
818.262	507.4
818.68	485.4
819.077	489.4
819.495	488.4
819.892	525.2
820.311	485.4
820.708	485.6
821.127	486.6
821.524	496.6
821.943	493.4
822.34	499.6
822.759	488.4
823.157	489.2
823.576	501.4
823.974	500.8
824.393	547.2
824.791	480.2
825.189	483
825.609	493.8
826.007	489.8
826.427	481.2
826.826	485.4
827.246	500.6
827.644	480
828.043	503.2
828.463	494.4
828.862	504.4
829.261	500.6
829.682	484.6
830.081	499.2
830.502	490.2
830.901	495.2
831.301	486.6
831.722	486
832.121	489.2
832.521	477.6
832.943	498.2
833.342	493
833.742	487
834.164	484.6
834.564	490
834.965	495.6
835.386	489.6
835.787	492.6
836.188	495
836.588	497.6
837.01	482.8
837.411	481.2
837.812	493.8
838.213	493.6
838.636	481.4
839.037	544.2
839.438	489.4
839.84	495.4
840.263	493
840.664	492.4
841.066	486.2
841.468	486.6
841.891	486.6
842.293	499
842.695	498.4
843.098	498.4
843.5	484.2
843.902	493.2
844.326	494.2
844.729	482.4
845.131	507.6
845.534	487.6
845.937	498.4
846.34	504.2
846.764	483
847.167	499
847.571	487.4
847.974	487.6
848.377	489.2
848.781	525.8
849.184	500.6
849.588	488.4
849.992	489.8
850.396	496.6
850.821	511.8
851.225	494.2
851.63	494.2
852.034	501.6
852.438	489.4
852.843	514.2
853.247	481.8
853.652	492.2
854.057	507.2
854.462	489
854.867	496.4
855.272	510.6
855.677	496.6
856.082	482.6
856.487	481
856.893	491.4
