#lambda/nm	C1
208.295	459.8
208.67	430.6
209.045	395.2
209.419	402.8
209.794	529.6
210.169	515.6
210.544	618
210.919	531
211.295	518.8
211.67	529.2
212.045	520.8
212.421	523.8
212.796	554.6
213.172	516
213.547	525.8
213.923	527
214.299	525.2
214.675	528
215.051	542.2
215.427	536
215.803	535.6
216.179	536.8
216.555	526.8
216.932	547.6
217.308	526.4
217.684	526.4
218.061	526.2
218.438	533.6
218.814	528.6
219.191	540
219.568	523
219.945	526.8
220.322	540.4
220.699	531.2
221.076	538.8
221.453	532
221.83	521.6
222.208	525.6
222.585	529.2
222.962	535.4
223.34	534.4
223.717	525.2
224.095	531.8
224.473	527.6
224.851	528.4
225.229	527.4
225.607	539.6
225.985	524.6
226.363	524.8
226.741	531.2
227.119	525.4
227.497	533.4
227.876	522.6
228.254	537
228.633	531.8
229.011	525.8
229.39	532.8
229.769	525
230.148	534
230.527	543.4
230.905	529.2
231.284	535.2
231.664	524
232.043	541.4
232.422	529.6
232.801	525
233.181	528
233.56	524.6
233.94	533.2
234.319	511.6
234.699	521.8
235.079	551.8
235.458	553.4
235.838	542.8
236.218	521.2
236.598	517
236.978	520.8
237.358	527.2
237.738	526.2
238.119	528.6
238.499	523.6
238.88	523.8
239.26	537.6
239.641	523.4
240.021	526.8
240.402	533.8
240.783	530.2
241.163	523
241.544	527.2
241.925	526.8
242.306	543.4
242.687	525.4
243.069	528.2
243.45	540.4
243.831	527.8
244.212	531.6
244.594	556
244.975	533.8
245.357	533.2
245.739	520.6
246.12	522.8
246.502	539.8
246.884	524.8
247.266	526
247.648	526
248.03	546.4
248.412	533.8
248.794	532.2
249.176	526.6
249.559	534.6
249.941	521
250.323	523
250.706	523.6
251.089	527.8
251.471	530.4
251.854	527.2
252.237	525.6
252.62	533.8
253.002	526.6
253.385	527
253.769	543
254.152	522.4
254.535	535
254.918	520.2
255.301	522.4
255.685	528.4
256.068	525.4
256.452	547.4
256.835	536.4
257.219	536
257.603	536.2
257.986	521.6
258.37	531.4
258.754	519.8
259.138	525.4
259.522	537.4
259.906	525.8
260.29	534.6
260.675	520.6
261.059	532
261.443	521.2
261.828	528.6
262.212	527.2
262.597	512
262.981	516.2
263.366	532.4
263.751	528.4
264.136	512.2
264.521	521.6
264.906	517.8
265.291	531.6
265.676	525.2
266.061	530.8
266.446	537.4
266.831	528.8
267.217	538.8
267.602	532.4
267.987	526
268.373	525.6
268.759	530.8
269.144	533.4
269.53	522.8
269.916	521.6
270.302	521.6
270.688	528.6
271.074	536.8
271.46	542.6
271.846	548.6
272.232	530.8
272.618	527.8
273.004	531.4
273.391	541.2
273.777	542
274.164	532
274.55	541.2
274.937	525.6
275.324	540.4
275.71	534.6
276.097	538.6
276.484	525.2
276.871	535.2
277.258	528.4
277.645	508
278.032	529.8
278.419	528.2
278.807	532.2
279.194	528.8
279.581	527.2
279.969	527.6
280.356	526.8
280.744	530.6
281.131	549.2
281.519	540.2
281.907	530.8
282.295	524
282.682	540.8
283.07	534
283.458	533.4
283.846	538.4
284.235	538.8
284.623	526.8
285.011	517.4
285.399	540.2
285.788	523.4
286.176	522.8
286.565	533.8
286.953	520
287.342	525.6
287.731	517.6
288.119	516.8
288.508	521.8
288.897	524.6
289.286	514.6
289.675	528
290.064	533.6
290.453	524.6
290.821	527.4
291.21	545.6
291.599	521.4
291.989	528.8
292.378	538.6
292.768	540.2
293.157	533.6
293.547	532.6
293.936	533.2
294.326	527.4
294.716	530.8
295.106	525.4
295.496	531.2
295.886	532
296.276	517.6
296.666	518
297.056	524.6
297.446	522.8
297.836	539.6
298.227	516.4
298.617	524.4
299.008	529.4
299.398	524.6
299.789	517
300.179	524
300.57	535
300.961	526.2
301.352	521.4
301.742	526.4
302.133	524.8
302.524	520.8
302.915	525
303.307	527
303.698	530.8
304.089	527.8
304.48	522.2
304.872	528.2
305.263	526.4
305.655	524.6
306.046	533.6
306.438	531
306.829	523
307.221	539.2
307.613	529
308.005	539.6
308.397	540
308.789	542.4
309.181	546.4
309.573	543
309.965	535.8
310.357	530.8
310.749	535.2
311.142	526.2
311.534	533.4
311.926	531
312.319	526.4
312.711	517.6
313.104	540.4
313.497	525.8
313.889	560
314.282	538
314.675	547.6
315.068	531.4
315.461	538.2
315.854	547.2
316.247	530.4
316.64	530.2
317.033	522.8
317.405	537.4
317.798	526.2
318.192	533
318.585	521.2
318.979	528.8
319.372	521.2
319.766	527.4
320.16	537.8
320.553	542.4
320.947	542.8
321.341	523.2
321.735	527.8
322.129	511.6
322.523	548.4
322.917	521.2
323.311	546.8
323.705	529.2
324.099	542
324.494	529
324.888	536
325.282	529.2
325.677	534.6
326.071	542.4
326.466	534.2
326.861	533
327.255	539.4
327.65	542.6
328.045	541.8
328.44	523.4
328.835	532.8
329.23	522.8
329.625	548.8
330.02	525
330.415	545.6
330.81	527.8
331.206	530.2
331.601	525.6
331.996	540
332.37	550
332.766	516.8
333.161	548
333.557	526.8
333.953	527.4
334.348	821.6
334.744	535
335.14	521.4
335.536	523.8
335.932	544.6
336.328	526.6
336.724	535.8
337.12	529.4
337.516	527.6
337.913	523.6
338.309	537.4
338.705	532.6
339.102	537.4
339.498	522.2
339.895	542.8
340.291	517.8
340.688	535.8
341.085	520.4
341.481	529.8
341.878	524.6
342.275	545.4
342.672	525.2
343.069	529
343.466	513.8
343.842	538.6
344.239	516
344.636	534.8
345.033	517
345.431	524.2
345.828	537.4
346.225	525.4
346.623	561.6
347.02	525.2
347.418	536.8
347.816	534
348.213	528
348.611	529.2
349.009	527
349.407	538.2
349.805	517.6
350.203	518.2
350.601	539.8
350.999	520
351.397	578.2
351.795	527.2
352.193	540.6
352.57	537.8
352.969	534
353.367	515.8
353.766	522
354.164	522.2
354.563	538.4
354.961	523.8
355.36	521
355.759	527.8
356.158	513
356.557	521.8
356.956	523.8
357.355	507.6
357.754	520.4
358.153	522.2
358.552	541
358.951	514.4
359.35	523.4
359.75	515.8
360.149	514
360.527	509.4
360.926	513
361.326	525
361.726	523.8
362.125	516.4
362.525	519.8
362.925	513.8
363.325	524.4
363.724	515.8
364.124	510
364.524	507.4
364.924	513.8
365.324	526.2
365.725	514
366.125	526.8
366.525	526.6
366.904	514.2
367.304	509.2
367.705	535.2
368.105	528.6
368.506	522.2
368.906	519.4
369.307	518.2
369.708	524.8
370.108	511.4
370.509	528.6
370.91	518.4
371.311	522.8
371.712	524
372.113	525
372.514	512.4
372.894	517.4
373.295	514.2
373.696	533.4
374.097	524.8
374.499	546.8
374.9	524
375.301	517
375.703	523.2
376.105	509.6
376.506	523.4
376.908	516.8
377.309	520.2
377.711	521.2
378.113	517.4
378.493	522.4
378.895	520
379.297	529.4
379.699	512.2
380.102	528
380.504	519
380.906	519.8
381.308	544.2
381.71	522.8
382.113	528.4
382.515	510.2
382.918	525.6
383.299	518.6
383.701	525.4
384.104	525.4
384.507	505.6
384.909	513.6
385.312	513.2
385.715	510.4
386.118	516.6
386.521	517
386.924	527.6
387.327	510.6
387.709	506
388.112	511.6
388.515	519.4
388.918	519.4
389.322	524
389.725	506.2
390.129	535.6
390.532	521.8
390.936	516
391.339	513.8
391.743	524.4
392.125	517.8
392.529	532.8
392.933	528
393.337	518.2
393.74	511.8
394.144	516
394.548	519
394.953	514.4
395.357	512.6
395.761	511.8
396.144	522
396.548	511
396.952	517.4
397.357	523
397.761	511.4
398.166	504.8
398.57	516.6
398.975	507.4
399.379	518
399.763	553.8
400.168	515
400.572	515.8
400.977	514
401.382	531.6
401.787	519.6
402.192	529.2
402.597	532.6
403.002	508.4
403.386	527.6
403.791	535.8
404.197	520.8
404.602	520
405.007	518.2
405.413	516.2
405.818	518.8
406.224	509.4
406.608	517.8
407.014	515
407.42	531.2
407.825	511.8
408.231	525
408.637	519
409.043	526.2
409.449	519.6
409.834	512.6
410.24	518
410.646	529.4
411.052	530.8
411.458	522.6
411.865	526.8
412.271	535
412.677	520.4
413.062	526.2
413.469	515.2
413.875	536.4
414.282	531
414.689	525
415.095	521
415.502	523.2
415.888	520.8
416.294	505.2
416.701	551.6
417.108	516.4
417.515	531.6
417.923	515.2
418.33	529.6
418.715	528.2
419.123	512.4
419.53	523
419.937	520.4
420.345	534
420.752	519.2
421.16	534
421.546	514
421.953	526
422.361	517.2
422.769	524.6
423.177	520.8
423.585	550
423.992	533.8
424.379	525.8
424.787	530.8
425.195	537.8
425.603	523
426.011	533.2
426.419	526.8
426.806	518.6
427.214	521
427.623	526.6
428.031	530.2
428.44	532
428.848	536
429.235	539
429.644	528.4
430.053	526.4
430.461	537.6
430.87	549
431.279	528.4
431.666	521.8
432.075	526.6
432.484	531.8
432.893	525.4
433.302	536.8
433.711	554
434.099	535.8
434.508	517
434.918	516.2
435.327	533
435.737	524.8
436.125	536.6
436.534	535.6
436.944	533.4
437.353	541.4
437.763	554.6
438.173	537.6
438.561	553
438.971	541.8
439.381	551
439.791	558.6
440.201	550.6
440.589	573.6
440.999	577.2
441.409	584.6
441.819	573.4
442.23	589
442.619	599
443.029	589
443.439	594
443.85	616.4
444.26	626.2
444.649	623.6
445.06	618
445.471	615.8
445.881	632.6
446.292	639.8
446.682	650
447.092	629.4
447.503	676.2
447.914	642.4
448.325	651
448.715	646.4
449.126	646.8
449.537	652.8
449.948	659.4
450.338	662.6
450.75	667.4
451.161	667.8
451.572	668.6
451.984	671
452.374	660
452.786	672.6
453.197	679.2
453.609	677.8
453.999	669.4
454.411	677
454.823	681.6
455.235	678.4
455.647	693.8
456.037	691.6
456.449	683
456.862	697.2
457.274	687.2
457.665	686.8
458.077	701.2
458.489	719.8
458.902	692.4
459.293	699.4
459.705	705
460.118	692.4
460.53	703.8
460.921	699.2
461.334	704.8
461.747	703.6
462.16	716.6
462.551	716.8
462.964	721.8
463.377	699.2
463.79	720.8
464.182	725
464.595	718.6
465.008	733.8
465.421	732.8
465.813	725.2
466.226	738.4
466.64	733.4
467.053	771.2
467.445	746.8
467.859	758.4
468.272	747
468.686	759.2
469.078	754
469.492	728
469.906	753.4
470.298	749.8
470.712	746
471.126	771.8
471.54	742
471.933	753.4
472.347	748
472.761	753
473.175	746.8
473.568	758
473.982	747.8
474.397	769
474.79	756.4
475.204	774.6
475.619	763.4
476.033	755.4
476.426	761.6
476.841	750.6
477.256	776.4
477.649	750.6
478.064	759.4
478.479	753
478.872	752
479.287	755.2
479.702	749.6
480.118	752.6
480.511	748.8
480.927	748
481.342	755.6
481.736	748
482.151	736.8
482.566	762.4
482.96	749.8
483.376	755.6
483.792	743.6
484.186	742.4
484.602	747.6
485.017	754
485.412	748.4
485.827	744.4
486.243	758.2
486.638	770.4
487.054	755.4
487.47	754
487.865	742.2
488.281	742
488.697	732.2
489.092	739.4
489.508	739.6
489.925	743
490.32	728.6
490.736	743.4
491.153	747.4
491.548	740.8
491.964	739
492.381	712.6
492.776	732.4
493.193	722.4
493.61	733
494.006	726
494.422	728.4
494.84	710.8
495.235	726.4
495.652	718.2
496.069	720
496.465	712.4
496.883	708.8
497.3	735.4
497.696	719.4
498.113	713.6
498.509	707.8
498.927	702.2
499.344	704.4
499.741	698.8
500.158	713.8
500.576	707
500.973	707.8
501.39	701.4
501.787	691.6
502.205	693.2
502.623	687.2
503.02	682.6
503.438	682
503.856	695.4
504.253	709.4
504.671	688
505.068	683.4
505.486	688.4
505.905	693.2
506.302	682.4
506.72	691.2
507.118	687.4
507.536	681.2
507.955	677.6
508.352	683.4
508.771	674.6
509.169	666.2
509.587	664.6
510.006	675.4
510.404	664.6
510.823	674.8
511.221	670
511.64	659.6
512.038	673.2
512.457	655.8
512.877	659.2
513.275	657.6
513.694	662
514.092	651
514.512	654.2
514.91	661
515.33	659
515.749	662.4
516.148	651.8
516.568	652.8
516.966	643.4
517.386	642.2
517.785	634.2
518.205	644.2
518.603	638.8
519.024	641.6
519.444	649
519.843	647.2
520.263	640.8
520.662	640.6
521.082	640.2
521.481	640.6
521.902	634
522.301	633.4
522.722	631.4
523.121	630.4
523.542	622.2
523.963	626.8
524.362	622.6
524.783	626.4
525.183	614.6
525.604	620.8
526.003	616
526.425	623
526.824	620.2
527.246	624.2
527.646	623.6
528.067	621.6
528.467	620.6
528.888	619.4
529.289	616.4
529.71	614.2
530.11	611.2
530.532	597.6
530.932	597.8
531.354	591.6
531.755	624.6
532.176	605.8
532.577	595.4
532.999	593
533.4	592.8
533.822	595.6
534.223	590
534.645	596.8
535.046	594.6
535.468	599.2
535.869	596.8
536.292	585
536.693	615.8
537.115	592.4
537.516	591
537.939	588.4
538.34	603.6
538.742	595
539.165	599
539.566	589.6
539.989	583.2
540.391	581.2
540.814	596.4
541.216	583.6
541.639	590.6
542.041	587.6
542.464	582.4
542.866	579
543.268	575.4
543.691	585.6
544.093	588.4
544.517	594.2
544.919	565.4
545.343	589.2
545.745	570
546.147	574
546.571	571.4
546.974	568.6
547.398	575.8
547.8	585.6
548.224	569
548.627	561.4
549.03	582.2
549.454	566
549.857	561
550.281	561.4
550.684	561.4
551.087	578.4
551.512	561.6
551.915	568.2
552.34	563.2
552.743	564
553.146	554.8
553.571	560.8
553.975	580.8
554.399	549.8
554.803	591.8
555.207	549.8
555.632	563.8
556.036	551.6
556.461	552.8
556.865	548.6
557.268	549.6
557.694	555
558.098	558.6
558.502	559.8
558.927	551
559.332	550
559.736	557.8
560.162	551.2
560.566	550.2
560.992	555.4
561.396	547.6
561.801	552.6
562.227	550.2
562.631	549.4
563.036	553.6
563.462	552.2
563.867	548.2
564.272	541.4
564.698	544
565.103	543.8
565.508	560.6
565.935	549.6
566.34	543.6
566.745	555.6
567.172	538.6
567.577	567
567.982	555.8
568.409	554.2
568.815	535.8
569.22	540
569.626	546.6
570.053	535.6
570.459	540
570.865	552
571.292	544.8
571.698	542.2
572.104	533
572.531	541.6
572.937	541
573.343	542
573.75	535.4
574.177	538.6
574.583	541.8
574.99	533.6
575.396	541.6
575.824	537.4
576.231	539
576.637	537.2
577.065	558
577.472	528.2
577.879	535.6
578.286	545.4
578.714	526.4
579.121	536.2
579.528	529.4
579.935	528
580.364	531.6
580.771	513
581.178	531.8
581.585	537.8
582.014	536.6
582.421	522.8
582.829	526.4
583.236	531.4
583.644	521.6
584.073	531
584.481	533.4
584.889	526.6
585.296	542
585.726	522.8
586.134	522.6
586.542	527
586.95	540.8
587.358	516.2
587.787	521.8
588.196	513.2
588.604	518.6
589.012	517.2
589.421	513.2
589.851	519.6
590.259	526.4
590.668	520.8
591.076	552.4
591.485	516.8
591.894	524
592.324	525.2
592.733	532.8
593.142	508.6
593.551	518.2
593.96	523.2
594.369	512.4
594.8	513.6
595.209	522.2
595.618	507.4
596.028	511
596.437	514.6
596.847	515.6
597.256	517.2
597.687	522.2
598.097	518.4
598.507	512.8
598.917	516.2
599.327	522
599.736	521.2
600.146	527.6
600.556	517
600.988	530
601.398	513.4
601.808	517.2
602.219	505.4
602.629	513
603.039	512.8
603.45	543.8
603.86	511.6
604.271	526.2
604.703	512
605.114	511.8
605.525	510.2
605.935	525.2
606.346	527.2
606.757	508.4
607.168	508.8
607.579	502.6
607.99	523.6
608.402	513.2
608.813	522.6
609.224	510.8
609.636	504.4
610.047	502.6
610.48	520
610.892	523.4
611.303	524.4
611.715	510
612.127	511
612.539	510.4
612.95	512.8
613.362	501.2
613.774	508.8
614.186	510.2
614.599	506.8
615.011	516.4
615.423	510.8
615.835	508.6
616.248	506.4
616.66	519.6
617.073	506
617.485	508.2
617.898	514.2
618.311	518.2
618.723	512.6
619.136	530.2
619.549	527.6
619.962	531.2
620.375	506.4
620.788	515
621.201	503.8
621.614	521.6
622.028	511
622.441	515.8
622.854	526.4
623.268	507.6
623.681	521.4
624.095	519.2
624.509	529
624.922	516.4
625.336	510.6
625.728	514
626.142	521.6
626.556	524.8
626.97	512.6
627.384	513.8
627.799	505.4
628.213	518.4
628.627	511.6
629.041	511.2
629.456	506.2
629.87	513.6
630.285	520.2
630.699	518.4
631.093	514.6
631.507	510.6
631.922	509.2
632.337	525.8
632.752	515.6
633.167	520.2
633.582	513.2
633.997	518
634.412	508
634.806	517.2
635.221	494.8
635.637	523
636.052	500.2
636.468	518.4
636.883	525.2
637.299	515.6
637.715	502.6
638.109	507.6
638.525	502.8
638.941	515.6
639.357	516.2
639.773	514.8
640.189	504.2
640.584	507.8
641	508.6
641.416	504.8
641.832	510.6
642.249	505.6
642.665	501.6
643.06	511.6
643.477	513.6
643.894	498.8
644.31	497.6
644.727	507.4
645.123	503.6
645.54	493
645.957	503.6
646.374	515.4
646.77	501.2
647.187	523.8
647.604	504.6
648.021	489.4
648.439	498.8
648.835	505
649.252	500
649.67	507.6
650.088	502.8
650.484	508.8
650.902	508
651.32	509.8
651.738	493.4
652.134	511.4
652.552	518.4
652.971	505.6
653.389	501.2
653.786	514
654.204	511.2
654.622	491
655.019	499.4
655.438	509.4
655.857	504.4
656.275	507.6
656.673	492
657.091	513.8
657.51	496.2
657.908	510.2
658.327	520
658.746	494.2
659.144	508.8
659.563	515.4
659.982	505.8
660.38	497.4
660.8	507
661.219	515.2
661.617	504
662.037	496.8
662.457	514
662.855	490.8
663.275	529.6
663.695	515.8
664.094	508.8
664.514	501
664.934	494.4
665.333	507.2
665.753	498.2
666.152	494.2
666.572	499.2
666.993	505.6
667.392	500
667.812	503
668.212	494.2
668.632	512.4
669.053	502.8
669.453	504.4
669.874	506
670.273	506
670.694	495.4
671.116	513.8
671.515	513.2
671.937	499.8
672.337	502.4
672.758	497.8
673.158	505.4
673.58	497.4
673.98	507
674.402	500.2
674.824	494
675.224	501.6
675.646	488.4
676.047	500.2
676.469	505.4
676.869	505.8
677.292	499.8
677.693	498
678.115	498.8
678.516	498.4
678.939	499.6
679.34	495.8
679.762	511
680.164	505.2
680.586	492.6
680.988	505.6
681.411	518
681.812	505.8
682.236	495.6
682.637	498.8
683.061	493
683.462	506.6
683.864	493.6
684.288	501.2
684.69	488
685.114	507.2
685.516	505
685.94	497.2
686.342	508.8
686.766	487.6
687.168	496.6
687.571	517
687.995	501.6
688.398	493.2
688.822	501.2
689.225	507
689.628	512.4
690.052	489.8
690.456	500.2
690.88	496.6
691.284	487
691.687	501.6
692.112	490.8
692.515	490.2
692.919	501.6
693.344	504.8
693.747	498.6
694.173	495
694.577	510.6
694.98	501.6
695.406	492.8
695.81	503.2
696.214	494.4
696.64	498.4
697.044	505.8
697.448	506.2
697.874	494.8
698.279	492
698.684	489
699.11	497
699.514	498.8
699.919	499.4
700.324	495
700.75	499
701.156	503.4
701.561	499.4
701.987	497.2
702.393	504.2
702.798	504.4
703.203	498
703.63	498.2
704.036	498.4
704.442	501.8
704.847	495.6
705.274	496
705.68	495.6
706.086	511
706.492	489
706.92	487.6
707.326	500.8
707.732	492.2
708.139	490
708.545	497.8
708.973	500
709.38	499
709.786	491.2
710.193	503.4
710.6	495
711.028	489.6
711.435	502.6
711.842	499
712.249	489.8
712.656	490
713.064	499.6
713.492	495.4
713.9	490
714.307	503.2
714.715	500.2
715.123	493
715.53	496.8
715.938	495
716.367	504.8
716.775	486.6
717.184	494.8
717.592	487.4
718	503.4
718.408	527.4
718.816	534.4
719.225	500.8
719.633	493.6
720.042	494.2
720.472	502
720.881	514.6
721.29	493.4
721.699	487.2
722.108	502.6
722.517	500
722.926	492.6
723.335	502.4
723.744	497.2
724.154	500
724.563	499.4
724.973	500.4
725.382	487.8
725.792	492.6
726.202	487.2
726.612	507.4
727.022	498
727.432	495
779.813	497.8
780.223	527.8
780.634	489.8
781.044	494.6
781.454	488.6
781.865	506.4
782.276	483.4
782.686	503.4
783.097	496.6
783.508	490.6
783.919	494.6
784.33	501.4
784.741	501.6
785.152	495.2
785.563	482.4
785.974	493.6
786.386	500
786.776	488
787.188	494.2
787.599	486
788.011	503.8
788.423	505
788.835	491
789.247	490.6
789.659	495
790.071	490.8
790.483	526.8
790.874	491.6
791.286	493.4
791.699	487.4
792.111	501.2
792.524	498.4
792.937	489.4
793.349	483.6
793.741	486.4
794.154	494.2
794.567	509
794.98	496.2
795.393	489.2
795.785	501.8
796.198	491.8
796.612	491.6
797.026	489
797.439	481.8
797.831	489.6
798.245	483.8
798.659	493.4
799.073	485.4
799.487	485.6
799.88	491
800.294	487.4
800.708	496.6
801.123	487.6
801.516	498.2
801.93	476.2
802.345	486
802.76	491.4
803.153	502
803.568	501.6
803.983	502.6
804.377	489.4
804.792	486.8
805.207	480.4
805.601	486.8
806.016	515.8
806.432	491.8
806.826	520.6
807.242	505.4
807.658	488.4
808.052	487.6
808.468	489.2
808.884	490
809.279	487.8
809.695	501.8
810.111	513
810.506	496.4
810.922	506.2
811.339	494.2
811.734	496.8
812.151	499.4
812.546	497.8
812.963	488.2
813.38	500.2
813.776	489.2
814.193	504.4
814.589	489.4
815.006	486.2
815.402	495.2
815.82	486.4
816.237	494.6
816.633	496.8
817.051	490.2
817.448	490.2
817.866	484.4
818.262	518.2
818.68	495.4
819.077	496.2
819.495	489.6
819.892	529
820.311	481.6
820.708	497
821.127	493.4
821.524	508.4
821.943	489.2
822.34	505.6
822.759	486.6
823.157	495.8
823.576	505.4
823.974	494.6
824.393	548
824.791	492
825.189	485.2
825.609	490
826.007	497
826.427	482.8
826.826	484.2
827.246	492.4
827.644	481.2
828.043	497.8
828.463	496.8
828.862	495.6
829.261	497.8
829.682	479.6
830.081	496
830.502	486.8
830.901	492.6
831.301	489.2
831.722	483.2
832.121	497
832.521	485
832.943	492.8
833.342	489.8
833.742	481.4
834.164	488
834.564	490.6
834.965	490.2
835.386	491.2
835.787	488
836.188	480.4
836.588	495
837.01	488.4
837.411	483.2
837.812	500.4
838.213	491.6
838.636	482.8
839.037	546.4
839.438	499.8
839.84	482.6
840.263	493.8
840.664	499
841.066	485.8
841.468	494.6
841.891	486.4
842.293	498.6
842.695	498
843.098	497.2
843.5	489.6
843.902	499.8
844.326	497
844.729	489.6
845.131	494.2
845.534	495.2
845.937	500
846.34	514.2
846.764	482.6
847.167	495.2
847.571	478.2
847.974	496.6
848.377	489.2
848.781	531.8
849.184	498
849.588	495
849.992	485.6
850.396	496.8
850.821	509.6
851.225	492.6
851.63	485.8
852.034	499
852.438	494.2
852.843	554.2
853.247	485.2
853.652	490.8
854.057	498.2
854.462	493.8
854.867	485
855.272	514.4
855.677	494.8
856.082	488.6
856.487	478.8
856.893	497.2
