#lambda/nm	C1
208.295	463
208.67	429.2
209.045	398.8
209.419	394.6
209.794	536.6
210.169	522.2
210.544	611.6
210.919	532.2
211.295	524
211.67	525.2
212.045	525.6
212.421	522.6
212.796	560
213.172	518.6
213.547	518.8
213.923	528.6
214.299	520.6
214.675	527.6
215.051	532.6
215.427	532.2
215.803	549.4
216.179	535.2
216.555	527.4
216.932	540.6
217.308	529.8
217.684	530.6
218.061	533.2
218.438	527.4
218.814	525.8
219.191	546.4
219.568	520.8
219.945	529
220.322	538.2
220.699	532.8
221.076	530.8
221.453	524.6
221.83	516.2
222.208	522
222.585	524.6
222.962	539.2
223.34	535.2
223.717	526.8
224.095	529.8
224.473	529
224.851	523.2
225.229	525.8
225.607	535.2
225.985	525
226.363	532
226.741	527.4
227.119	533
227.497	542.2
227.876	515.8
228.254	538
228.633	534.8
229.011	535.2
229.39	541.2
229.769	538
230.148	531.2
230.527	541
230.905	530.2
231.284	533.8
231.664	525
232.043	537.2
232.422	537.8
232.801	523.6
233.181	531.8
233.56	530.6
233.94	525.4
234.319	517.4
234.699	530.4
235.079	554.4
235.458	559.6
235.838	544.8
236.218	529.8
236.598	518.2
236.978	523.4
237.358	527.4
237.738	528.2
238.119	534.6
238.499	516
238.88	530.4
239.26	544.8
239.641	521
240.021	531
240.402	534
240.783	519.4
241.163	526.8
241.544	525.8
241.925	528.2
242.306	542.2
242.687	523.4
243.069	530.2
243.45	532.4
243.831	524.4
244.212	527
244.594	560.2
244.975	540.4
245.357	529.8
245.739	527.2
246.12	522.2
246.502	544.8
246.884	526.2
247.266	525
247.648	527.2
248.03	543.6
248.412	527.2
248.794	537
249.176	519.6
249.559	537.4
249.941	520.6
250.323	524
250.706	526.2
251.089	527.6
251.471	521.2
251.854	527.2
252.237	536.8
252.62	533.2
253.002	528.4
253.385	524.6
253.769	544.2
254.152	530
254.535	539.2
254.918	524.6
255.301	528.8
255.685	520.6
256.068	516.2
256.452	543
256.835	534.4
257.219	523
257.603	534.2
257.986	523.2
258.37	528.8
258.754	514
259.138	528.6
259.522	538.6
259.906	530.4
260.29	532
260.675	518
261.059	537.8
261.443	522.6
261.828	532.6
262.212	527.6
262.597	515.2
262.981	522.8
263.366	531.8
263.751	524.6
264.136	527
264.521	524
264.906	516.8
265.291	530
265.676	518
266.061	531.6
266.446	542.2
266.831	529.6
267.217	545.2
267.602	529.6
267.987	528.6
268.373	530.2
268.759	539.4
269.144	530.2
269.53	528.6
269.916	532
270.302	521.8
270.688	528.2
271.074	532.2
271.46	531.4
271.846	553.4
272.232	527.4
272.618	525.6
273.004	523.2
273.391	532.8
273.777	537.8
274.164	536.2
274.55	535.6
274.937	523.8
275.324	521
275.71	529.4
276.097	533.4
276.484	524.2
276.871	535.4
277.258	529.4
277.645	518
278.032	520.4
278.419	526.2
278.807	527.4
279.194	523.2
279.581	520.4
279.969	539
280.356	536
280.744	527.2
281.131	546.4
281.519	534.2
281.907	527
282.295	521.8
282.682	535
283.07	539.8
283.458	540
283.846	541.2
284.235	542.6
284.623	534.2
285.011	523.2
285.399	530.4
285.788	527.4
286.176	522.6
286.565	539.4
286.953	526.8
287.342	528.6
287.731	525.4
288.119	518.8
288.508	526.2
288.897	522.4
289.286	518.2
289.675	525.8
290.064	525
290.453	524
290.821	528.2
291.21	538.6
291.599	520.8
291.989	524
292.378	533.4
292.768	538.2
293.157	531.4
293.547	526.2
293.936	518.6
294.326	522
294.716	527.8
295.106	527.6
295.496	529.4
295.886	531.4
296.276	523
296.666	523.8
297.056	521.2
297.446	518.6
297.836	548.2
298.227	527
298.617	526.8
299.008	534.8
299.398	523.6
299.789	523.8
300.179	531.6
300.57	541.8
300.961	530.6
301.352	524.4
301.742	527.6
302.133	524.2
302.524	517.4
302.915	529.6
303.307	523.8
303.698	542
304.089	527.4
304.48	526.6
304.872	532.4
305.263	526.6
305.655	513.4
306.046	530.4
306.438	528.4
306.829	519.8
307.221	536.6
307.613	527.6
308.005	530
308.397	537.8
308.789	540.6
309.181	556
309.573	543.2
309.965	533.4
310.357	529.8
310.749	542
311.142	516.8
311.534	529.4
311.926	536
312.319	538.4
312.711	527
313.104	546.6
313.497	537
313.889	554
314.282	541
314.675	543.2
315.068	522.2
315.461	536.2
315.854	556
316.247	533.4
316.64	527.6
317.033	523.6
317.405	539
317.798	536.8
318.192	538.4
318.585	527.4
318.979	541
319.372	521.2
319.766	522.2
320.16	535.8
320.553	535.4
320.947	537.6
321.341	528.2
321.735	526.4
322.129	524.4
322.523	545.4
322.917	520.6
323.311	539.8
323.705	537.4
324.099	537
324.494	546.6
324.888	541.4
325.282	533.6
325.677	541.8
326.071	539.6
326.466	534.6
326.861	528.4
327.255	534.8
327.65	537
328.045	545.4
328.44	533.4
328.835	532.8
329.23	525.4
329.625	545.8
330.02	526.2
330.415	541.6
330.81	533.8
331.206	536.2
331.601	523.2
331.996	535.4
332.37	544.4
332.766	521.4
333.161	542.6
333.557	532.4
333.953	533.6
334.348	820.8
334.744	523.4
335.14	531.6
335.536	524.4
335.932	540.8
336.328	528.2
336.724	539
337.12	531
337.516	525
337.913	538.8
338.309	540.4
338.705	526
339.102	534.6
339.498	524.2
339.895	538.6
340.291	530
340.688	542
341.085	527
341.481	524.6
341.878	524.4
342.275	537
342.672	522.4
343.069	518.2
343.466	509.6
343.842	534.6
344.239	519.6
344.636	523.4
345.033	514.4
345.431	521.2
345.828	528.8
346.225	516.8
346.623	551.6
347.02	522.2
347.418	526.4
347.816	534
348.213	518.8
348.611	526.8
349.009	515
349.407	534.6
349.805	513.6
350.203	513.6
350.601	542.8
350.999	524.2
351.397	579.8
351.795	524.8
352.193	529.6
352.57	526.4
352.969	537.6
353.367	511
353.766	515.2
354.164	522.2
354.563	527.8
354.961	524
355.36	520.2
355.759	517.6
356.158	515.4
356.557	528.2
356.956	509.4
357.355	510
357.754	525.2
358.153	527
358.552	539
358.951	522.6
359.35	533.6
359.75	512
360.149	514.4
360.527	513.6
360.926	518.2
361.326	527.2
361.726	524.2
362.125	519.8
362.525	532.6
362.925	520
363.325	522.6
363.724	521.4
364.124	520.6
364.524	509.2
364.924	524
365.324	528
365.725	503.2
366.125	525.8
366.525	520.4
366.904	523
367.304	503.4
367.705	536.6
368.105	526.6
368.506	523.6
368.906	521
369.307	518
369.708	523.4
370.108	511.6
370.509	527.2
370.91	517.8
371.311	517.8
371.712	522
372.113	517.4
372.514	504.4
372.894	515.2
373.295	511.4
373.696	524.6
374.097	526
374.499	544.2
374.9	525
375.301	515.4
375.703	520
376.105	507.2
376.506	527.2
376.908	523.6
377.309	515.6
377.711	521.4
378.113	516.4
378.493	519.4
378.895	516.4
379.297	528.2
379.699	510.4
380.102	525
380.504	518.4
380.906	514.6
381.308	540.2
381.71	523.6
382.113	526.8
382.515	523.6
382.918	522.4
383.299	518
383.701	528.8
384.104	520
384.507	505.2
384.909	515.6
385.312	510
385.715	504.2
386.118	517.4
386.521	506.2
386.924	520.4
387.327	512.2
387.709	505.2
388.112	510.4
388.515	510.8
388.918	518
389.322	521
389.725	510.8
390.129	542.2
390.532	524.4
390.936	514.4
391.339	513.4
391.743	513.2
392.125	512
392.529	526.4
392.933	526
393.337	521
393.74	513.8
394.144	520.4
394.548	513
394.953	520.4
395.357	525.6
395.761	513.2
396.144	515.4
396.548	513.2
396.952	519.4
397.357	522.2
397.761	514.2
398.166	515.4
398.57	508
398.975	509.4
399.379	524
399.763	548.8
400.168	518
400.572	516.8
400.977	518.6
401.382	531.6
401.787	526.6
402.192	531.4
402.597	523.4
403.002	508.8
403.386	528.6
403.791	534.4
404.197	514
404.602	515.4
405.007	519.8
405.413	517.6
405.818	522.4
406.224	511.4
406.608	516
407.014	516
407.42	528.6
407.825	520.8
408.231	522.6
408.637	522.4
409.043	531.4
409.449	515.2
409.834	510.2
410.24	519.2
410.646	523.6
411.052	523.8
411.458	522.2
411.865	525.8
412.271	522.6
412.677	517.8
413.062	521.6
413.469	513.6
413.875	554.4
414.282	532.6
414.689	523.6
415.095	526
415.502	513.4
415.888	521
416.294	511
416.701	546.8
417.108	520.2
417.515	527
417.923	519.8
418.33	535.6
418.715	525.2
419.123	518.4
419.53	518.6
419.937	517
420.345	541.8
420.752	510.4
421.16	531.6
421.546	512.6
421.953	519.8
422.361	511.8
422.769	517.8
423.177	514.4
423.585	538.8
423.992	540.2
424.379	531.4
424.787	529.6
425.195	539.6
425.603	522.4
426.011	527.2
426.419	535
426.806	529
427.214	525.6
427.623	535.6
428.031	535.6
428.44	525.4
428.848	534
429.235	540
429.644	531.2
430.053	527.2
430.461	541
430.87	548
431.279	530.8
431.666	527.8
432.075	532
432.484	536.2
432.893	527
433.302	545.4
433.711	572.8
434.099	551.2
434.508	544.6
434.918	536
435.327	559.8
435.737	567.6
436.125	569.2
436.534	576.4
436.944	577.4
437.353	584.4
437.763	607.2
438.173	584
438.561	608
438.971	589
439.381	608.6
439.791	620.2
440.201	617.6
440.589	633
440.999	647.4
441.409	649.6
441.819	647.8
442.23	670.4
442.619	677.4
443.029	678.2
443.439	684.6
443.85	689.6
444.26	703.6
444.649	710.4
445.06	707
445.471	710
445.881	718.2
446.292	718.2
446.682	745.8
447.092	719.4
447.503	776.8
447.914	737.2
448.325	744.4
448.715	739.2
449.126	740
449.537	750.2
449.948	744.2
450.338	763.4
450.75	765.8
451.161	773.2
451.572	769.4
451.984	768
452.374	762
452.786	776.4
453.197	782
453.609	785.4
453.999	766.2
454.411	764.6
454.823	782
455.235	790.8
455.647	794.6
456.037	799.4
456.449	785
456.862	792.2
457.274	786.8
457.665	797.4
458.077	804
458.489	824.4
458.902	805
459.293	803.8
459.705	798.4
460.118	797.4
460.53	818.2
460.921	803.6
461.334	817.2
461.747	811.2
462.16	829.2
462.551	831.2
462.964	842.2
463.377	814.2
463.79	816
464.182	840
464.595	822.8
465.008	837.4
465.421	837.2
465.813	840.8
466.226	834.4
466.64	834.8
467.053	891
467.445	850.8
467.859	857.8
468.272	844
468.686	866.6
469.078	852.2
469.492	838.8
469.906	859.2
470.298	862.2
470.712	852.4
471.126	891.8
471.54	849
471.933	850
472.347	852.6
472.761	856.6
473.175	853.2
473.568	852
473.982	850.6
474.397	857.2
474.79	858.6
475.204	859.8
475.619	856.2
476.033	865.4
476.426	851.2
476.841	844.6
477.256	869.6
477.649	853.8
478.064	841.2
478.479	837.4
478.872	840
479.287	833.2
479.702	845.4
480.118	837.2
480.511	840.8
480.927	835.6
481.342	843.8
481.736	849.6
482.151	835.4
482.566	843
482.96	841.2
483.376	838.2
483.792	836.2
484.186	838.6
484.602	823.4
485.017	833
485.412	830.6
485.827	827
486.243	820.2
486.638	846
487.054	828.8
487.47	827.2
487.865	827.8
488.281	824.6
488.697	818.6
489.092	822
489.508	811.2
489.925	823.2
490.32	801.8
490.736	823.4
491.153	812
491.548	809.2
491.964	816.8
492.381	789.4
492.776	819.6
493.193	800.4
493.61	808.8
494.006	802.6
494.422	805.2
494.84	780.2
495.235	795
495.652	782.8
496.069	781.2
496.465	774.6
496.883	780
497.3	802.2
497.696	782
498.113	784.6
498.509	761.2
498.927	762
499.344	767.2
499.741	778
500.158	776.8
500.576	780.8
500.973	776
501.39	749
501.787	756.2
502.205	770
502.623	740
503.02	746.4
503.438	748
503.856	749.6
504.253	759.4
504.671	763
505.068	745.2
505.486	739.4
505.905	753.6
506.302	740.4
506.72	737.2
507.118	715.8
507.536	728.2
507.955	722
508.352	726.2
508.771	725.8
509.169	727
509.587	711.2
510.006	716.2
510.404	713.6
510.823	705.6
511.221	712.2
511.64	709
512.038	728
512.457	707.6
512.877	714
513.275	703.8
513.694	698.6
514.092	704
514.512	706.6
514.91	700.6
515.33	693.4
515.749	696.4
516.148	695.8
516.568	696.2
516.966	691.2
517.386	687
517.785	685.8
518.205	670.2
518.603	674
519.024	671.4
519.444	678
519.843	691
520.263	685.4
520.662	673.2
521.082	676.8
521.481	674.2
521.902	667.6
522.301	671.2
522.722	667.2
523.121	661.2
523.542	661.2
523.963	655.6
524.362	664
524.783	660.6
525.183	657.4
525.604	666.4
526.003	633.8
526.425	640.8
526.824	648.6
527.246	655
527.646	642
528.067	644.4
528.467	640.8
528.888	634.4
529.289	634
529.71	638.4
530.11	634.4
530.532	628.4
530.932	623.8
531.354	621.4
531.755	661.8
532.176	641.6
532.577	620.4
532.999	627.2
533.4	626.8
533.822	631.4
534.223	620.8
534.645	619.4
535.046	611.6
535.468	617.6
535.869	634.2
536.292	605.4
536.693	642.8
537.115	614.2
537.516	605
537.939	613.8
538.34	627.4
538.742	630
539.165	605.6
539.566	604.2
539.989	601
540.391	606.8
540.814	610.4
541.216	611.8
541.639	603.6
542.041	607
542.464	594.2
542.866	602.8
543.268	595.2
543.691	611.6
544.093	602
544.517	619
544.919	588.8
545.343	616
545.745	596.2
546.147	597.4
546.571	599.8
546.974	591.6
547.398	589
547.8	606.2
548.224	589
548.627	587.2
549.03	594.4
549.454	583.4
549.857	584.2
550.281	575.8
550.684	577
551.087	597.8
551.512	584
551.915	582.8
552.34	572.6
552.743	580
553.146	581
553.571	575
553.975	584.8
554.399	572.4
554.803	615.4
555.207	571
555.632	567.2
556.036	577
556.461	563.6
556.865	568.4
557.268	570.8
557.694	560.8
558.098	582
558.502	574
558.927	566.6
559.332	566.8
559.736	569
560.162	568
560.566	574.8
560.992	573.6
561.396	563.2
561.801	564.4
562.227	560.2
562.631	564.2
563.036	560
563.462	570.2
563.867	561.2
564.272	555.6
564.698	565.4
565.103	540.6
565.508	566.8
565.935	552.8
566.34	551.8
566.745	558.4
567.172	547.4
567.577	571.6
567.982	567.2
568.409	559.2
568.815	549.2
569.22	556
569.626	555.2
570.053	539.6
570.459	546.4
570.865	555.6
571.292	549.8
571.698	552.8
572.104	538.2
572.531	557
572.937	561.6
573.343	546.2
573.75	543.4
574.177	552.4
574.583	552.4
574.99	548.8
575.396	549
575.824	540.6
576.231	544.8
576.637	536.2
577.065	572.2
577.472	542.4
577.879	534.4
578.286	555.4
578.714	535.6
579.121	530.6
579.528	540.4
579.935	542.4
580.364	530.8
580.771	525.8
581.178	523.4
581.585	540.8
582.014	543.2
582.421	532
582.829	526.8
583.236	536
583.644	526.6
584.073	528.8
584.481	540
584.889	536.6
585.296	531
585.726	529.4
586.134	526.2
586.542	534.6
586.95	544.6
587.358	521.6
587.787	527.2
588.196	519.2
588.604	526.6
589.012	527
589.421	525.2
589.851	519.2
590.259	528.6
590.668	533
591.076	549
591.485	523.6
591.894	524.8
592.324	540.2
592.733	533.4
593.142	512.4
593.551	520.8
593.96	541.2
594.369	514.2
594.8	516.4
595.209	521.4
595.618	511.4
596.028	510.4
596.437	511
596.847	522.6
597.256	522
597.687	520
598.097	520
598.507	516.2
598.917	521.4
599.327	519.8
599.736	522.2
600.146	528.4
600.556	517.2
600.988	523.6
601.398	520.6
601.808	527.6
602.219	508.2
602.629	518.8
603.039	522.6
603.45	532.6
603.86	522.4
604.271	533.4
604.703	517.2
605.114	516.8
605.525	526.6
605.935	531.6
606.346	534
606.757	521.8
607.168	516.4
607.579	513.6
607.99	522
608.402	514.4
608.813	515.8
609.224	520.8
609.636	514.6
610.047	517
610.48	519.4
610.892	527
611.303	530.8
611.715	522.8
612.127	515.8
612.539	517.8
612.95	518.8
613.362	514
613.774	520
614.186	514.8
614.599	519
615.011	529
615.423	530
615.835	524.2
616.248	510.4
616.66	532.2
617.073	512.6
617.485	524.4
617.898	530.2
618.311	529.4
618.723	520.8
619.136	542.4
619.549	535
619.962	539.6
620.375	522
620.788	525.4
621.201	522
621.614	534
622.028	528.4
622.441	531.8
622.854	530.6
623.268	517
623.681	529
624.095	524.2
624.509	526.8
624.922	521
625.336	520.2
625.728	522.8
626.142	536
626.556	540
626.97	525
627.384	519.4
627.799	519.6
628.213	534.4
628.627	526.6
629.041	524.4
629.456	522.8
629.87	520
630.285	531.4
630.699	528.2
631.093	521.4
631.507	524.2
631.922	523.8
632.337	522.4
632.752	513.6
633.167	522.6
633.582	515.8
633.997	516.4
634.412	511
634.806	512.4
635.221	506.2
635.637	538.4
636.052	515
636.468	512
636.883	533.2
637.299	512.4
637.715	508.2
638.109	513.2
638.525	510.6
638.941	516.2
639.357	520.2
639.773	523
640.189	509.2
640.584	516.2
641	524.4
641.416	505.6
641.832	511
642.249	513.8
642.665	515
643.06	525.8
643.477	527.2
643.894	508
644.31	514.4
644.727	515.6
645.123	512.4
645.54	507.8
645.957	514.4
646.374	525.4
646.77	510.6
647.187	534.2
647.604	514.6
648.021	501
648.439	501.4
648.835	518.6
649.252	510.4
649.67	501.4
650.088	510.8
650.484	513.8
650.902	511
651.32	520
651.738	512.4
652.134	513.4
652.552	511.8
652.971	514.8
653.389	512
653.786	519.6
654.204	518.8
654.622	500
655.019	515.6
655.438	518.8
655.857	511.4
656.275	515.4
656.673	503.4
657.091	515.8
657.51	500.8
657.908	512.4
658.327	521.6
658.746	496.6
659.144	510.6
659.563	517.8
659.982	513.2
660.38	497.8
660.8	508
661.219	510.8
661.617	518.8
662.037	504
662.457	509.6
662.855	496.4
663.275	528.8
663.695	509.2
664.094	504
664.514	509.6
664.934	500.6
665.333	511.4
665.753	498.2
666.152	492
666.572	500.2
666.993	512
667.392	498.6
667.812	502.4
668.212	499.6
668.632	511.6
669.053	499.6
669.453	499.2
669.874	505.6
670.273	507.2
670.694	502.8
671.116	512.6
671.515	518.2
671.937	502.2
672.337	506.8
672.758	499.4
673.158	506.6
673.58	495.6
673.98	502.2
674.402	512.4
674.824	499.4
675.224	496
675.646	496.2
676.047	497.8
676.469	501.8
676.869	501.6
677.292	505.8
677.693	496.8
678.115	490.8
678.516	501
678.939	502.4
679.34	498.8
679.762	511.2
680.164	498.4
680.586	503.6
680.988	507.8
681.411	523.8
681.812	497.6
682.236	497.6
682.637	494.8
683.061	492
683.462	499.6
683.864	499
684.288	496.2
684.69	491.8
685.114	511.6
685.516	505.2
685.94	493.2
686.342	508
686.766	498.4
687.168	497
687.571	506.6
687.995	503.8
688.398	489.2
688.822	490.6
689.225	503.6
689.628	510.2
690.052	496.4
690.456	503.6
690.88	505.2
691.284	479
691.687	495.4
692.112	498.6
692.515	487
692.919	496.6
693.344	499
693.747	498.2
694.173	497.2
694.577	509.4
694.98	498.6
695.406	498
695.81	495.6
696.214	504.2
696.64	499.6
697.044	497
697.448	505
697.874	495.8
698.279	500.2
698.684	488.8
699.11	492.2
699.514	503.2
699.919	497.8
700.324	495.6
700.75	491.8
701.156	498.2
701.561	510.8
701.987	501
702.393	505.6
702.798	510
703.203	499.4
703.63	498.2
704.036	493.6
704.442	499.2
704.847	491.2
705.274	503
705.68	505
706.086	514.6
706.492	494
706.92	498.6
707.326	499.2
707.732	490.8
708.139	497.2
708.545	499.6
708.973	490.2
709.38	492.2
709.786	491.6
710.193	514
710.6	499.6
711.028	489.2
711.435	502.4
711.842	501.8
712.249	489.4
712.656	492.2
713.064	505.6
713.492	489.6
713.9	491.6
714.307	498.6
714.715	498.8
715.123	502
715.53	492
715.938	508
716.367	496.6
716.775	501
717.184	493.6
717.592	492
718	501.8
718.408	525.6
718.816	536.2
719.225	500.2
719.633	492
720.042	489.4
720.472	496.4
720.881	515.6
721.29	504
721.699	491
722.108	494.4
722.517	493.4
722.926	492.2
723.335	505
723.744	499.2
724.154	499
724.563	504.6
724.973	500.6
725.382	497.4
725.792	493.2
726.202	496
726.612	505
727.022	494
727.432	494.2
779.813	496.8
780.223	532.2
780.634	490.4
781.044	493.4
781.454	492
781.865	504.4
782.276	486
782.686	499.4
783.097	488.6
783.508	489
783.919	493
784.33	503
784.741	504.6
785.152	479.8
785.563	482.4
785.974	487.6
786.386	504.2
786.776	490
787.188	495.4
787.599	495.4
788.011	501.4
788.423	500.6
788.835	485.4
789.247	489.2
789.659	485.4
790.071	487.8
790.483	529
790.874	491.2
791.286	504.4
791.699	491.2
792.111	495
792.524	491.8
792.937	491.2
793.349	482
793.741	486.6
794.154	488.4
794.567	507.8
794.98	491.6
795.393	482.8
795.785	507.4
796.198	485.8
796.612	493
797.026	496
797.439	480.2
797.831	490.4
798.245	484.2
798.659	494
799.073	497
799.487	481.8
799.88	491.2
800.294	492.2
800.708	496.6
801.123	493.8
801.516	506
801.93	488
802.345	486.4
802.76	500
803.153	505
803.568	507
803.983	498.4
804.377	493.4
804.792	484.8
805.207	483
805.601	502.4
806.016	515.4
806.432	489.4
806.826	513
807.242	509.2
807.658	493.2
808.052	487
808.468	492.2
808.884	490.4
809.279	489.8
809.695	504.8
810.111	507.8
810.506	499
810.922	508.4
811.339	481.8
811.734	498.4
812.151	489.2
812.546	481.2
812.963	493.2
813.38	500
813.776	492
814.193	499
814.589	485.8
815.006	495
815.402	490.4
815.82	490
816.237	490.4
816.633	492
817.051	480
817.448	498.4
817.866	490.2
818.262	512.2
818.68	489.8
819.077	488.8
819.495	488
819.892	525.8
820.311	488.8
820.708	492.6
821.127	492
821.524	507
821.943	489.4
822.34	511.8
822.759	488.8
823.157	489.2
823.576	504.8
823.974	496.6
824.393	544
824.791	491
825.189	487.2
825.609	493
826.007	496.8
826.427	485
826.826	492
827.246	500.2
827.644	482.2
828.043	495.8
828.463	487.4
828.862	496.4
829.261	493.4
829.682	484.2
830.081	509.2
830.502	485.4
830.901	495.4
831.301	492.2
831.722	486.2
832.121	489.2
832.521	487.2
832.943	490.4
833.342	488.2
833.742	480.6
834.164	491.2
834.564	487.4
834.965	498.2
835.386	495.4
835.787	492.2
836.188	494.4
836.588	494.6
837.01	486
837.411	479.8
837.812	494.4
838.213	495
838.636	483.4
839.037	544.6
839.438	497.4
839.84	489.8
840.263	499
840.664	486.4
841.066	482.6
841.468	496
841.891	493.4
842.293	501.6
842.695	499.4
843.098	499.2
843.5	489.2
843.902	500.2
844.326	498.8
844.729	496
845.131	495.6
845.534	488.6
845.937	499.4
846.34	497.8
846.764	488.4
847.167	493.4
847.571	489.8
847.974	486.8
848.377	490.6
848.781	528.6
849.184	499
849.588	485.8
849.992	491.4
850.396	489.2
850.821	510.2
851.225	494.8
851.63	488
852.034	505.2
852.438	486
852.843	548
853.247	489
853.652	499.8
854.057	506.6
854.462	496.8
854.867	493.8
855.272	511
855.677	494
856.082	493
856.487	477.6
856.893	495.8
857.298	486
857.704	483
858.11	496
