#lambda/nm	C1
208.295	467
208.67	432.8
209.045	397.4
209.419	404.2
209.794	536.2
210.169	515
210.544	615.8
210.919	536.2
211.295	522.6
211.67	536
212.045	519.2
212.421	530.4
212.796	555
213.172	530
213.547	533.8
213.923	532.4
214.299	525
214.675	536.6
215.051	536.8
215.427	538.8
215.803	544.6
216.179	543.6
216.555	524.8
216.932	537.2
217.308	528.4
217.684	527.8
218.061	536.8
218.438	532.6
218.814	526
219.191	532.6
219.568	526.6
219.945	531.8
220.322	534.8
220.699	531.2
221.076	537.8
221.453	533.8
221.83	522
222.208	527
222.585	525.4
222.962	535.4
223.34	530.8
223.717	524.6
224.095	522.8
224.473	533.4
224.851	526.2
225.229	522.8
225.607	543.6
225.985	521.2
226.363	534
226.741	538.8
227.119	531.2
227.497	533.6
227.876	515.8
228.254	533.2
228.633	527.8
229.011	524.8
229.39	534
229.769	528
230.148	531.6
230.527	540.6
230.905	529.8
231.284	525.8
231.664	519.6
232.043	530.6
232.422	529.6
232.801	516.4
233.181	525.8
233.56	523.8
233.94	523.8
234.319	514
234.699	520.8
235.079	560
235.458	555
235.838	540
236.218	518.8
236.598	518.6
236.978	525.8
237.358	523.6
237.738	526.4
238.119	539
238.499	525.8
238.88	527.8
239.26	544.2
239.641	519
240.021	521.2
240.402	529
240.783	531
241.163	524.8
241.544	527.4
241.925	532.4
242.306	532.8
242.687	519.2
243.069	528.2
243.45	541.4
243.831	516.6
244.212	528.4
244.594	561
244.975	546.2
245.357	534.8
245.739	519
246.12	525.6
246.502	539
246.884	527.8
247.266	529.4
247.648	529.4
248.03	550.4
248.412	535.6
248.794	528.6
249.176	524.4
249.559	537.4
249.941	524.2
250.323	520.8
250.706	526.4
251.089	530.6
251.471	526.2
251.854	532
252.237	524
252.62	529.6
253.002	533.4
253.385	530.4
253.769	536.6
254.152	529.8
254.535	540.2
254.918	525.8
255.301	535.4
255.685	527.4
256.068	522.8
256.452	542.4
256.835	534
257.219	538.6
257.603	543.2
257.986	524
258.37	534.4
258.754	521.6
259.138	529.4
259.522	536.6
259.906	531.2
260.29	526.4
260.675	520.4
261.059	534.4
261.443	525
261.828	527.4
262.212	536.2
262.597	522
262.981	529.2
263.366	534
263.751	523.8
264.136	522.4
264.521	531
264.906	518.8
265.291	535.2
265.676	521
266.061	533
266.446	543.8
266.831	517.2
267.217	545.2
267.602	528.6
267.987	535.4
268.373	521.6
268.759	539.6
269.144	537.8
269.53	530.6
269.916	522.4
270.302	542
270.688	541.2
271.074	525.4
271.46	539.6
271.846	556.2
272.232	527.2
272.618	522.6
273.004	525.8
273.391	541.2
273.777	530.4
274.164	524.8
274.55	540.2
274.937	533.2
275.324	521.8
275.71	529
276.097	537.8
276.484	519
276.871	531.8
277.258	534.6
277.645	509.4
278.032	523.2
278.419	527.8
278.807	530
279.194	517.2
279.581	515.4
279.969	527.8
280.356	523.6
280.744	528.8
281.131	548.4
281.519	532
281.907	524
282.295	526.6
282.682	541.8
283.07	531.4
283.458	539.8
283.846	535.4
284.235	535.8
284.623	534.8
285.011	523.4
285.399	530.8
285.788	519
286.176	521.4
286.565	534.4
286.953	521.4
287.342	523.4
287.731	522.6
288.119	520.6
288.508	522.8
288.897	524
289.286	518.2
289.675	526.4
290.064	537
290.453	518.8
290.821	528.6
291.21	540.8
291.599	517.4
291.989	532
292.378	535
292.768	539.8
293.157	524.8
293.547	532.4
293.936	529.2
294.326	519.8
294.716	526.2
295.106	516.6
295.496	541
295.886	530.4
296.276	524.8
296.666	514.6
297.056	533.8
297.446	519.6
297.836	538.4
298.227	528
298.617	535.2
299.008	537.4
299.398	518.2
299.789	514.4
300.179	530.4
300.57	535.2
300.961	520.8
301.352	524.8
301.742	533
302.133	524.4
302.524	526.6
302.915	531.8
303.307	524.6
303.698	536.2
304.089	530.4
304.48	524.2
304.872	532.6
305.263	528.8
305.655	520.8
306.046	534.4
306.438	530.8
306.829	526.4
307.221	536.2
307.613	534.2
308.005	537.8
308.397	536
308.789	539.8
309.181	547.6
309.573	543
309.965	529
310.357	531.4
310.749	540.4
311.142	520.6
311.534	522.6
311.926	537.2
312.319	531.2
312.711	519.6
313.104	542.8
313.497	525.6
313.889	555.8
314.282	542.8
314.675	545.2
315.068	523.6
315.461	535
315.854	551.2
316.247	522.8
316.64	523.6
317.033	524.6
317.405	537.2
317.798	523.8
318.192	531.6
318.585	522.4
318.979	529.6
319.372	520.2
319.766	526.4
320.16	533.6
320.553	548.8
320.947	542.4
321.341	528
321.735	533.6
322.129	523
322.523	551.4
322.917	518.8
323.311	539.4
323.705	528.2
324.099	530.4
324.494	541.4
324.888	547.2
325.282	529.2
325.677	536.2
326.071	528
326.466	541
326.861	532.2
327.255	536
327.65	540
328.045	537
328.44	522.2
328.835	527
329.23	510.2
329.625	544.6
330.02	528.4
330.415	542.4
330.81	525.6
331.206	525.2
331.601	520.6
331.996	533
332.37	544
332.766	520.6
333.161	542.6
333.557	523.6
333.953	529.4
334.348	701.8
334.744	528.2
335.14	529.6
335.536	521.2
335.932	538.8
336.328	524.2
336.724	534.6
337.12	529.6
337.516	526.6
337.913	526.6
338.309	540
338.705	525.6
339.102	535.8
339.498	525.8
339.895	536.2
340.291	519.6
340.688	532.8
341.085	520.8
341.481	525
341.878	520.2
342.275	548
342.672	518.4
343.069	524
343.466	518.8
343.842	542
344.239	518.6
344.636	528.8
345.033	530.6
345.431	519.8
345.828	525.8
346.225	528
346.623	553.4
347.02	533.4
347.418	534.2
347.816	540
348.213	516.6
348.611	534.8
349.009	524.6
349.407	531.8
349.805	519.4
350.203	522.2
350.601	544
350.999	525.6
351.397	555.8
351.795	525.6
352.193	530.8
352.57	537.6
352.969	534
353.367	515.8
353.766	524
354.164	525
354.563	539.2
354.961	532.6
355.36	525.4
355.759	522.2
356.158	516.6
356.557	523
356.956	516.6
357.355	517.4
357.754	525.8
358.153	524.2
358.552	545
358.951	520.6
359.35	535.8
359.75	519.8
360.149	516
360.527	518.4
360.926	519.8
361.326	517.6
361.726	526.2
362.125	514.6
362.525	529.2
362.925	524.8
363.325	528.4
363.724	524
364.124	520.6
364.524	520.6
364.924	520.2
365.324	527.8
365.725	512.4
366.125	524.8
366.525	523.8
366.904	513.2
367.304	511.6
367.705	534.6
368.105	534.6
368.506	526.2
368.906	528.4
369.307	522.4
369.708	526
370.108	516.6
370.509	538
370.91	512.6
371.311	524.8
371.712	521.6
372.113	513.2
372.514	517.6
372.894	520.8
373.295	512.6
373.696	527
374.097	528
374.499	547.8
374.9	515.6
375.301	515.8
375.703	524.6
376.105	513
376.506	523.6
376.908	519.8
377.309	526.2
377.711	514.4
378.113	514.6
378.493	517.6
378.895	516.4
379.297	529.4
379.699	511.2
380.102	527
380.504	521
380.906	518.6
381.308	539.6
381.71	512.4
382.113	525
382.515	513
382.918	519.4
383.299	516.8
383.701	520.2
384.104	522.6
384.507	503.6
384.909	511
385.312	513.6
385.715	507.6
386.118	513.4
386.521	511.6
386.924	523.2
387.327	511.6
387.709	507
388.112	510.6
388.515	519
388.918	512.4
389.322	521.2
389.725	504.6
390.129	531
390.532	520
390.936	511.8
391.339	507
391.743	523.2
392.125	513.6
392.529	523.6
392.933	533.6
393.337	517.4
393.74	524.4
394.144	518.4
394.548	511.6
394.953	520.6
395.357	518.6
395.761	521.6
396.144	516.6
396.548	518
396.952	513.6
397.357	515
397.761	512.8
398.166	514.2
398.57	515.8
398.975	512.2
399.379	519.8
399.763	563
400.168	522.6
400.572	514.4
400.977	523.8
401.382	532.8
401.787	530.4
402.192	537.6
402.597	532.2
403.002	502.2
403.386	524
403.791	528.2
404.197	508.6
404.602	518.6
405.007	520.6
405.413	519
405.818	516.2
406.224	519.4
406.608	515.4
407.014	515.2
407.42	535.2
407.825	521.2
408.231	521
408.637	524
409.043	535.4
409.449	513.4
409.834	513.2
410.24	518.6
410.646	522.6
411.052	526.8
411.458	530.2
411.865	523.4
412.271	521
412.677	522.4
413.062	526.4
413.469	510.2
413.875	540.2
414.282	527.8
414.689	524.8
415.095	526.4
415.502	517.4
415.888	518.8
416.294	513.2
416.701	550.2
417.108	519.4
417.515	524.8
417.923	520.4
418.33	532.4
418.715	527.6
419.123	519
419.53	512.2
419.937	520.2
420.345	534.4
420.752	518.2
421.16	527.8
421.546	525.4
421.953	523
422.361	514.6
422.769	512.8
423.177	509.8
423.585	539.4
423.992	537.6
424.379	529
424.787	530.8
425.195	534.6
425.603	525.2
426.011	532.8
426.419	526.4
426.806	514.4
427.214	520.6
427.623	523.8
428.031	527.2
428.44	522.4
428.848	526.6
429.235	527.8
429.644	524
430.053	518.8
430.461	533.4
430.87	544.4
431.279	524
431.666	519
432.075	516.4
432.484	529.2
432.893	512.8
433.302	527.2
433.711	547
434.099	534
434.508	521.2
434.918	517.4
435.327	529.2
435.737	528
436.125	538
436.534	540.2
436.944	534
437.353	535
437.763	549
438.173	530.4
438.561	547.8
438.971	529.8
439.381	538.8
439.791	547.2
440.201	530.4
440.589	550.4
440.999	549.4
441.409	559.4
441.819	556
442.23	566
442.619	573.6
443.029	563.2
443.439	570
443.85	577.2
444.26	571.4
444.649	580
445.06	571.4
445.471	578.4
445.881	572.2
446.292	589.2
446.682	602.8
447.092	565
447.503	623
447.914	579.2
448.325	588.2
448.715	594.4
449.126	590.2
449.537	592.2
449.948	590.8
450.338	600.4
450.75	602.4
451.161	602.4
451.572	600.2
451.984	596
452.374	596
452.786	601.2
453.197	609.2
453.609	609.4
453.999	593
454.411	596
454.823	611.4
455.235	610
455.647	605.2
456.037	615.2
456.449	599
456.862	608.6
457.274	611.2
457.665	598.2
458.077	615.4
458.489	632.4
458.902	611.8
459.293	612.8
459.705	615.8
460.118	612.8
460.53	619.4
460.921	614
461.334	632
461.747	610.8
462.16	635
462.551	634.2
462.964	625.6
463.377	600.4
463.79	621.4
464.182	633.4
464.595	624.2
465.008	624
465.421	632.8
465.813	623
466.226	636.2
466.64	621.4
467.053	653.6
467.445	642.6
467.859	644
468.272	637.8
468.686	634.8
469.078	634.6
469.492	629
469.906	640
470.298	643
470.712	616.2
471.126	651.6
471.54	629.8
471.933	636.8
472.347	636.8
472.761	633.6
473.175	622
473.568	627.4
473.982	633.6
474.397	635.6
474.79	641.6
475.204	650
475.619	630.8
476.033	642.2
476.426	634.2
476.841	632.4
477.256	651
477.649	629
478.064	632.4
478.479	636.6
478.872	630.4
479.287	622.2
479.702	632.8
480.118	634.6
480.511	627
480.927	631
481.342	633
481.736	640.6
482.151	633.6
482.566	639.2
482.96	634.2
483.376	638.4
483.792	626.2
484.186	637.8
484.602	627.6
485.017	640.2
485.412	632.6
485.827	624.4
486.243	629.2
486.638	644.4
487.054	638.4
487.47	651.6
487.865	620
488.281	623.2
488.697	622
489.092	641.8
489.508	617.8
489.925	634.4
490.32	629.6
490.736	631.4
491.153	619.2
491.548	628.4
491.964	629.4
492.381	613.4
492.776	618.6
493.193	618
493.61	629.2
494.006	611.2
494.422	621.6
494.84	610.2
495.235	631
495.652	617
496.069	627.4
496.465	608.8
496.883	615.4
497.3	636
497.696	609.2
498.113	621.2
498.509	604.4
498.927	605.4
499.344	613.8
499.741	603.6
500.158	617
500.576	627.4
500.973	619.6
501.39	602.8
501.787	600.4
502.205	623.8
502.623	614.6
503.02	604.2
503.438	597.2
503.856	602.8
504.253	611.6
504.671	602.8
505.068	601.2
505.486	604.4
505.905	609.2
506.302	607.2
506.72	598
507.118	592.6
507.536	601
507.955	586.2
508.352	595
508.771	608
509.169	601
509.587	595.2
510.006	589.4
510.404	583.6
510.823	590.8
511.221	592.8
511.64	600.6
512.038	605.4
512.457	584.8
512.877	584.8
513.275	584.6
513.694	585.8
514.092	581.4
514.512	587.6
514.91	592.2
515.33	587
515.749	593
516.148	584.4
516.568	584.2
516.966	575.8
517.386	581.8
517.785	580.4
518.205	580.2
518.603	576.2
519.024	573.4
519.444	586.2
519.843	587.2
520.263	582.2
520.662	577
521.082	569
521.481	574.2
521.902	576.6
522.301	573.2
522.722	577
523.121	569.6
523.542	560.4
523.963	564
524.362	572.8
524.783	569.2
525.183	569.6
525.604	564.6
526.003	563.4
526.425	568.4
526.824	568.6
527.246	577.4
527.646	574
528.067	561.8
528.467	566.8
528.888	567.4
529.289	564
529.71	564.6
530.11	549.4
530.532	551.2
530.932	558.2
531.354	555
531.755	586.4
532.176	570.2
532.577	552.8
532.999	567.6
533.4	549
533.822	564
534.223	561.4
534.645	557
535.046	547.2
535.468	553.2
535.869	573.2
536.292	552.6
536.693	579
537.115	549.8
537.516	555.6
537.939	551.2
538.34	562
538.742	568.2
539.165	553.8
539.566	553.8
539.989	550.6
540.391	552.8
540.814	548.6
541.216	555.8
541.639	556.2
542.041	557.4
542.464	547.2
542.866	552.6
543.268	540
543.691	550.6
544.093	558.4
544.517	565.6
544.919	542
545.343	567.2
545.745	534.4
546.147	553.2
546.571	547.2
546.974	536.6
547.398	550.4
547.8	559
548.224	539.6
548.627	534.2
549.03	552.8
549.454	539.6
549.857	538.2
550.281	543.6
550.684	541.8
551.087	548
551.512	548.4
551.915	541.2
552.34	538.8
552.743	538.4
553.146	545
553.571	537.8
553.975	556
554.399	531.4
554.803	581.4
555.207	538.2
555.632	530.2
556.036	537.6
556.461	539
556.865	545.2
557.268	537.8
557.694	537.8
558.098	534.6
558.502	537.2
558.927	529.4
559.332	536.4
559.736	536
560.162	539.2
560.566	537.2
560.992	534.8
561.396	531.4
561.801	529.6
562.227	531.2
562.631	530.8
563.036	526
563.462	540
563.867	523.6
564.272	528.8
564.698	534.2
565.103	520.8
565.508	539
565.935	531.6
566.34	520.6
566.745	540.4
567.172	524
567.577	535.6
567.982	542.2
568.409	526.8
568.815	520.8
569.22	530.4
569.626	532
570.053	519.4
570.459	535.4
570.865	526
571.292	527.2
571.698	524.6
572.104	516.8
572.531	521.4
572.937	536.6
573.343	524
573.75	524.4
574.177	524.4
574.583	534.8
574.99	522.4
575.396	525.4
575.824	514.6
576.231	529.6
576.637	516.2
577.065	535.8
577.472	516.4
577.879	523.8
578.286	528
578.714	517.2
579.121	513.4
579.528	524.4
579.935	534.2
580.364	515.4
580.771	505
581.178	509.4
581.585	520.2
582.014	522.6
582.421	514.6
582.829	515.2
583.236	521.2
583.644	511.4
584.073	517
584.481	513.4
584.889	515.4
585.296	521.4
585.726	520.4
586.134	513.6
586.542	512
586.95	535
587.358	505.4
587.787	516.4
588.196	507
588.604	509.6
589.012	515
589.421	507.4
589.851	511.4
590.259	521.6
590.668	512.8
591.076	534.4
591.485	515.6
591.894	513
592.324	524.6
592.733	526.2
593.142	505.4
593.551	510
593.96	521.2
594.369	496.6
594.8	507.2
595.209	513.4
595.618	507.6
596.028	510.4
596.437	515.4
596.847	512.2
597.256	510.4
597.687	512.6
598.097	514.2
598.507	505.2
598.917	510.8
599.327	515.2
599.736	514.2
600.146	509.6
600.556	509.4
600.988	522.4
601.398	511
601.808	519
602.219	505.4
602.629	508.4
603.039	513.2
603.45	529.6
603.86	509
604.271	521
604.703	506.2
605.114	506.8
605.525	507
605.935	515.8
606.346	532.4
606.757	517.2
607.168	507.6
607.579	503.4
607.99	517.2
608.402	511
608.813	514.4
609.224	506.6
609.636	511.6
610.047	507.2
610.48	513
610.892	508.8
611.303	520.2
611.715	501.8
612.127	500.4
612.539	508
612.95	507.8
613.362	498.4
613.774	504
614.186	502.8
614.599	509.8
615.011	513.6
615.423	511.4
615.835	506
616.248	502.2
616.66	506.6
617.073	507.8
617.485	504.6
617.898	517.8
618.311	504.8
618.723	505.2
619.136	529.8
619.549	522.2
619.962	522.6
620.375	502.4
620.788	503.4
621.201	495.6
621.614	509.8
622.028	503.6
622.441	512.6
622.854	514
623.268	502
623.681	506.6
624.095	509.6
624.509	506.6
624.922	510
625.336	492.2
625.728	507.6
626.142	519.6
626.556	521.6
626.97	515.6
627.384	508.4
627.799	510.6
628.213	516.2
628.627	501.8
629.041	501
629.456	497.2
629.87	499.4
630.285	517.6
630.699	512
631.093	506
631.507	512.4
631.922	501.2
632.337	521.4
632.752	501.4
633.167	509.4
633.582	508.2
633.997	505.8
634.412	503.8
634.806	499.4
635.221	504.4
635.637	521.4
636.052	498.4
636.468	511
636.883	528.4
637.299	505.8
637.715	491.8
638.109	503.8
638.525	492.6
638.941	511.4
639.357	508.8
639.773	516
640.189	506.2
640.584	505.4
641	508.6
641.416	496.8
641.832	504.4
642.249	504
642.665	507.4
643.06	504.6
643.477	512.6
643.894	494.6
644.31	509.6
644.727	508
645.123	499.6
645.54	499
645.957	507.4
646.374	519.6
646.77	502
647.187	532.8
647.604	506
648.021	490.4
648.439	497.6
648.835	509.4
649.252	506.2
649.67	501
650.088	506.6
650.484	509.4
650.902	513.2
651.32	511
651.738	501
652.134	503.8
652.552	518.8
652.971	512.2
653.389	502.6
653.786	513.8
654.204	510
654.622	508.6
655.019	501.8
655.438	504.2
655.857	505.4
656.275	512
656.673	492.4
657.091	509.6
657.51	498.2
657.908	506.2
658.327	512.2
658.746	495.6
659.144	505.2
659.563	507
659.982	500.6
660.38	490.6
660.8	498.4
661.219	508.4
661.617	507.8
662.037	492.2
662.457	505.6
662.855	493.4
663.275	519.8
663.695	504
664.094	496.6
664.514	499
664.934	492.6
665.333	503.6
665.753	501.4
666.152	491.2
666.572	494.6
666.993	512.4
667.392	496.6
667.812	499.6
668.212	497.8
668.632	502.2
669.053	500.8
669.453	502.6
669.874	502.2
670.273	501
670.694	496.2
671.116	507.8
671.515	509.4
671.937	500.8
672.337	496.2
672.758	501.2
673.158	510
673.58	490.4
673.98	498.8
674.402	503
674.824	494.2
675.224	498
675.646	492.2
676.047	487
676.469	499
676.869	497.2
677.292	493.2
677.693	492.8
678.115	486.2
678.516	495.4
678.939	492.8
679.34	499.2
679.762	515
680.164	502.4
680.586	493.2
680.988	500.8
681.411	512
681.812	496.6
682.236	489.8
682.637	494.4
683.061	486.8
683.462	500.4
683.864	496
684.288	499.8
684.69	494
685.114	502.8
685.516	496.4
685.94	492.8
686.342	501.8
686.766	495
687.168	499.8
687.571	503.2
687.995	501.8
688.398	480.2
688.822	496
689.225	516.4
689.628	510.2
690.052	498
690.456	497.4
690.88	499.4
691.284	487.8
691.687	501.4
692.112	491.2
692.515	487
692.919	506.2
693.344	500
693.747	497.8
694.173	490.8
694.577	499.8
694.98	495.6
695.406	500.2
695.81	503.2
696.214	510.4
696.64	502.8
697.044	497.8
697.448	501.2
697.874	500
698.279	500.8
698.684	486.8
699.11	494.8
699.514	495
699.919	496
700.324	493.6
700.75	496.4
701.156	494.8
701.561	501.4
701.987	498.8
702.393	500.6
702.798	502.8
703.203	505.8
703.63	495.2
704.036	496.4
704.442	497.2
704.847	492.2
705.274	493.2
705.68	502
706.086	510.2
706.492	494.8
706.92	502.2
707.326	496.8
707.732	491.2
708.139	492.6
708.545	494.6
708.973	488.6
709.38	495
709.786	493
710.193	506
710.6	500.8
711.028	500.2
711.435	499
711.842	505.8
712.249	488
712.656	496.4
713.064	510.4
713.492	490.4
713.9	492.2
714.307	494.4
714.715	496.8
715.123	499
715.53	496.8
715.938	498.2
716.367	495.6
716.775	500.6
717.184	491.4
717.592	489
718	499.4
718.408	518.8
718.816	525.8
719.225	497
719.633	501
720.042	491.4
720.472	496
720.881	510.2
721.29	498.8
721.699	487.4
722.108	495.2
722.517	498.2
722.926	494.8
723.335	496
723.744	500.4
724.154	494.4
724.563	498
724.973	497.8
725.382	498.2
725.792	497.2
726.202	487.4
726.612	506.2
727.022	491.6
727.432	494.6
779.813	488.6
780.223	536.4
780.634	495
781.044	485.4
781.454	489.8
781.865	513.6
782.276	490
782.686	502.8
783.097	494.6
783.508	493.4
783.919	500.4
784.33	505.2
784.741	501.8
785.152	483.2
785.563	484.8
785.974	489.2
786.386	502.2
786.776	490.4
787.188	494.8
787.599	492.6
788.011	500.4
788.423	500.4
788.835	490.4
789.247	485.4
789.659	492.6
790.071	491
790.483	529.2
790.874	493.4
791.286	507.2
791.699	495.6
792.111	495
792.524	497.6
792.937	490.2
793.349	493.4
793.741	488
794.154	490.8
794.567	503.8
794.98	492.8
795.393	484.8
795.785	503.6
796.198	486.8
796.612	498.8
797.026	492.6
797.439	489.2
797.831	493.4
798.245	491.6
798.659	492.4
799.073	490.6
799.487	497
799.88	495.4
800.294	492.6
800.708	500.4
801.123	499
801.516	507.4
801.93	484
802.345	484.6
802.76	492.6
803.153	509.8
803.568	505.8
803.983	506.6
804.377	495.4
804.792	481.6
805.207	482.4
805.601	499.6
806.016	521.4
806.432	488.6
806.826	526
807.242	501.4
807.658	497.8
808.052	488.2
808.468	487
808.884	489.8
809.279	489
809.695	500.4
810.111	514.6
810.506	493.8
810.922	510.6
811.339	488.8
811.734	498.2
812.151	495.6
812.546	487.8
812.963	495.2
813.38	491.6
813.776	476.2
814.193	508.8
814.589	487
815.006	487
815.402	486.6
815.82	481.8
816.237	492.8
816.633	495
817.051	480
817.448	493.4
817.866	489.8
818.262	506
818.68	492.6
819.077	493.2
819.495	492
819.892	528.8
820.311	488
820.708	496.2
821.127	490.4
821.524	498.2
821.943	493
822.34	509
822.759	492.2
823.157	493.2
823.576	500
823.974	489.6
824.393	541.2
824.791	480.2
825.189	482
825.609	484.8
826.007	490.6
826.427	482
826.826	488.4
827.246	494.6
827.644	476.8
828.043	498.6
828.463	494.4
828.862	494.2
829.261	502.6
829.682	485.4
830.081	491
830.502	492.8
830.901	498
831.301	485.6
831.722	479.8
832.121	491.4
832.521	485.8
832.943	492
833.342	483.4
833.742	483.2
834.164	486.2
834.564	477.2
834.965	488
835.386	485.2
835.787	495.6
836.188	488.2
836.588	492.2
837.01	487.6
837.411	489.6
837.812	494
838.213	495.2
838.636	486.4
839.037	549.6
839.438	487.8
839.84	493.6
840.263	491.6
840.664	497.8
841.066	494.4
841.468	493
841.891	489.8
842.293	504
842.695	492.2
843.098	504.4
843.5	488.4
843.902	500.8
844.326	493.2
844.729	492.6
845.131	495.6
845.534	492.4
845.937	505.4
846.34	499
846.764	488.8
847.167	494
847.571	489.6
847.974	488.4
848.377	487.8
848.781	535
849.184	499.2
849.588	487.2
849.992	481.8
850.396	492
850.821	504
851.225	498.8
851.63	491
852.034	507.2
852.438	490
852.843	509.8
853.247	484.6
853.652	484.4
854.057	500.8
854.462	494.6
854.867	492.8
855.272	515.6
855.677	492.6
856.082	486.8
