#lambda/nm	C1
208.295	468
208.67	429
209.045	390.6
209.419	397.8
209.794	523.4
210.169	511.8
210.544	618.2
210.919	530.8
211.295	523
211.67	534.6
212.045	525.8
212.421	534
212.796	555.6
213.172	528
213.547	528.2
213.923	519
214.299	523
214.675	540
215.051	531.4
215.427	534.6
215.803	550.4
216.179	527
216.555	524.6
216.932	537
217.308	528.4
217.684	523.4
218.061	532.2
218.438	535
218.814	528.8
219.191	534.4
219.568	520.8
219.945	522.4
220.322	530.2
220.699	529.8
221.076	534.4
221.453	536
221.83	521.6
222.208	519.2
222.585	526
222.962	522.6
223.34	524.2
223.717	527.4
224.095	529.4
224.473	528.8
224.851	525.2
225.229	515.8
225.607	534
225.985	515.6
226.363	522
226.741	529.6
227.119	522.6
227.497	539.2
227.876	521
228.254	530.4
228.633	533.2
229.011	531.2
229.39	526.8
229.769	531.4
230.148	533.2
230.527	537.4
230.905	529.2
231.284	532.6
231.664	525.6
232.043	534.4
232.422	529.6
232.801	527.2
233.181	531.2
233.56	529.4
233.94	523.8
234.319	516.8
234.699	520.6
235.079	561.6
235.458	557.4
235.838	541.8
236.218	527.8
236.598	510.2
236.978	523
237.358	519.8
237.738	523.2
238.119	525.2
238.499	516.6
238.88	528.4
239.26	533.6
239.641	511.2
240.021	521.6
240.402	524.2
240.783	521.4
241.163	530
241.544	530.6
241.925	537.2
242.306	541.4
242.687	525.4
243.069	528.2
243.45	537
243.831	523.2
244.212	528
244.594	554.6
244.975	535.4
245.357	523.2
245.739	519.8
246.12	523.2
246.502	540.6
246.884	529
247.266	525.8
247.648	530.8
248.03	543.6
248.412	527.4
248.794	533.8
249.176	524
249.559	531.8
249.941	516.4
250.323	522.6
250.706	522.8
251.089	528.8
251.471	526.4
251.854	529.8
252.237	528.8
252.62	539.2
253.002	524
253.385	530
253.769	537.6
254.152	523.2
254.535	529.8
254.918	515
255.301	519.2
255.685	520.2
256.068	515.4
256.452	549.4
256.835	537.2
257.219	529.6
257.603	530
257.986	514.6
258.37	534.8
258.754	517.4
259.138	541
259.522	533.6
259.906	524.8
260.29	529.8
260.675	530.4
261.059	540.8
261.443	522.4
261.828	536.4
262.212	527.6
262.597	519.6
262.981	525.6
263.366	532.2
263.751	525.2
264.136	523.4
264.521	531
264.906	521
265.291	536.2
265.676	528.2
266.061	530.4
266.446	541.8
266.831	526.6
267.217	541.6
267.602	526.2
267.987	532.2
268.373	536
268.759	540.2
269.144	532.8
269.53	524.2
269.916	527.8
270.302	525
270.688	527.4
271.074	522.4
271.46	535
271.846	552.6
272.232	529.4
272.618	524.8
273.004	528.4
273.391	536.6
273.777	532.4
274.164	538
274.55	537.2
274.937	526
275.324	526.8
275.71	526.4
276.097	532
276.484	517.2
276.871	531.8
277.258	532.4
277.645	524.2
278.032	533
278.419	529.8
278.807	528.8
279.194	519.2
279.581	528.4
279.969	526.8
280.356	535.2
280.744	523.8
281.131	546.2
281.519	541.2
281.907	522.6
282.295	528
282.682	541
283.07	529.8
283.458	538.2
283.846	535
284.235	543.6
284.623	536
285.011	519.4
285.399	534.2
285.788	524.4
286.176	527.6
286.565	536.2
286.953	528.2
287.342	525.4
287.731	518.4
288.119	524
288.508	525.2
288.897	528.2
289.286	519
289.675	527.2
290.064	545.2
290.453	526.8
290.821	526.8
291.21	542.4
291.599	528.4
291.989	524
292.378	532.6
292.768	544.2
293.157	533.4
293.547	537.6
293.936	529.2
294.326	526.8
294.716	541.2
295.106	533.2
295.496	531.6
295.886	533
296.276	525.8
296.666	530.4
297.056	525
297.446	518.2
297.836	544.8
298.227	522.2
298.617	528.4
299.008	531.8
299.398	523.2
299.789	524.6
300.179	534.4
300.57	544.4
300.961	524.8
301.352	537.6
301.742	535.2
302.133	526.8
302.524	521.6
302.915	529
303.307	522.6
303.698	533.6
304.089	533.8
304.48	527
304.872	528.6
305.263	532.2
305.655	520.2
306.046	532.6
306.438	532.6
306.829	523.8
307.221	537
307.613	534
308.005	538
308.397	544.8
308.789	537.4
309.181	550.4
309.573	540
309.965	534
310.357	531.2
310.749	533.8
311.142	523
311.534	527.2
311.926	534.8
312.319	532.2
312.711	522.6
313.104	540.2
313.497	515.4
313.889	559.4
314.282	548.4
314.675	554.6
315.068	531.4
315.461	545.4
315.854	553.8
316.247	531.8
316.64	528.6
317.033	529.2
317.405	535.2
317.798	526.2
318.192	534
318.585	518.6
318.979	536.2
319.372	522
319.766	530.2
320.16	535
320.553	536.6
320.947	543.2
321.341	522.4
321.735	527.2
322.129	521.8
322.523	544.2
322.917	522
323.311	541.4
323.705	526.8
324.099	532.6
324.494	535.8
324.888	534.4
325.282	522.2
325.677	540.6
326.071	526
326.466	533.2
326.861	525.6
327.255	531.4
327.65	531.2
328.045	537
328.44	531.8
328.835	521.8
329.23	527.4
329.625	535.2
330.02	519.6
330.415	547.6
330.81	535.4
331.206	534
331.601	528.8
331.996	531.6
332.37	540.4
332.766	521.2
333.161	549.2
333.557	523.4
333.953	537.2
334.348	745.4
334.744	530.8
335.14	526.4
335.536	521.6
335.932	545.8
336.328	533.8
336.724	542.2
337.12	527.2
337.516	532.8
337.913	530.8
338.309	537.6
338.705	523.8
339.102	539.2
339.498	531.8
339.895	533.2
340.291	530.4
340.688	532.8
341.085	522
341.481	527
341.878	529.6
342.275	536
342.672	522
343.069	517.2
343.466	521.6
343.842	529.6
344.239	520.2
344.636	523.6
345.033	522
345.431	516.2
345.828	528.8
346.225	522.2
346.623	549.4
347.02	521
347.418	533.6
347.816	536
348.213	518.8
348.611	533
349.009	527.2
349.407	548
349.805	518.6
350.203	513.2
350.601	537.6
350.999	527.8
351.397	581.8
351.795	523.2
352.193	532.2
352.57	527.4
352.969	539
353.367	517.4
353.766	517.4
354.164	524.8
354.563	526.8
354.961	528
355.36	521.6
355.759	519
356.158	521.2
356.557	521.4
356.956	515.2
357.355	520.4
357.754	523.2
358.153	525
358.552	549.6
358.951	523.8
359.35	534.6
359.75	513.8
360.149	515
360.527	511.4
360.926	515.6
361.326	525
361.726	521.6
362.125	515.4
362.525	527
362.925	528.4
363.325	516.6
363.724	524.4
364.124	514.2
364.524	515.4
364.924	520.8
365.324	522.6
365.725	510
366.125	516.8
366.525	515.2
366.904	520.8
367.304	512.6
367.705	534
368.105	526.6
368.506	521
368.906	521.2
369.307	518.8
369.708	528.4
370.108	511.8
370.509	535
370.91	512
371.311	523.4
371.712	522.6
372.113	516
372.514	517.2
372.894	519.4
373.295	523.4
373.696	532.6
374.097	522.2
374.499	548.6
374.9	520.4
375.301	515.4
375.703	528.2
376.105	521
376.506	532
376.908	530.6
377.309	528.6
377.711	522.4
378.113	526.4
378.493	523.2
378.895	517.4
379.297	525.8
379.699	502.2
380.102	519.6
380.504	520.6
380.906	515.2
381.308	535.8
381.71	523.8
382.113	534.2
382.515	517.4
382.918	523.6
383.299	521.4
383.701	529.2
384.104	517.2
384.507	507.8
384.909	518.2
385.312	510
385.715	505.8
386.118	518.4
386.521	512.6
386.924	526.6
387.327	512.8
387.709	517.6
388.112	513
388.515	520.4
388.918	516.8
389.322	526.4
389.725	518.4
390.129	536.8
390.532	518.6
390.936	521.2
391.339	510.6
391.743	531.4
392.125	512.4
392.529	528.2
392.933	527.8
393.337	518.6
393.74	515.6
394.144	518.8
394.548	513.6
394.953	525.2
395.357	521.4
395.761	522.8
396.144	523.4
396.548	524
396.952	518.8
397.357	527.8
397.761	522.6
398.166	517.2
398.57	515
398.975	508.2
399.379	514.8
399.763	563.4
400.168	526.6
400.572	516.2
400.977	517.2
401.382	540.8
401.787	523
402.192	539.2
402.597	531.8
403.002	513.6
403.386	530.6
403.791	531.2
404.197	511.4
404.602	513
405.007	516.4
405.413	513.4
405.818	523.2
406.224	514.2
406.608	511
407.014	514.6
407.42	529.6
407.825	519.2
408.231	530.8
408.637	517
409.043	525.8
409.449	520.2
409.834	509.8
410.24	521
410.646	534
411.052	530.8
411.458	528.8
411.865	524.8
412.271	518
412.677	522.2
413.062	526.6
413.469	510.4
413.875	543.2
414.282	534.2
414.689	517.8
415.095	522.2
415.502	521.2
415.888	526.6
416.294	509.4
416.701	554.8
417.108	517.8
417.515	525.8
417.923	520.8
418.33	539.8
418.715	524
419.123	509.8
419.53	519
419.937	520.4
420.345	532.8
420.752	524
421.16	528.2
421.546	515.4
421.953	522.6
422.361	517.2
422.769	522.6
423.177	510.2
423.585	541.8
423.992	529
424.379	532.8
424.787	532.4
425.195	543.6
425.603	516.4
426.011	528.4
426.419	532
426.806	524.8
427.214	521.8
427.623	533.2
428.031	528.4
428.44	527.6
428.848	534.2
429.235	545.4
429.644	538.6
430.053	539.8
430.461	560.6
430.87	567
431.279	557
431.666	552.6
432.075	571.2
432.484	586.2
432.893	599.6
433.302	625.6
433.711	657
434.099	651.8
434.508	667.4
434.918	690.2
435.327	721.8
435.737	737
436.125	750.6
436.534	784.4
436.944	801.8
437.353	832
437.763	866.6
438.173	875.2
438.561	909
438.971	915.4
439.381	938.4
439.791	977.4
440.201	977.6
440.589	1013.6
440.999	1043.8
441.409	1064.6
441.819	1070.4
442.23	1104.8
442.619	1128.8
443.029	1151.4
443.439	1158.2
443.85	1183
444.26	1180.6
444.649	1199
445.06	1209
445.471	1215.8
445.881	1257.8
446.292	1264
446.682	1278
447.092	1255.4
447.503	1331.8
447.914	1292.2
448.325	1299.2
448.715	1289
449.126	1306.6
449.537	1316.8
449.948	1314.4
450.338	1318.6
450.75	1336
451.161	1342.8
451.572	1344
451.984	1343.8
452.374	1334.8
452.786	1360.2
453.197	1359.6
453.609	1371.6
453.999	1368.6
454.411	1357.2
454.823	1378.4
455.235	1378.8
455.647	1378.2
456.037	1388.2
456.449	1388.2
456.862	1401.2
457.274	1402.8
457.665	1395.2
458.077	1402.8
458.489	1426.6
458.902	1395.4
459.293	1396.8
459.705	1399.2
460.118	1400.4
460.53	1398.6
460.921	1402.8
461.334	1422
461.747	1413.2
462.16	1419.8
462.551	1429.2
462.964	1410.2
463.377	1403.4
463.79	1417.6
464.182	1440.4
464.595	1403
465.008	1420.2
465.421	1411.4
465.813	1419.6
466.226	1424.4
466.64	1424.2
467.053	1455
467.445	1435.6
467.859	1440.8
468.272	1428
468.686	1458.4
469.078	1429.2
469.492	1430.8
469.906	1425.8
470.298	1438.6
470.712	1424.8
471.126	1454
471.54	1421.2
471.933	1415.4
472.347	1426.8
472.761	1411
473.175	1416
473.568	1411.8
473.982	1396.2
474.397	1387.4
474.79	1404
475.204	1397.4
475.619	1395.4
476.033	1389.8
476.426	1379.2
476.841	1380.2
477.256	1374
477.649	1345.8
478.064	1353.4
478.479	1360.6
478.872	1352
479.287	1351.2
479.702	1351.2
480.118	1347.2
480.511	1350.4
480.927	1338.4
481.342	1326.2
481.736	1333.2
482.151	1325.6
482.566	1343.2
482.96	1321.8
483.376	1314.8
483.792	1310.8
484.186	1323.2
484.602	1300
485.017	1293.4
485.412	1283.4
485.827	1285.2
486.243	1286
486.638	1300.2
487.054	1278.2
487.47	1273.6
487.865	1265.6
488.281	1252.4
488.697	1256.2
489.092	1235.8
489.508	1228.2
489.925	1241
490.32	1226.8
490.736	1235.2
491.153	1214.4
491.548	1222
491.964	1231.2
492.381	1198.2
492.776	1203.4
493.193	1178.8
493.61	1192.4
494.006	1181
494.422	1176.6
494.84	1165.8
495.235	1175
495.652	1166
496.069	1156.6
496.465	1146.2
496.883	1148.6
497.3	1156.8
497.696	1133.6
498.113	1136.6
498.509	1115.6
498.927	1101.4
499.344	1113.8
499.741	1096.2
500.158	1100.4
500.576	1088.2
500.973	1096
501.39	1072.2
501.787	1072.2
502.205	1071.2
502.623	1061.2
503.02	1050.8
503.438	1046
503.856	1037.8
504.253	1034.6
504.671	1031
505.068	1026.2
505.486	1020
505.905	1022.2
506.302	1008
506.72	1026.4
507.118	1008.8
507.536	1008.2
507.955	989
508.352	991.6
508.771	983.8
509.169	987.8
509.587	972.8
510.006	967.6
510.404	961
510.823	965
511.221	955.6
511.64	948.6
512.038	951
512.457	953
512.877	940.2
513.275	916.2
513.694	936.6
514.092	915.8
514.512	913.4
514.91	929.4
515.33	907.8
515.749	918.8
516.148	908
516.568	905
516.966	893.4
517.386	889.6
517.785	882.6
518.205	875.8
518.603	867.6
519.024	858.2
519.444	865
519.843	875
520.263	864.4
520.662	865.2
521.082	866.4
521.481	841.6
521.902	854.8
522.301	848.4
522.722	840.4
523.121	827.8
523.542	831.2
523.963	829.4
524.362	826
524.783	829
525.183	807
525.604	810.2
526.003	805.4
526.425	807.8
526.824	803.4
527.246	808.8
527.646	808.2
528.067	787.6
528.467	787.8
528.888	783.6
529.289	787.2
529.71	775.4
530.11	766.8
530.532	767
530.932	754.2
531.354	753.6
531.755	791
532.176	764.6
532.577	755
532.999	749.6
533.4	752.6
533.822	745
534.223	741.8
534.645	746
535.046	731
535.468	746.2
535.869	757
536.292	731.2
536.693	753.8
537.115	730.2
537.516	725.6
537.939	735.8
538.34	736
538.742	730.2
539.165	713.6
539.566	721.6
539.989	709.6
540.391	703
540.814	716.2
541.216	713.4
541.639	705.8
542.041	713
542.464	707.8
542.866	686.8
543.268	686.8
543.691	700.8
544.093	691.8
544.517	707.4
544.919	691.4
545.343	708.8
545.745	676.8
546.147	689.4
546.571	678.4
546.974	665.8
547.398	675.4
547.8	682
548.224	673
548.627	655
549.03	671.4
549.454	665.4
549.857	658.8
550.281	653.4
550.684	663.4
551.087	665.2
551.512	667.4
551.915	656.8
552.34	650.4
552.743	647
553.146	651.6
553.571	651
553.975	665
554.399	645.4
554.803	678.8
555.207	632
555.632	630.2
556.036	649.4
556.461	634.8
556.865	633.2
557.268	629.8
557.694	628.8
558.098	631.8
558.502	632.4
558.927	618
559.332	622.2
559.736	613.4
560.162	619.2
560.566	621.6
560.992	620.8
561.396	617
561.801	619.6
562.227	618
562.631	608.6
563.036	617.4
563.462	614.6
563.867	614
564.272	594.6
564.698	608.2
565.103	603.2
565.508	622.8
565.935	608.6
566.34	592.6
566.745	613
567.172	600.4
567.577	610.8
567.982	602.8
568.409	601.6
568.815	581.2
569.22	594.8
569.626	599.6
570.053	582
570.459	599.8
570.865	585.8
571.292	589.6
571.698	593.2
572.104	572.2
572.531	582.8
572.937	589
573.343	587
573.75	582.8
574.177	587.4
574.583	584.8
574.99	567
575.396	584.2
575.824	574.6
576.231	585
576.637	563.4
577.065	589
577.472	570.4
577.879	575.2
578.286	583.2
578.714	567
579.121	564.4
579.528	572.4
579.935	579.2
580.364	565.2
580.771	553.2
581.178	561.8
581.585	568.4
582.014	567.8
582.421	561
582.829	556
583.236	569.6
583.644	565.6
584.073	562.4
584.481	565.2
584.889	549.8
585.296	562
585.726	560.8
586.134	548.4
586.542	550.6
586.95	574
587.358	545.2
587.787	554.6
588.196	545.8
588.604	546.4
589.012	547.2
589.421	550.6
589.851	546.2
590.259	557
590.668	549.6
591.076	579.2
591.485	546.4
591.894	549.4
592.324	557
592.733	558.6
593.142	531.2
593.551	538.6
593.96	570.4
594.369	529.8
594.8	544.6
595.209	546
595.618	532.2
596.028	540
596.437	540.6
596.847	537.4
597.256	542
597.687	531.2
598.097	541.2
598.507	526
598.917	543.6
599.327	534.8
599.736	542.8
600.146	538.8
600.556	531.8
600.988	543.2
601.398	529.8
601.808	546.4
602.219	526.8
602.629	529.4
603.039	533.2
603.45	555.8
603.86	533.6
604.271	541.8
604.703	537.8
605.114	533
605.525	534.8
605.935	530.8
606.346	554.8
606.757	531.2
607.168	528.2
607.579	522.2
607.99	538.2
608.402	534.6
608.813	536
609.224	525.2
609.636	522.2
610.047	521.8
610.48	529.8
610.892	532.6
611.303	534.2
611.715	524.4
612.127	526.2
612.539	530.4
612.95	535.6
613.362	526.2
613.774	519.2
614.186	517.8
614.599	522.4
615.011	533.6
615.423	535.8
615.835	525
616.248	519
616.66	535.8
617.073	532.4
617.485	529.4
617.898	542.8
618.311	531.2
618.723	534.6
619.136	559.2
619.549	537.6
619.962	553.6
620.375	529.8
620.788	530.6
621.201	527.8
621.614	538
622.028	525.4
622.441	540.2
622.854	541.4
623.268	531
623.681	533
624.095	533.6
624.509	545.6
624.922	539
625.336	531
625.728	528.8
626.142	540.2
626.556	546.4
626.97	528.4
627.384	530.2
627.799	530.4
628.213	531.6
628.627	532.4
629.041	523.4
629.456	525.6
629.87	528
630.285	535.2
630.699	523.4
631.093	522.4
631.507	529.8
631.922	538
632.337	539.4
632.752	519.6
633.167	521.4
633.582	524.6
633.997	524.8
634.412	519.8
634.806	528
635.221	514.2
635.637	534.4
636.052	516
636.468	528.6
636.883	536.2
637.299	516.4
637.715	514.6
638.109	515.8
638.525	513.4
638.941	528.2
639.357	521
639.773	529.8
640.189	517
640.584	520
641	522.8
641.416	502.2
641.832	515.8
642.249	515.4
642.665	516.2
643.06	513.4
643.477	522.8
643.894	505.6
644.31	513.4
644.727	509.4
645.123	515
645.54	504.8
645.957	519
646.374	532
646.77	523.2
647.187	530.6
647.604	513
648.021	499
648.439	511
648.835	513
649.252	518.2
649.67	511.6
650.088	515.6
650.484	514.8
650.902	523.4
651.32	524.8
651.738	516
652.134	513.8
652.552	540
652.971	526.4
653.389	509.2
653.786	518.2
654.204	514.4
654.622	507.8
655.019	509.4
655.438	518.6
655.857	509.4
656.275	513.2
656.673	507.6
657.091	520.4
657.51	522.2
657.908	515.4
658.327	519.8
658.746	499.4
659.144	503.2
659.563	525.2
659.982	510
660.38	506.6
660.8	506.8
661.219	519.2
661.617	511.4
662.037	509.4
662.457	521.8
662.855	504.4
663.275	530.6
663.695	509
664.094	508.4
664.514	513.8
664.934	503.4
665.333	509.2
665.753	503.2
666.152	499.8
666.572	500.4
666.993	510.8
667.392	501.8
667.812	505.4
668.212	506.8
668.632	514.4
669.053	502.8
669.453	508.6
669.874	506.4
670.273	506
670.694	501.4
671.116	521.2
671.515	509.2
671.937	499
672.337	509.2
672.758	505.2
673.158	510.2
673.58	498.4
673.98	502.6
674.402	516
674.824	502.4
675.224	503.6
675.646	500.4
676.047	499.8
676.469	499.4
676.869	504.2
677.292	502
677.693	498.2
678.115	500.8
678.516	505.2
678.939	505.2
679.34	504.8
679.762	512.4
680.164	507.4
680.586	494.6
680.988	509.6
681.411	520.2
681.812	506.6
682.236	504.4
682.637	490
683.061	507
683.462	504.8
683.864	504
684.288	501.8
684.69	493.8
685.114	509.8
685.516	503.8
685.94	500.4
686.342	510.8
686.766	492.8
687.168	501
687.571	516
687.995	502.2
688.398	497.4
688.822	501.8
689.225	506.8
689.628	513.8
690.052	508.8
690.456	502.4
690.88	504
691.284	493.6
691.687	509.4
692.112	488.4
692.515	496.6
692.919	501.4
693.344	503.6
693.747	492.4
694.173	497.6
694.577	503.8
694.98	505.4
695.406	495
695.81	498
696.214	498.6
696.64	493
697.044	504.8
697.448	503.6
697.874	490.6
698.279	499.4
698.684	485.4
699.11	498.2
699.514	491.6
699.919	485.8
700.324	484.6
700.75	493.4
701.156	494.6
701.561	514.6
701.987	498.4
702.393	505.6
702.798	504.6
703.203	494.2
703.63	491.2
704.036	494.2
704.442	499.8
704.847	487.4
705.274	490.4
705.68	504.6
706.086	500.4
706.492	492.2
706.92	492.2
707.326	505
707.732	487.8
708.139	493
708.545	492.2
708.973	490.4
709.38	497.8
709.786	490.2
710.193	510
710.6	500
711.028	489
711.435	496.8
711.842	498.2
712.249	491.8
712.656	496.8
713.064	508
713.492	490.8
713.9	485.6
714.307	508
714.715	505.6
715.123	504.8
715.53	504
715.938	505
716.367	496.8
716.775	491
717.184	496.2
717.592	497.8
718	499.8
718.408	525.8
718.816	527.6
719.225	502.6
719.633	499.2
720.042	494
720.472	494.6
720.881	509.4
721.29	494.6
721.699	488.6
722.108	505.2
722.517	500.4
722.926	502.8
723.335	497.4
723.744	501.8
724.154	492.6
724.563	495
724.973	494.6
725.382	492.6
725.792	491.4
726.202	492.2
726.612	503.8
727.022	498.8
727.432	489.8
779.813	490.2
780.223	531
780.634	494.8
781.044	499
781.454	497.2
781.865	498
782.276	489
782.686	500.8
783.097	501
783.508	488.2
783.919	497.2
784.33	503.2
784.741	507.6
785.152	496.4
785.563	485.2
785.974	488.8
786.386	499.6
786.776	483.2
787.188	499.4
787.599	489.6
788.011	501.6
788.423	498.6
788.835	488.6
789.247	485.6
789.659	490
790.071	492.4
790.483	534.8
790.874	487.6
791.286	498.2
791.699	491.2
792.111	495.2
792.524	495.2
792.937	489.4
793.349	483.4
793.741	493.4
794.154	493.4
794.567	502.4
794.98	496.2
795.393	486.2
795.785	506.8
796.198	492.4
796.612	497.6
797.026	489.6
797.439	482.4
797.831	492.2
798.245	488.6
798.659	488.4
799.073	490
799.487	489.6
799.88	495.2
800.294	491.2
800.708	496.8
801.123	494
801.516	505.2
801.93	483.2
802.345	482.4
802.76	492.2
803.153	509.2
803.568	500.6
803.983	499.2
804.377	499.6
804.792	483.6
805.207	480.8
805.601	493
806.016	522.2
806.432	483.6
806.826	518.6
807.242	507.6
807.658	496
808.052	491.6
808.468	495.6
808.884	490.6
809.279	489.8
809.695	501
810.111	507.2
810.506	492.2
810.922	510
811.339	488.2
811.734	508.4
812.151	493.6
812.546	498.4
812.963	492
813.38	498.8
813.776	489
814.193	510.2
814.589	485.4
815.006	489.2
815.402	490.2
815.82	478.6
816.237	492.6
816.633	498.6
817.051	481.4
817.448	492.4
817.866	486.8
818.262	507
818.68	493
819.077	493.2
819.495	484.6
819.892	526.8
820.311	491.2
820.708	483.4
821.127	484.2
821.524	499
821.943	494.2
822.34	515.6
822.759	495.2
823.157	485.6
823.576	502.6
823.974	497.6
824.393	550.8
824.791	494.6
825.189	483.2
825.609	491.6
826.007	495.2
826.427	476.6
826.826	492.4
827.246	496
827.644	480.4
828.043	500
828.463	492.8
828.862	500
829.261	495.2
829.682	488.8
830.081	499.4
830.502	490
830.901	494.6
831.301	491.8
831.722	487
832.121	503
832.521	484.6
832.943	492.2
833.342	494
833.742	484.6
834.164	489
834.564	482.6
834.965	490.4
835.386	491.8
835.787	490.6
836.188	496
836.588	489.2
837.01	495.2
837.411	492.2
837.812	502.4
838.213	495
838.636	486.2
839.037	540.4
839.438	499.2
839.84	495.2
840.263	497.4
840.664	492
841.066	492.4
841.468	495
841.891	488.8
842.293	501.6
842.695	500.8
843.098	493.4
843.5	492.8
843.902	496.6
844.326	497.6
844.729	493.4
845.131	499.6
845.534	492.4
845.937	501.8
846.34	510
846.764	488.2
847.167	491.2
847.571	484.4
847.974	489.6
848.377	496.4
848.781	533.4
849.184	506.8
849.588	481.4
849.992	485.6
850.396	490.6
