#lambda/nm	C1
208.295	466.2
208.67	432.4
209.045	394.6
209.419	404.8
209.794	536.4
210.169	511.2
210.544	618.6
210.919	530.8
211.295	524.6
211.67	532
212.045	529.4
212.421	526.6
212.796	554.2
213.172	526.2
213.547	520.2
213.923	524.8
214.299	524
214.675	534.4
215.051	530.6
215.427	540.6
215.803	546.4
216.179	529
216.555	523.6
216.932	535
217.308	531.6
217.684	528.4
218.061	531.8
218.438	529.2
218.814	529.4
219.191	535.6
219.568	516.2
219.945	521.8
220.322	528
220.699	534.2
221.076	539.8
221.453	532.6
221.83	521.6
222.208	520.2
222.585	523
222.962	531.8
223.34	528.6
223.717	530.8
224.095	518.8
224.473	529.2
224.851	519.8
225.229	520.6
225.607	541.2
225.985	517.6
226.363	529.8
226.741	528
227.119	522.6
227.497	540.8
227.876	519.4
228.254	530.8
228.633	526.4
229.011	525
229.39	528
229.769	528.4
230.148	530
230.527	533.8
230.905	521.4
231.284	530.6
231.664	521.6
232.043	532.6
232.422	532.6
232.801	521.6
233.181	531.6
233.56	526
233.94	525
234.319	519.2
234.699	526.6
235.079	559.6
235.458	557.4
235.838	534.2
236.218	525
236.598	524.2
236.978	518
237.358	527.8
237.738	530.6
238.119	541
238.499	511.6
238.88	524.8
239.26	535.6
239.641	519.4
240.021	519.8
240.402	528.2
240.783	523.4
241.163	526.6
241.544	526.8
241.925	531.8
242.306	539.2
242.687	519.4
243.069	523.8
243.45	525.6
243.831	526.2
244.212	528.6
244.594	560.8
244.975	530.6
245.357	528.4
245.739	522.2
246.12	523.6
246.502	538.6
246.884	529
247.266	520.6
247.648	533
248.03	548.6
248.412	529.2
248.794	532.4
249.176	525.2
249.559	538
249.941	523.8
250.323	512.8
250.706	524
251.089	523.2
251.471	528
251.854	522.2
252.237	529.8
252.62	535
253.002	535.6
253.385	530
253.769	540.4
254.152	523.2
254.535	526.8
254.918	522.8
255.301	527.2
255.685	523.6
256.068	515.8
256.452	553.2
256.835	538.2
257.219	530.8
257.603	538
257.986	520.8
258.37	532.4
258.754	522.4
259.138	537.8
259.522	534.6
259.906	522.8
260.29	528.8
260.675	528.4
261.059	526.4
261.443	520.6
261.828	532
262.212	534.8
262.597	521.2
262.981	519.4
263.366	534.8
263.751	522
264.136	525.4
264.521	525.6
264.906	520.8
265.291	534.4
265.676	529.6
266.061	534
266.446	540
266.831	523.4
267.217	540.6
267.602	529.4
267.987	527.2
268.373	528.2
268.759	536
269.144	539.2
269.53	530.8
269.916	525.6
270.302	528.4
270.688	534.2
271.074	531.4
271.46	538
271.846	544.2
272.232	520
272.618	519.8
273.004	528.6
273.391	531
273.777	540.6
274.164	522.8
274.55	534.2
274.937	533.8
275.324	518
275.71	531.8
276.097	533.6
276.484	521
276.871	529.4
277.258	531.6
277.645	527.4
278.032	520.4
278.419	523.8
278.807	531.2
279.194	516.6
279.581	518.8
279.969	530.6
280.356	531.4
280.744	539.4
281.131	550.2
281.519	536.4
281.907	521.6
282.295	521
282.682	538.8
283.07	532.4
283.458	536.8
283.846	536.2
284.235	538
284.623	539.8
285.011	521.4
285.399	530.8
285.788	529
286.176	521.2
286.565	540.6
286.953	522
287.342	519.4
287.731	518.6
288.119	520
288.508	527.6
288.897	525.4
289.286	516.8
289.675	530.4
290.064	538.6
290.453	529.4
290.821	529.8
291.21	535.8
291.599	525.2
291.989	524.4
292.378	529
292.768	543
293.157	533.4
293.547	538.6
293.936	525
294.326	525.8
294.716	521.2
295.106	523.4
295.496	539.6
295.886	539
296.276	523.8
296.666	529
297.056	518.6
297.446	515.4
297.836	540.4
298.227	526
298.617	527.2
299.008	537.6
299.398	522
299.789	526.6
300.179	526.2
300.57	535.6
300.961	524.8
301.352	519
301.742	536.6
302.133	530.4
302.524	523.4
302.915	524.2
303.307	524.2
303.698	538.8
304.089	531.4
304.48	520.4
304.872	536.6
305.263	534
305.655	510.8
306.046	525.8
306.438	528.8
306.829	527.6
307.221	538.2
307.613	528.6
308.005	534.4
308.397	542.4
308.789	535.4
309.181	553.2
309.573	545.6
309.965	539.6
310.357	527.4
310.749	533.2
311.142	530.6
311.534	525.4
311.926	538.4
312.319	538.2
312.711	520.6
313.104	536.8
313.497	525.2
313.889	554.6
314.282	538.2
314.675	550.8
315.068	525.4
315.461	535.8
315.854	545
316.247	534
316.64	531.2
317.033	519
317.405	527.6
317.798	529
318.192	531.8
318.585	524.6
318.979	535.4
319.372	524
319.766	526.6
320.16	540.8
320.553	537.8
320.947	541
321.341	525.8
321.735	536.4
322.129	520.8
322.523	548
322.917	523
323.311	535.2
323.705	532.2
324.099	533.4
324.494	542.8
324.888	542.8
325.282	529.2
325.677	542.2
326.071	538.6
326.466	534.6
326.861	525.4
327.255	529.8
327.65	531.2
328.045	532.4
328.44	531.6
328.835	529.8
329.23	520.8
329.625	541.4
330.02	514.4
330.415	539.8
330.81	523.6
331.206	526.8
331.601	522.8
331.996	527.8
332.37	543.2
332.766	518.6
333.161	546
333.557	529
333.953	530
334.348	740.4
334.744	532
335.14	526.2
335.536	523.4
335.932	535.2
336.328	524.6
336.724	534.2
337.12	533.4
337.516	535.4
337.913	522.4
338.309	543.6
338.705	530.2
339.102	532.4
339.498	519.6
339.895	534
340.291	522.4
340.688	531
341.085	522.4
341.481	517.2
341.878	529.4
342.275	544
342.672	518.8
343.069	512.4
343.466	514
343.842	530.2
344.239	521
344.636	520.4
345.033	517.4
345.431	516.4
345.828	528.4
346.225	521.4
346.623	557.4
347.02	528.8
347.418	536.8
347.816	532.8
348.213	524
348.611	530.4
349.009	529
349.407	537.2
349.805	521.4
350.203	518.8
350.601	535
350.999	520.6
351.397	560.2
351.795	526.4
352.193	530.8
352.57	538
352.969	535
353.367	513.6
353.766	515.4
354.164	523.2
354.563	531.8
354.961	527
355.36	520
355.759	525
356.158	523
356.557	517.4
356.956	516.6
357.355	524
357.754	529.6
358.153	531
358.552	537
358.951	522.6
359.35	537.8
359.75	521.4
360.149	522.2
360.527	512.8
360.926	514.6
361.326	522.6
361.726	522.2
362.125	518
362.525	530
362.925	528.4
363.325	524.6
363.724	523
364.124	517.6
364.524	518.2
364.924	526
365.324	524.6
365.725	516
366.125	528.2
366.525	524
366.904	514.6
367.304	512.8
367.705	527.2
368.105	532.6
368.506	516
368.906	523.4
369.307	513.6
369.708	519.6
370.108	514.4
370.509	526
370.91	516.6
371.311	519.2
371.712	524.6
372.113	517.8
372.514	514.2
372.894	520.6
373.295	518.6
373.696	530.8
374.097	528
374.499	546.8
374.9	525.8
375.301	519.6
375.703	514.8
376.105	516.8
376.506	521
376.908	525.4
377.309	519
377.711	523
378.113	517.8
378.493	518.2
378.895	517.8
379.297	528
379.699	506.6
380.102	524
380.504	523
380.906	514.8
381.308	533
381.71	521.4
382.113	534.4
382.515	516.6
382.918	523.2
383.299	517
383.701	520.6
384.104	526.8
384.507	513.6
384.909	521.4
385.312	514.6
385.715	512.8
386.118	519.4
386.521	499.4
386.924	525.4
387.327	514.8
387.709	507.2
388.112	509
388.515	516.2
388.918	513.4
389.322	523.2
389.725	516.8
390.129	536.2
390.532	520.4
390.936	520
391.339	506
391.743	514.8
392.125	509.2
392.529	525.2
392.933	525.4
393.337	516.2
393.74	514.2
394.144	520.2
394.548	511
394.953	518.4
395.357	518.8
395.761	513
396.144	521.6
396.548	514.6
396.952	523
397.357	525.6
397.761	514.2
398.166	518.4
398.57	508.6
398.975	511.8
399.379	516.4
399.763	557.8
400.168	519.2
400.572	517.8
400.977	518.4
401.382	539.8
401.787	532.8
402.192	529.8
402.597	529.4
403.002	514
403.386	532.2
403.791	535
404.197	513.6
404.602	523.8
405.007	523.8
405.413	519.2
405.818	519.6
406.224	514.8
406.608	518.6
407.014	519.2
407.42	534
407.825	516.2
408.231	525
408.637	520.4
409.043	532
409.449	520.2
409.834	514.8
410.24	520.6
410.646	530.8
411.052	528.6
411.458	514.6
411.865	528
412.271	520.2
412.677	505.2
413.062	529.4
413.469	506
413.875	536.6
414.282	524.6
414.689	520.4
415.095	523.8
415.502	511.4
415.888	515.6
416.294	508.4
416.701	549.2
417.108	516.6
417.515	527.6
417.923	520.8
418.33	531.6
418.715	528.2
419.123	514.6
419.53	513.8
419.937	517.8
420.345	526.6
420.752	513.2
421.16	526.4
421.546	519.4
421.953	523.8
422.361	511.6
422.769	523.8
423.177	507.2
423.585	536.8
423.992	531
424.379	523.4
424.787	530.4
425.195	529.6
425.603	511.8
426.011	523.4
426.419	529.2
426.806	519.4
427.214	519
427.623	532.6
428.031	534.4
428.44	523.8
428.848	529.4
429.235	532.8
429.644	520.8
430.053	520.4
430.461	537.2
430.87	540
431.279	533
431.666	508.2
432.075	527.4
432.484	524.2
432.893	519.6
433.302	525.6
433.711	557.2
434.099	526.4
434.508	525
434.918	511.2
435.327	529.6
435.737	525.8
436.125	526.4
436.534	532.8
436.944	532.8
437.353	535.8
437.763	544.8
438.173	533.8
438.561	544.2
438.971	530
439.381	546
439.791	551.2
440.201	537.2
440.589	551.6
440.999	561.6
441.409	558
441.819	554.4
442.23	569.4
442.619	564.6
443.029	573.2
443.439	581.2
443.85	575.2
444.26	589.4
444.649	586.6
445.06	583.8
445.471	577.6
445.881	591.6
446.292	600.2
446.682	612.6
447.092	588.6
447.503	637.2
447.914	597.6
448.325	592
448.715	602.2
449.126	598.8
449.537	610.4
449.948	610.4
450.338	605.4
450.75	620.6
451.161	618.8
451.572	615.6
451.984	611.8
452.374	603
452.786	618.4
453.197	617.6
453.609	625.6
453.999	606.8
454.411	614.4
454.823	623.8
455.235	625.8
455.647	622.2
456.037	637.6
456.449	611.4
456.862	636.6
457.274	620.4
457.665	625.6
458.077	636
458.489	657.8
458.902	628.4
459.293	628.4
459.705	630
460.118	624.4
460.53	636
460.921	638
461.334	645.2
461.747	645
462.16	655.4
462.551	653.6
462.964	654.8
463.377	632.6
463.79	638.6
464.182	661.8
464.595	637
465.008	644
465.421	648.4
465.813	643.6
466.226	649
466.64	642.8
467.053	695.8
467.445	668
467.859	664.8
468.272	658.2
468.686	662.6
469.078	655.4
469.492	648.6
469.906	673.2
470.298	667
470.712	664.4
471.126	682.4
471.54	654.2
471.933	658.6
472.347	670.8
472.761	647.2
473.175	662.8
473.568	655.4
473.982	654.4
474.397	668.8
474.79	665.6
475.204	673.2
475.619	661.4
476.033	663.4
476.426	659.2
476.841	659.4
477.256	694.6
477.649	657.6
478.064	648.2
478.479	666.8
478.872	656.6
479.287	650.8
479.702	656.6
480.118	661.6
480.511	661.8
480.927	659.2
481.342	666
481.736	662.2
482.151	655
482.566	660.6
482.96	672.4
483.376	666.8
483.792	652.6
484.186	661.8
484.602	664.4
485.017	656.2
485.412	660.8
485.827	664.6
486.243	649.2
486.638	667.2
487.054	663.8
487.47	674
487.865	653.8
488.281	648.4
488.697	649.8
489.092	648.2
489.508	648.2
489.925	653.4
490.32	638
490.736	665.4
491.153	653.2
491.548	656.8
491.964	651.6
492.381	636.2
492.776	652.2
493.193	640.6
493.61	648.2
494.006	646
494.422	648.8
494.84	630.4
495.235	655.6
495.652	640.4
496.069	642.6
496.465	631.6
496.883	634.8
497.3	653
497.696	646.8
498.113	641.2
498.509	627.4
498.927	634.6
499.344	636.2
499.741	621.2
500.158	637.4
500.576	639.2
500.973	629.4
501.39	634.8
501.787	619.8
502.205	626.2
502.623	619.2
503.02	614.8
503.438	620.8
503.856	627.8
504.253	624.6
504.671	622.4
505.068	618.6
505.486	620.6
505.905	639
506.302	624.6
506.72	636.6
507.118	608.6
507.536	613.8
507.955	605.8
508.352	616
508.771	619
509.169	618.4
509.587	609
510.006	614.6
510.404	601.2
510.823	606.8
511.221	594.4
511.64	594.4
512.038	624.6
512.457	600.2
512.877	601
513.275	590
513.694	607.4
514.092	604.4
514.512	610.6
514.91	611.8
515.33	597.2
515.749	596.6
516.148	598.2
516.568	597
516.966	593.8
517.386	593.6
517.785	592
518.205	600.2
518.603	593
519.024	592.6
519.444	599.6
519.843	592.8
520.263	595.8
520.662	593.4
521.082	582.8
521.481	592.4
521.902	586
522.301	588
522.722	590.8
523.121	583.6
523.542	579.8
523.963	587.8
524.362	586
524.783	580
525.183	579.4
525.604	584
526.003	573.4
526.425	571.8
526.824	582.4
527.246	585
527.646	588
528.067	579.6
528.467	575.8
528.888	578.2
529.289	584
529.71	574.6
530.11	567
530.532	570.2
530.932	559.2
531.354	566.8
531.755	587.6
532.176	568.8
532.577	567.4
532.999	561.6
533.4	561
533.822	578.4
534.223	569.4
534.645	558.6
535.046	559
535.468	553.6
535.869	581.2
536.292	558.4
536.693	586
537.115	563.8
537.516	559.6
537.939	558.4
538.34	571
538.742	576
539.165	566.4
539.566	557.2
539.989	554.4
540.391	554.2
540.814	562.2
541.216	571.2
541.639	554.4
542.041	566.6
542.464	559.2
542.866	551
543.268	542
543.691	565.8
544.093	562.4
544.517	570.8
544.919	552.4
545.343	579.2
545.745	553.6
546.147	554.4
546.571	553.2
546.974	538
547.398	548.8
547.8	560.4
548.224	548.2
548.627	547.2
549.03	560.6
549.454	545.8
549.857	545
550.281	540.2
550.684	548.2
551.087	555.4
551.512	548.8
551.915	548.6
552.34	544.8
552.743	542.4
553.146	550.4
553.571	542.6
553.975	557.2
554.399	536.6
554.803	585
555.207	545
555.632	547
556.036	540.8
556.461	540.4
556.865	540.6
557.268	535.8
557.694	537.6
558.098	538
558.502	544.6
558.927	536.8
559.332	546.6
559.736	536.2
560.162	544.4
560.566	535.8
560.992	545.2
561.396	543.2
561.801	532
562.227	539.2
562.631	542.4
563.036	536.8
563.462	540.8
563.867	532.4
564.272	523
564.698	535.6
565.103	535
565.508	536.6
565.935	534.6
566.34	526.8
566.745	547.4
567.172	530.6
567.577	546
567.982	546.4
568.409	545.4
568.815	517.8
569.22	528.8
569.626	540
570.053	515.6
570.459	535.4
570.865	528.2
571.292	529
571.698	531.2
572.104	515.8
572.531	527.4
572.937	541.6
573.343	525.6
573.75	525
574.177	526.6
574.583	525.8
574.99	524.6
575.396	524.2
575.824	520.4
576.231	533.4
576.637	524.8
577.065	553.4
577.472	522
577.879	520.6
578.286	534.4
578.714	519.4
579.121	527
579.528	529
579.935	533.2
580.364	529.8
580.771	518
581.178	519.4
581.585	529
582.014	531.2
582.421	519.2
582.829	511.8
583.236	529.2
583.644	522.4
584.073	525.6
584.481	521.6
584.889	516
585.296	511.4
585.726	521
586.134	510
586.542	512.6
586.95	530.8
587.358	509.8
587.787	517
588.196	506
588.604	511.4
589.012	515.8
589.421	509.8
589.851	505.4
590.259	519.4
590.668	519.4
591.076	544.4
591.485	505.6
591.894	515.8
592.324	525.2
592.733	526.8
593.142	508.4
593.551	514.8
593.96	550.6
594.369	509
594.8	499.8
595.209	516.8
595.618	507
596.028	508.8
596.437	506.4
596.847	517.6
597.256	511.8
597.687	519.8
598.097	514.2
598.507	500.8
598.917	516.2
599.327	515.2
599.736	525.4
600.146	523.8
600.556	517.8
600.988	519.8
601.398	513.6
601.808	520.4
602.219	509.4
602.629	514.4
603.039	521
603.45	533.4
603.86	511
604.271	516
604.703	509
605.114	503
605.525	509.8
605.935	516.2
606.346	530.4
606.757	509.6
607.168	510
607.579	504.4
607.99	505.2
608.402	511.8
608.813	516.2
609.224	506.6
609.636	507.4
610.047	504.2
610.48	512.8
610.892	516.2
611.303	512.6
611.715	510
612.127	501.4
612.539	501.4
612.95	513.4
613.362	501.6
613.774	506.4
614.186	505.4
614.599	514.2
615.011	517.2
615.423	507.6
615.835	506.4
616.248	499
616.66	506.4
617.073	502
617.485	506.2
617.898	517.6
618.311	509
618.723	510.6
619.136	537.6
619.549	523
619.962	518.4
620.375	504.6
620.788	504
621.201	496.2
621.614	510.4
622.028	510.2
622.441	505.2
622.854	515.6
623.268	506.4
623.681	519.2
624.095	509.2
624.509	514.2
624.922	513.2
625.336	502.4
625.728	506
626.142	520.4
626.556	517.2
626.97	512.6
627.384	506.8
627.799	499.4
628.213	510.8
628.627	500.6
629.041	499
629.456	495.8
629.87	505
630.285	518.4
630.699	514.2
631.093	504.4
631.507	516.2
631.922	505.8
632.337	510.2
632.752	495
633.167	510
633.582	504.2
633.997	502
634.412	499
634.806	501
635.221	499.4
635.637	520.4
636.052	499
636.468	510
636.883	525.4
637.299	507.8
637.715	506
638.109	505.4
638.525	489.6
638.941	517.6
639.357	501.4
639.773	514.6
640.189	508.4
640.584	504.4
641	510
641.416	491.2
641.832	498.8
642.249	509.6
642.665	505.8
643.06	507.6
643.477	514
643.894	494.8
644.31	496.6
644.727	503.4
645.123	508.6
645.54	501.8
645.957	506
646.374	514.8
646.77	508.6
647.187	529.8
647.604	508.4
648.021	485.8
648.439	504.6
648.835	499.6
649.252	505.8
649.67	508.8
650.088	514.6
650.484	501.8
650.902	504.2
651.32	514.2
651.738	504
652.134	507.4
652.552	527
652.971	501.6
653.389	507
653.786	518.2
654.204	509.4
654.622	495.2
655.019	508.6
655.438	504.8
655.857	506.6
656.275	501.8
656.673	496.6
657.091	502
657.51	505
657.908	512.4
658.327	511.8
658.746	497
659.144	509.2
659.563	509
659.982	502.4
660.38	493.6
660.8	504.2
661.219	514.6
661.617	498.2
662.037	505.8
662.457	514.2
662.855	500.4
663.275	530.8
663.695	498.2
664.094	497.2
664.514	508
664.934	489.8
665.333	511.2
665.753	496.8
666.152	498.2
666.572	501.2
666.993	508.8
667.392	498.2
667.812	498.4
668.212	500.6
668.632	513.2
669.053	505.6
669.453	501.4
669.874	502.4
670.273	506.2
670.694	503.6
671.116	515
671.515	506.4
671.937	502.2
672.337	499
672.758	500.4
673.158	516
673.58	498.4
673.98	494.8
674.402	513.4
674.824	504.4
675.224	496.6
675.646	494.2
676.047	496
676.469	503.2
676.869	505.6
677.292	504.2
677.693	499
678.115	498.6
678.516	500.2
678.939	504.4
679.34	494.6
679.762	508.6
680.164	504.8
680.586	497
680.988	505.6
681.411	516.8
681.812	492.6
682.236	485.6
682.637	494.6
683.061	486.4
683.462	495
683.864	487.4
684.288	499.2
684.69	491
685.114	505.4
685.516	501.2
685.94	490.4
686.342	500.8
686.766	485.6
687.168	494.8
687.571	512.8
687.995	503
688.398	489.6
688.822	492.4
689.225	510.8
689.628	510
690.052	495.4
690.456	507.6
690.88	502.4
691.284	498.2
691.687	506.2
692.112	494.6
692.515	492.2
692.919	497.2
693.344	502.6
693.747	495.6
694.173	493
694.577	504.6
694.98	496
695.406	494
695.81	506.6
696.214	499.6
696.64	505.6
697.044	502.8
697.448	509.6
697.874	499
698.279	496.8
698.684	485
699.11	492.6
699.514	494.8
699.919	496.4
700.324	488.2
700.75	495.4
701.156	495.4
701.561	502.4
701.987	504.8
702.393	506.8
702.798	502
703.203	497.8
703.63	491.2
704.036	490.4
704.442	496.6
704.847	483.4
705.274	504
705.68	495.6
706.086	502.8
706.492	492
706.92	493.2
707.326	502.2
707.732	491
708.139	488.8
708.545	493.6
708.973	495.2
709.38	497.6
709.786	487.6
710.193	509.2
710.6	501.4
711.028	491.4
711.435	491.4
711.842	499.2
712.249	486.2
712.656	495
713.064	504.2
713.492	489.6
713.9	496.2
714.307	500
714.715	491.8
715.123	493
715.53	496.4
715.938	504.2
716.367	492.2
716.775	492.4
717.184	483.4
717.592	488.8
718	500.8
718.408	528.8
718.816	530.6
719.225	496.8
719.633	498.2
720.042	484.2
720.472	491.2
720.881	507.8
721.29	499.4
721.699	494.2
722.108	499
722.517	500
722.926	492.2
723.335	502.8
723.744	491.6
724.154	492.6
724.563	495.4
724.973	492
725.382	492.4
725.792	491
726.202	491.4
726.612	504.4
727.022	500.4
727.432	490.8
779.813	490.6
780.223	528.2
780.634	494.4
781.044	489.4
781.454	490.2
781.865	500.6
782.276	485.4
782.686	502.6
783.097	494.8
783.508	488.6
783.919	494.2
784.33	504.2
784.741	507.6
785.152	489.2
785.563	487
785.974	491.4
786.386	509.2
786.776	487.2
787.188	500
787.599	489
788.011	499.6
788.423	499
788.835	489.4
789.247	493.6
789.659	494
790.071	485
790.483	523.4
790.874	499.4
791.286	499.8
791.699	493.4
792.111	494.6
792.524	497.8
792.937	489.6
793.349	486
793.741	494.4
794.154	484.2
794.567	501.4
794.98	493
795.393	490.6
795.785	506.2
796.198	495.2
796.612	490.6
797.026	492
797.439	485.4
797.831	501.6
798.245	491.8
798.659	487.4
799.073	491.2
799.487	490.6
799.88	495.4
800.294	495.2
800.708	489.2
801.123	494
801.516	510.6
801.93	486.6
802.345	477
802.76	497
803.153	503.8
803.568	499.6
803.983	501.6
804.377	500.8
804.792	492.4
805.207	488.4
805.601	499.6
806.016	525
806.432	493.8
806.826	522.4
807.242	499.8
807.658	492
808.052	489
808.468	496.2
808.884	492
809.279	494.2
809.695	499.2
810.111	506.4
810.506	495.6
810.922	513.6
811.339	489.2
811.734	501.4
812.151	488.2
812.546	492.4
812.963	489.4
813.38	491.6
813.776	497
814.193	513.6
814.589	489.4
815.006	492.6
815.402	496.2
815.82	487.8
816.237	487.8
816.633	497.6
817.051	487.4
817.448	494.4
817.866	477.6
818.262	508.6
818.68	488.8
819.077	490.4
819.495	496.6
819.892	527.4
820.311	479
820.708	489
821.127	483.8
821.524	506.4
821.943	498.2
822.34	506.8
822.759	492.4
823.157	492.6
823.576	508.4
823.974	497.6
824.393	567.6
824.791	488.4
825.189	493.4
825.609	493.6
826.007	489
826.427	479.4
826.826	489.8
827.246	497.8
827.644	482
828.043	499.4
828.463	484.6
828.862	492.8
829.261	487.8
829.682	478.6
830.081	493.8
830.502	483.6
830.901	487.4
831.301	486
831.722	484.6
832.121	494
832.521	479.4
832.943	486.2
833.342	489.2
833.742	483.4
834.164	490.6
834.564	485.2
834.965	490.2
835.386	488.4
835.787	486
836.188	488
836.588	487.6
837.01	489.8
837.411	485.2
837.812	491.2
838.213	490
838.636	493.6
839.037	545.6
839.438	488.6
839.84	485.2
840.263	491.6
840.664	494
841.066	492.4
841.468	489.6
841.891	490.8
842.293	507.2
842.695	489.4
843.098	494.6
843.5	490.6
843.902	494.8
844.326	496.6
844.729	489.8
845.131	500.2
845.534	493
845.937	498
846.34	501
846.764	483.8
847.167	498.6
847.571	482.2
847.974	481
848.377	488.4
848.781	528
849.184	494.2
849.588	491
849.992	488.4
850.396	487.8
850.821	510.2
851.225	495.2
851.63	489.6
852.034	501.2
852.438	498.8
852.843	558.8
853.247	484.4
853.652	490.8
854.057	504.6
854.462	489.6
854.867	501.6
855.272	514.8
