#lambda/nm	C1
208.295	464.6
208.67	429.8
209.045	388.6
209.419	398.4
209.794	527.2
210.169	513.4
210.544	614.2
210.919	536.4
211.295	521.6
211.67	530.2
212.045	528
212.421	530.6
212.796	552.4
213.172	526.8
213.547	528.4
213.923	527.2
214.299	527.8
214.675	523.4
215.051	526.6
215.427	532.6
215.803	541.2
216.179	531.2
216.555	523.4
216.932	536.2
217.308	533.2
217.684	528.6
218.061	536.4
218.438	527.4
218.814	523.4
219.191	537.8
219.568	526.4
219.945	522.2
220.322	540.8
220.699	520
221.076	536.4
221.453	535.6
221.83	518.6
222.208	519.4
222.585	528.6
222.962	533.4
223.34	525.4
223.717	528.2
224.095	525.2
224.473	530.4
224.851	522
225.229	519.2
225.607	539.8
225.985	512.8
226.363	524.4
226.741	527.6
227.119	526.6
227.497	534.4
227.876	517.8
228.254	529.2
228.633	543.2
229.011	534.2
229.39	528.8
229.769	531.8
230.148	533.6
230.527	549.8
230.905	532
231.284	525.8
231.664	524.4
232.043	544.6
232.422	542.2
232.801	520
233.181	529.8
233.56	527.2
233.94	528.8
234.319	512.6
234.699	525.6
235.079	571
235.458	558.4
235.838	544.4
236.218	524.8
236.598	519.4
236.978	521.8
237.358	532.4
237.738	518.6
238.119	527.6
238.499	516
238.88	521.2
239.26	542.4
239.641	521.2
240.021	524.6
240.402	524
240.783	524.8
241.163	524.6
241.544	528.4
241.925	526.2
242.306	547.8
242.687	520.8
243.069	531.6
243.45	533.2
243.831	524.2
244.212	523.2
244.594	559
244.975	526
245.357	526.8
245.739	523.4
246.12	526
246.502	532
246.884	521.6
247.266	527
247.648	531.6
248.03	544.6
248.412	526.4
248.794	530
249.176	531
249.559	530.4
249.941	517.8
250.323	518.4
250.706	520.4
251.089	531.2
251.471	535.8
251.854	534.4
252.237	535.4
252.62	537.6
253.002	529
253.385	522.8
253.769	538.8
254.152	525.6
254.535	528.2
254.918	523.8
255.301	527
255.685	524.8
256.068	522.8
256.452	541.2
256.835	538.4
257.219	524.6
257.603	535
257.986	518.2
258.37	534.6
258.754	517.6
259.138	526.6
259.522	534
259.906	531
260.29	519.4
260.675	530
261.059	527
261.443	516.8
261.828	532.8
262.212	525.8
262.597	512.6
262.981	520
263.366	529.4
263.751	528.2
264.136	531.2
264.521	526.2
264.906	521
265.291	533.2
265.676	523.6
266.061	537
266.446	531.4
266.831	528.4
267.217	541.2
267.602	532.6
267.987	534.4
268.373	527
268.759	538.4
269.144	526.4
269.53	531.2
269.916	527.4
270.302	528.6
270.688	528.8
271.074	534.6
271.46	539.2
271.846	553.8
272.232	529.6
272.618	518.6
273.004	524.2
273.391	535.2
273.777	532.2
274.164	530.4
274.55	536.4
274.937	527.8
275.324	523.6
275.71	532.6
276.097	529.6
276.484	525.6
276.871	528.2
277.258	525.8
277.645	522.8
278.032	526.6
278.419	528.8
278.807	535.4
279.194	521.2
279.581	519.4
279.969	531.6
280.356	526
280.744	526.4
281.131	545.6
281.519	534
281.907	521.2
282.295	524.8
282.682	530
283.07	529.4
283.458	539
283.846	527.6
284.235	535
284.623	535.6
285.011	525.4
285.399	531.4
285.788	526
286.176	518.6
286.565	535.2
286.953	520.8
287.342	529.8
287.731	513
288.119	524.2
288.508	522.2
288.897	531.2
289.286	528.2
289.675	526
290.064	536.4
290.453	528.4
290.821	522
291.21	539.6
291.599	531.2
291.989	526.6
292.378	529.2
292.768	541
293.157	532.6
293.547	533.4
293.936	524
294.326	528.6
294.716	532.6
295.106	519.8
295.496	529.4
295.886	531
296.276	524.6
296.666	525.8
297.056	518.6
297.446	517.4
297.836	532
298.227	521.8
298.617	528.8
299.008	533
299.398	526.6
299.789	519.6
300.179	526.4
300.57	541.2
300.961	523.8
301.352	523
301.742	533.8
302.133	523.4
302.524	523.6
302.915	526.6
303.307	518.8
303.698	535.6
304.089	534.4
304.48	522.2
304.872	528.6
305.263	531
305.655	526.8
306.046	530.6
306.438	530
306.829	517.8
307.221	534.6
307.613	532.4
308.005	525.4
308.397	531.8
308.789	543
309.181	546.4
309.573	547.6
309.965	548.6
310.357	533
310.749	535
311.142	524
311.534	523.8
311.926	533.8
312.319	526.4
312.711	522.6
313.104	537.8
313.497	520
313.889	554
314.282	539.6
314.675	546.4
315.068	530.8
315.461	536.8
315.854	554.4
316.247	533.2
316.64	523.8
317.033	523.4
317.405	532
317.798	530.8
318.192	530
318.585	523.8
318.979	531.4
319.372	522.4
319.766	516.8
320.16	537.6
320.553	546.2
320.947	543
321.341	532.2
321.735	536.2
322.129	520.6
322.523	539.6
322.917	521.4
323.311	530.6
323.705	529.4
324.099	529.6
324.494	549.2
324.888	533.8
325.282	524.4
325.677	544.6
326.071	540
326.466	532.8
326.861	532.6
327.255	547.8
327.65	540.6
328.045	544.8
328.44	533.4
328.835	528
329.23	523.8
329.625	543.2
330.02	526.6
330.415	545.8
330.81	531
331.206	530.2
331.601	520.4
331.996	535.8
332.37	541.8
332.766	521.2
333.161	544.6
333.557	526
333.953	531
334.348	853.2
334.744	530
335.14	523.2
335.536	524.6
335.932	541.6
336.328	531.8
336.724	544.6
337.12	525
337.516	529
337.913	530.4
338.309	538.8
338.705	532.8
339.102	538.4
339.498	523.4
339.895	536.4
340.291	527
340.688	533.4
341.085	522.2
341.481	534.2
341.878	529
342.275	539.2
342.672	524.8
343.069	521.2
343.466	522.6
343.842	532
344.239	522.2
344.636	526.8
345.033	523
345.431	520.6
345.828	532.2
346.225	519.6
346.623	557
347.02	532
347.418	530.2
347.816	530
348.213	518.8
348.611	531.6
349.009	511.6
349.407	526.6
349.805	520.8
350.203	520
350.601	531.6
350.999	521.4
351.397	576.6
351.795	519.2
352.193	532.2
352.57	537
352.969	533.2
353.367	521
353.766	514
354.164	522.6
354.563	529.6
354.961	528.6
355.36	519.8
355.759	522.2
356.158	515
356.557	511.8
356.956	507.4
357.355	513.2
357.754	524.4
358.153	521.4
358.552	535.6
358.951	520.6
359.35	525.4
359.75	519.6
360.149	515.6
360.527	514.4
360.926	517
361.326	521.8
361.726	522.4
362.125	518.6
362.525	532
362.925	517.8
363.325	521.8
363.724	524
364.124	517.2
364.524	515.2
364.924	526.6
365.324	533
365.725	509.8
366.125	526.6
366.525	522.4
366.904	517.6
367.304	511
367.705	536.4
368.105	528.2
368.506	526.2
368.906	524.2
369.307	516.4
369.708	522.8
370.108	506.6
370.509	534.4
370.91	509.2
371.311	527.2
371.712	524.4
372.113	522.8
372.514	515.2
372.894	515.8
373.295	519
373.696	528.8
374.097	528.6
374.499	552
374.9	524.8
375.301	518
375.703	518.8
376.105	514.6
376.506	524.2
376.908	525.6
377.309	525
377.711	523.6
378.113	514.2
378.493	520.8
378.895	511.4
379.297	526.6
379.699	503.6
380.102	523.8
380.504	521.2
380.906	519
381.308	539.2
381.71	515.4
382.113	531.8
382.515	520
382.918	523.8
383.299	511.8
383.701	534.2
384.104	528.6
384.507	505.2
384.909	520.4
385.312	506.4
385.715	513.2
386.118	523.2
386.521	511.4
386.924	525.8
387.327	515.6
387.709	511.2
388.112	513.6
388.515	527.2
388.918	515.4
389.322	526
389.725	523.4
390.129	535.2
390.532	524.2
390.936	522.2
391.339	509.4
391.743	518.8
392.125	512.4
392.529	530.4
392.933	530.8
393.337	518
393.74	521.8
394.144	521.2
394.548	513.2
394.953	518
395.357	516.4
395.761	521.4
396.144	521
396.548	521.4
396.952	509.8
397.357	516.2
397.761	503
398.166	515.8
398.57	513
398.975	510.8
399.379	516.6
399.763	562
400.168	510.6
400.572	514.6
400.977	516.6
401.382	538
401.787	526.2
402.192	529.8
402.597	531.8
403.002	514
403.386	529.8
403.791	535
404.197	515.8
404.602	520.2
405.007	516.2
405.413	514.6
405.818	513.8
406.224	514
406.608	509.4
407.014	509
407.42	534.4
407.825	513.4
408.231	521.6
408.637	520.6
409.043	530.6
409.449	516.4
409.834	515.8
410.24	514.8
410.646	521.8
411.052	525.6
411.458	518
411.865	524.6
412.271	524.6
412.677	515.6
413.062	519.4
413.469	515.8
413.875	535.4
414.282	525.8
414.689	518.2
415.095	527.4
415.502	519.6
415.888	528.4
416.294	503
416.701	550.4
417.108	508.2
417.515	525.6
417.923	521.2
418.33	535.6
418.715	528.2
419.123	517.6
419.53	518.8
419.937	522.2
420.345	525.6
420.752	515
421.16	529.6
421.546	516
421.953	528.4
422.361	511.8
422.769	522
423.177	521.8
423.585	545.2
423.992	539.4
424.379	527.4
424.787	524.8
425.195	536
425.603	518.8
426.011	538.4
426.419	530.6
426.806	524.4
427.214	527.4
427.623	537
428.031	542.6
428.44	530.4
428.848	541
429.235	535.4
429.644	526.8
430.053	525.6
430.461	535
430.87	545.2
431.279	531
431.666	528.4
432.075	523
432.484	530.6
432.893	522.8
433.302	533.8
433.711	560
434.099	532.2
434.508	527.2
434.918	532
435.327	542.6
435.737	543
436.125	542.2
436.534	545
436.944	560.6
437.353	557
437.763	574.6
438.173	562.2
438.561	580.2
438.971	559.6
439.381	582.2
439.791	588.8
440.201	582.2
440.589	596.2
440.999	601
441.409	610.2
441.819	605.2
442.23	626
442.619	623
443.029	626.2
443.439	643.2
443.85	649.6
444.26	657
444.649	662.2
445.06	648.8
445.471	645.8
445.881	664.8
446.292	667.4
446.682	690
447.092	665.2
447.503	712.6
447.914	678.2
448.325	679.4
448.715	694
449.126	683.2
449.537	697.2
449.948	695.6
450.338	696.2
450.75	708.4
451.161	714.2
451.572	711.8
451.984	707.4
452.374	697
452.786	708
453.197	726.6
453.609	719
453.999	710
454.411	706.4
454.823	730.4
455.235	723
455.647	721.6
456.037	724.8
456.449	719.4
456.862	720
457.274	737.8
457.665	719.4
458.077	740
458.489	766
458.902	734.2
459.293	744.4
459.705	753
460.118	745.2
460.53	742.8
460.921	750
461.334	748.8
461.747	755
462.16	772.4
462.551	770.6
462.964	771.8
463.377	744
463.79	763.8
464.182	775.8
464.595	770.4
465.008	780.2
465.421	780.8
465.813	774.4
466.226	787.4
466.64	773.6
467.053	815.8
467.445	799.8
467.859	796.2
468.272	796.4
468.686	797.2
469.078	801.6
469.492	777.2
469.906	792.2
470.298	804.8
470.712	788.4
471.126	820.4
471.54	788.2
471.933	786.4
472.347	799.2
472.761	795.6
473.175	787.6
473.568	790.8
473.982	792
474.397	794.4
474.79	803.4
475.204	809.4
475.619	796.4
476.033	790.8
476.426	797.4
476.841	799.8
477.256	818.4
477.649	794.4
478.064	788.8
478.479	795.6
478.872	785.6
479.287	782.8
479.702	784.8
480.118	791.4
480.511	798.8
480.927	799.6
481.342	789
481.736	794
482.151	780
482.566	788.6
482.96	795.2
483.376	793.2
483.792	776.6
484.186	798.8
484.602	782.6
485.017	794.6
485.412	785.6
485.827	793.4
486.243	779
486.638	799.6
487.054	777.8
487.47	792.4
487.865	780.8
488.281	780.6
488.697	778
489.092	780.6
489.508	783.8
489.925	771.8
490.32	765.2
490.736	778.4
491.153	767.2
491.548	766
491.964	771.8
492.381	747
492.776	766.8
493.193	757.4
493.61	755.8
494.006	750.4
494.422	757.6
494.84	739.4
495.235	763.2
495.652	752
496.069	751
496.465	749
496.883	747.4
497.3	755
497.696	737.6
498.113	744.2
498.509	734.4
498.927	725.8
499.344	718.8
499.741	725
500.158	742.8
500.576	742.6
500.973	729.8
501.39	712.6
501.787	720.4
502.205	734.6
502.623	712.4
503.02	718
503.438	707.4
503.856	711
504.253	716.8
504.671	713.6
505.068	705.6
505.486	711.2
505.905	729.2
506.302	706.6
506.72	710.8
507.118	691.2
507.536	696
507.955	695.8
508.352	695.4
508.771	697.2
509.169	696
509.587	691.2
510.006	686.4
510.404	682.6
510.823	684.8
511.221	688.6
511.64	684.2
512.038	693.6
512.457	686.4
512.877	683
513.275	675.4
513.694	676.4
514.092	670.4
514.512	674.6
514.91	681.4
515.33	666.8
515.749	673.4
516.148	680.6
516.568	677.8
516.966	669
517.386	655.8
517.785	666.4
518.205	656.4
518.603	655
519.024	657.2
519.444	660.8
519.843	662
520.263	662.6
520.662	655.8
521.082	652.6
521.481	646
521.902	645.2
522.301	649.8
522.722	643.2
523.121	647
523.542	651.2
523.963	638.4
524.362	635.6
524.783	638.6
525.183	638.4
525.604	625.6
526.003	634
526.425	619.2
526.824	631.6
527.246	631.2
527.646	636.2
528.067	625
528.467	618.8
528.888	623.8
529.289	621.8
529.71	620.2
530.11	613
530.532	612
530.932	605.6
531.354	606.2
531.755	638.2
532.176	623.2
532.577	617.2
532.999	612.6
533.4	610
533.822	614.2
534.223	605.2
534.645	601
535.046	599.6
535.468	604.2
535.869	614.4
536.292	595.8
536.693	627.4
537.115	607.8
537.516	604.8
537.939	598.6
538.34	614.6
538.742	606.4
539.165	603.8
539.566	599.8
539.989	590.2
540.391	602.6
540.814	593
541.216	589
541.639	592
542.041	602.8
542.464	597
542.866	594.4
543.268	585.8
543.691	593
544.093	596
544.517	606
544.919	577.6
545.343	605.2
545.745	582.2
546.147	590.2
546.571	577.2
546.974	579
547.398	578.4
547.8	582.2
548.224	584.2
548.627	575.6
549.03	584.4
549.454	567.2
549.857	565.4
550.281	563
550.684	574.4
551.087	583
551.512	579.8
551.915	580
552.34	575.4
552.743	569.4
553.146	573.4
553.571	568.4
553.975	585
554.399	562.6
554.803	603.6
555.207	562.2
555.632	562
556.036	572.4
556.461	555.4
556.865	562.8
557.268	562
557.694	569
558.098	565.4
558.502	565
558.927	558.8
559.332	561
559.736	568.2
560.162	559.2
560.566	557.8
560.992	564.8
561.396	561.4
561.801	550.8
562.227	559.8
562.631	551.8
563.036	550.6
563.462	560.6
563.867	553.4
564.272	551.2
564.698	555.6
565.103	548
565.508	564.2
565.935	544.8
566.34	556.2
566.745	559.2
567.172	553.6
567.577	563.6
567.982	561
568.409	557
568.815	547.6
569.22	553
569.626	552.8
570.053	536.2
570.459	550.8
570.865	554.6
571.292	551.6
571.698	544.2
572.104	536
572.531	540.4
572.937	553
573.343	542.2
573.75	545.6
574.177	536.8
574.583	539.4
574.99	538.6
575.396	545.2
575.824	535
576.231	543
576.637	538.4
577.065	553.4
577.472	534.6
577.879	533.4
578.286	551
578.714	531.6
579.121	531.8
579.528	540.2
579.935	541
580.364	536
580.771	526
581.178	523.6
581.585	542.2
582.014	531.6
582.421	523.6
582.829	527.2
583.236	539.2
583.644	526.8
584.073	537
584.481	530.4
584.889	527.8
585.296	533.8
585.726	529
586.134	525.8
586.542	523
586.95	550.2
587.358	519.2
587.787	531.2
588.196	521.2
588.604	521
589.012	523.6
589.421	515.8
589.851	520.6
590.259	527.4
590.668	515.2
591.076	548.8
591.485	519.8
591.894	519.4
592.324	531.2
592.733	529.2
593.142	516.6
593.551	515.6
593.96	520
594.369	519.8
594.8	516
595.209	521.2
595.618	513.2
596.028	521.8
596.437	507.4
596.847	510.4
597.256	513.2
597.687	508.4
598.097	514.4
598.507	507.2
598.917	516
599.327	517.4
599.736	529.2
600.146	522.6
600.556	514.2
600.988	522.4
601.398	517.8
601.808	523
602.219	510.2
602.629	508.6
603.039	519
603.45	533
603.86	518.6
604.271	522.8
604.703	516.2
605.114	511.6
605.525	511
605.935	514.4
606.346	528
606.757	519
607.168	516.2
607.579	511.8
607.99	530
608.402	515
608.813	514.6
609.224	507
609.636	507.8
610.047	512.4
610.48	507.4
610.892	518.4
611.303	520.4
611.715	512.4
612.127	511.4
612.539	513
612.95	517.2
613.362	505.8
613.774	510.6
614.186	513.2
614.599	511.8
615.011	522.6
615.423	510.4
615.835	512.2
616.248	507.4
616.66	515.4
617.073	504
617.485	508
617.898	523.4
618.311	516.6
618.723	511
619.136	536.4
619.549	530.8
619.962	525.8
620.375	505.8
620.788	517.2
621.201	513
621.614	520.4
622.028	514.4
622.441	520.4
622.854	523
623.268	512
623.681	519.8
624.095	510.2
624.509	516.2
624.922	520
625.336	498
625.728	512
626.142	520.4
626.556	525
626.97	514.4
627.384	510.4
627.799	519.8
628.213	521.6
628.627	513
629.041	510
629.456	512.8
629.87	513.8
630.285	517.4
630.699	517.8
631.093	510.6
631.507	509
631.922	506.2
632.337	524.2
632.752	510.6
633.167	513
633.582	508.4
633.997	503.8
634.412	505.6
634.806	508.6
635.221	512
635.637	521
636.052	505.4
636.468	514.4
636.883	517.4
637.299	513.6
637.715	493.8
638.109	499.6
638.525	495.2
638.941	517.8
639.357	510.6
639.773	521.6
640.189	506.8
640.584	507
641	509
641.416	493
641.832	503.2
642.249	506.8
642.665	506.2
643.06	509
643.477	515.4
643.894	499.2
644.31	500.6
644.727	506.8
645.123	503.4
645.54	498.6
645.957	506.8
646.374	517.2
646.77	509.4
647.187	527.8
647.604	502.6
648.021	485.6
648.439	501
648.835	505.6
649.252	503.8
649.67	498.2
650.088	504
650.484	506.8
650.902	512.6
651.32	506
651.738	505
652.134	503.8
652.552	516.4
652.971	518.4
653.389	505.8
653.786	516.6
654.204	508.2
654.622	493.8
655.019	506
655.438	504
655.857	505.4
656.275	510.4
656.673	496
657.091	510.2
657.51	498.4
657.908	514.6
658.327	516.4
658.746	491.6
659.144	506.4
659.563	514.6
659.982	504
660.38	496.8
660.8	500
661.219	507.8
661.617	508.2
662.037	503.4
662.457	510.4
662.855	499.8
663.275	536.4
663.695	505.4
664.094	498.8
664.514	511.4
664.934	497.8
665.333	511
665.753	501.6
666.152	494.2
666.572	503
666.993	513.8
667.392	504
667.812	499.6
668.212	497.6
668.632	507
669.053	494.6
669.453	504
669.874	507
670.273	505.4
670.694	497
671.116	508.6
671.515	517
671.937	506.4
672.337	499
672.758	498.8
673.158	502.4
673.58	495.8
673.98	511.4
674.402	505
674.824	505.2
675.224	494
675.646	493.4
676.047	498.2
676.469	503.8
676.869	511.2
677.292	508.8
677.693	501
678.115	495.4
678.516	514
678.939	499.2
679.34	500.2
679.762	506.6
680.164	509.8
680.586	494.8
680.988	502.6
681.411	524.2
681.812	504.6
682.236	492.8
682.637	493
683.061	491.8
683.462	496.4
683.864	504.2
684.288	504.2
684.69	498.2
685.114	509.8
685.516	503.6
685.94	491.6
686.342	506.2
686.766	489.6
687.168	493.8
687.571	512.2
687.995	495.6
688.398	488.4
688.822	501
689.225	513.4
689.628	513.4
690.052	490.2
690.456	495
690.88	501.2
691.284	486.8
691.687	500
692.112	487.8
692.515	491
692.919	504
693.344	504.8
693.747	495.2
694.173	492.6
694.577	494.4
694.98	498.2
695.406	490.6
695.81	493.8
696.214	500.4
696.64	495.8
697.044	503.8
697.448	505
697.874	492.6
698.279	495.4
698.684	488.2
699.11	492.8
699.514	494
699.919	491.4
700.324	488.6
700.75	499
701.156	494.2
701.561	504.4
701.987	489
702.393	509.2
702.798	499.6
703.203	490.6
703.63	495.6
704.036	492.4
704.442	500.6
704.847	489.2
705.274	488
705.68	495.6
706.086	505.2
706.492	489.4
706.92	492.6
707.326	504.4
707.732	495.2
708.139	490.2
708.545	492.4
708.973	493.6
709.38	501
709.786	486.4
710.193	505.6
710.6	496.4
711.028	497.4
711.435	497.4
711.842	495.8
712.249	497
712.656	497.8
713.064	508.8
713.492	493.2
713.9	497.4
714.307	499.6
714.715	496.4
715.123	497.4
715.53	503.2
715.938	505
716.367	496.4
716.775	492.2
717.184	496.4
717.592	495.2
718	497.8
718.408	522.8
718.816	528.8
719.225	496.6
719.633	492.2
720.042	483.8
720.472	497.8
720.881	520.2
721.29	500.4
721.699	497.6
722.108	494.6
722.517	501
722.926	495.4
723.335	498.6
723.744	484.4
724.154	498.6
724.563	492.6
724.973	497.8
725.382	493.6
725.792	494.4
726.202	493.2
726.612	506.4
727.022	498.6
727.432	489
779.813	485.2
780.223	535.6
780.634	493
781.044	489.4
781.454	489.6
781.865	498.8
782.276	488
782.686	497.2
783.097	496
783.508	493.8
783.919	496.8
784.33	509.8
784.741	509
785.152	488
785.563	487.8
785.974	492.4
786.386	501.2
786.776	499.6
787.188	499
787.599	490.2
788.011	500.8
788.423	507
788.835	495.2
789.247	487.4
789.659	483.8
790.071	490.4
790.483	523.8
790.874	490.2
791.286	500.4
791.699	492
792.111	498.6
792.524	497.8
792.937	488.4
793.349	489.4
793.741	491.8
794.154	488.6
794.567	504.4
794.98	493.6
795.393	481.2
795.785	501.4
796.198	488.8
796.612	498.4
797.026	497
797.439	479.6
797.831	486.2
798.245	490.6
798.659	482.6
799.073	488
799.487	492.6
799.88	484.8
800.294	493.8
800.708	496.6
801.123	494.8
801.516	513.2
801.93	489
802.345	487.8
802.76	483.2
803.153	505.2
803.568	506.8
803.983	507
804.377	499
804.792	479.6
805.207	486.2
805.601	499.6
806.016	523.2
806.432	489.6
806.826	523
807.242	500.8
807.658	499.4
808.052	488.8
808.468	496.4
808.884	495.2
809.279	493.8
809.695	501.2
810.111	508.2
810.506	494
810.922	518.2
811.339	497.4
811.734	497.2
812.151	484.6
812.546	492.6
812.963	485.4
813.38	503.4
813.776	489.8
814.193	502
814.589	491.8
815.006	488.4
815.402	491.6
815.82	492.6
816.237	495.2
816.633	501.2
817.051	479.4
817.448	497.2
817.866	492.4
818.262	514.8
818.68	487.6
819.077	488
819.495	489.4
819.892	529.8
820.311	487.4
820.708	495.2
821.127	491
821.524	501.6
821.943	489.6
822.34	515
822.759	491.2
823.157	496.6
823.576	506
823.974	499.8
824.393	576.4
824.791	487.8
825.189	489.2
825.609	495.6
826.007	487
826.427	487.6
826.826	487.6
827.246	489.6
827.644	485
828.043	497
828.463	485.6
828.862	508.2
829.261	494.4
829.682	493.4
830.081	501.4
830.502	490.6
830.901	498.6
831.301	488.6
831.722	486.2
832.121	496.6
832.521	490.4
832.943	495.2
833.342	502
833.742	484.4
834.164	500.2
834.564	487.8
834.965	490.6
835.386	485.2
835.787	483
836.188	495.6
836.588	486.6
837.01	493.2
837.411	474.8
837.812	502.2
838.213	491
838.636	489.6
839.037	544.2
839.438	502.8
839.84	491.6
840.263	492.8
840.664	494.4
841.066	487.6
841.468	492.2
841.891	485.2
842.293	498.6
842.695	495.4
843.098	503.4
843.5	485.2
843.902	502.4
844.326	493
844.729	491.8
845.131	499.4
845.534	494.6
845.937	504
846.34	501.2
846.764	486
847.167	492.4
847.571	485.8
847.974	489.2
848.377	487.4
848.781	527.6
849.184	500.8
849.588	490
849.992	494.6
850.396	489.8
850.821	503.4
851.225	490
851.63	490
852.034	494.8
852.438	493.6
852.843	545.8
853.247	489.6
853.652	487
854.057	512.2
854.462	495.6
854.867	496.2
855.272	516.4
855.677	492.2
856.082	488.4
856.487	484.8
