#lambda/nm	C1
208.295	462.8
208.67	431.4
209.045	391.6
209.419	399
209.794	532.8
210.169	515.6
210.544	615.4
210.919	524.6
211.295	508
211.67	530.8
212.045	525.8
212.421	523.6
212.796	554
213.172	519.6
213.547	524.8
213.923	526.2
214.299	516.2
214.675	530.8
215.051	527.6
215.427	534
215.803	541.4
216.179	534.6
216.555	525.6
216.932	532.2
217.308	528.8
217.684	522.6
218.061	527.8
218.438	531.2
218.814	525.6
219.191	539.6
219.568	519.6
219.945	527.4
220.322	529.4
220.699	529.4
221.076	535.2
221.453	532.8
221.83	523.4
222.208	522.4
222.585	526.4
222.962	533.6
223.34	525.6
223.717	535.8
224.095	524.8
224.473	525.8
224.851	520.6
225.229	520.4
225.607	540
225.985	525.4
226.363	528.2
226.741	532
227.119	528
227.497	539.6
227.876	518.2
228.254	531.2
228.633	526.6
229.011	526
229.39	532.4
229.769	520.2
230.148	527.4
230.527	540.6
230.905	525
231.284	526.8
231.664	520.4
232.043	534.8
232.422	537.8
232.801	520
233.181	532.2
233.56	522.2
233.94	520
234.319	519.6
234.699	523.8
235.079	556.6
235.458	556.4
235.838	534.2
236.218	523
236.598	515.2
236.978	518.4
237.358	518.8
237.738	518.2
238.119	527.6
238.499	511.6
238.88	527
239.26	536.6
239.641	518
240.021	522
240.402	520.8
240.783	526.2
241.163	534
241.544	528.6
241.925	528.6
242.306	545.2
242.687	516.8
243.069	525
243.45	533.4
243.831	519
244.212	524.6
244.594	558
244.975	534.2
245.357	528.6
245.739	523
246.12	526.6
246.502	538.6
246.884	523.6
247.266	521
247.648	523.8
248.03	545
248.412	528.6
248.794	536.2
249.176	527.2
249.559	540.2
249.941	520.4
250.323	522.6
250.706	525.8
251.089	529.8
251.471	534.6
251.854	531
252.237	531.8
252.62	535.2
253.002	525.8
253.385	530
253.769	542.2
254.152	538
254.535	537.2
254.918	527.4
255.301	526.6
255.685	524.2
256.068	514.6
256.452	553
256.835	534.8
257.219	525.2
257.603	541.6
257.986	521.6
258.37	535.2
258.754	512.8
259.138	532.2
259.522	534.4
259.906	527
260.29	532.2
260.675	524.2
261.059	529.4
261.443	523.2
261.828	535.8
262.212	533
262.597	523.6
262.981	526.2
263.366	535.4
263.751	524.8
264.136	523.2
264.521	534.4
264.906	517.8
265.291	536.6
265.676	526.4
266.061	537.2
266.446	538.6
266.831	533
267.217	548.6
267.602	535.8
267.987	526.8
268.373	518.8
268.759	534.6
269.144	532
269.53	528
269.916	527
270.302	525.2
270.688	534.4
271.074	529.4
271.46	537
271.846	555.4
272.232	535
272.618	523.6
273.004	526.8
273.391	541.8
273.777	540.2
274.164	533.4
274.55	535.6
274.937	523
275.324	528.8
275.71	540.8
276.097	533.4
276.484	528
276.871	518
277.258	522.4
277.645	515.8
278.032	531.8
278.419	530
278.807	525.6
279.194	521
279.581	518
279.969	534
280.356	525
280.744	534.4
281.131	549.4
281.519	536.8
281.907	530.4
282.295	522.8
282.682	538.2
283.07	533.2
283.458	532
283.846	533.2
284.235	538
284.623	529.6
285.011	516.6
285.399	535
285.788	533.4
286.176	513
286.565	540.6
286.953	531.4
287.342	528
287.731	522.8
288.119	522.2
288.508	520.8
288.897	532.8
289.286	521.8
289.675	530.4
290.064	541.4
290.453	530
290.821	531.6
291.21	537.4
291.599	526.2
291.989	531
292.378	537.2
292.768	547.6
293.157	535.6
293.547	533.8
293.936	528.4
294.326	522.4
294.716	536.4
295.106	527.2
295.496	536
295.886	536.6
296.276	531.8
296.666	527.8
297.056	523.4
297.446	521.2
297.836	532.2
298.227	525.4
298.617	531.2
299.008	534.8
299.398	531.8
299.789	526.2
300.179	536.6
300.57	534.6
300.961	516
301.352	526.8
301.742	529.4
302.133	529.6
302.524	522.2
302.915	530
303.307	526
303.698	531.2
304.089	526
304.48	527.2
304.872	525.8
305.263	531.6
305.655	520.8
306.046	536.8
306.438	528.8
306.829	524
307.221	536.8
307.613	532.6
308.005	538.2
308.397	540.2
308.789	546.8
309.181	554.2
309.573	535
309.965	538
310.357	524
310.749	549.4
311.142	523.6
311.534	518
311.926	526
312.319	528
312.711	520.2
313.104	537
313.497	531.8
313.889	555.4
314.282	538.4
314.675	543.6
315.068	526
315.461	534
315.854	553.2
316.247	530.2
316.64	524.2
317.033	524.8
317.405	534.4
317.798	534.2
318.192	530.6
318.585	516.6
318.979	529.6
319.372	524.8
319.766	530.2
320.16	538.4
320.553	531.2
320.947	542.6
321.341	526.6
321.735	529.6
322.129	517.2
322.523	549.6
322.917	519.2
323.311	534.4
323.705	532.6
324.099	535.4
324.494	540
324.888	538.6
325.282	525.8
325.677	540.2
326.071	525.6
326.466	528.8
326.861	531.8
327.255	537.8
327.65	537.6
328.045	536.6
328.44	521.4
328.835	519.8
329.23	521.2
329.625	541.2
330.02	520.2
330.415	536.4
330.81	525.6
331.206	526.2
331.601	527.8
331.996	528.8
332.37	537.2
332.766	517
333.161	545
333.557	521.6
333.953	526.2
334.348	780.4
334.744	524.4
335.14	522.6
335.536	518.2
335.932	536
336.328	525.2
336.724	532.8
337.12	520
337.516	528.2
337.913	524.4
338.309	529.4
338.705	525.4
339.102	529.4
339.498	516
339.895	537.4
340.291	523.4
340.688	538
341.085	524.6
341.481	529.4
341.878	522.2
342.275	536.8
342.672	513.6
343.069	518.6
343.466	516.8
343.842	530.2
344.239	519.8
344.636	515.6
345.033	512.4
345.431	518.4
345.828	524.8
346.225	525.6
346.623	551.8
347.02	521.8
347.418	537.2
347.816	539.8
348.213	515.4
348.611	534.6
349.009	517
349.407	533.2
349.805	515.6
350.203	514
350.601	536.8
350.999	517
351.397	574.6
351.795	525
352.193	529.2
352.57	523.6
352.969	537.2
353.367	519.8
353.766	521.2
354.164	530
354.563	530.4
354.961	527.8
355.36	525
355.759	524.6
356.158	518
356.557	522.2
356.956	510.4
357.355	512
357.754	525.6
358.153	525.8
358.552	537.4
358.951	521
359.35	539.2
359.75	521
360.149	519.4
360.527	512.8
360.926	511.8
361.326	525.4
361.726	521
362.125	519
362.525	527.6
362.925	511.8
363.325	524
363.724	520.8
364.124	519.6
364.524	520.8
364.924	521.8
365.324	535.8
365.725	518.2
366.125	522.4
366.525	522
366.904	516.4
367.304	504
367.705	529.6
368.105	540
368.506	519.6
368.906	523.2
369.307	521.8
369.708	514.4
370.108	513
370.509	526.2
370.91	519
371.311	521
371.712	517.4
372.113	521.8
372.514	510
372.894	523.6
373.295	522.4
373.696	539
374.097	526.4
374.499	546.8
374.9	522.2
375.301	512.6
375.703	525.4
376.105	515.4
376.506	516.6
376.908	523.2
377.309	525.4
377.711	520.6
378.113	507.2
378.493	521.2
378.895	516.2
379.297	530
379.699	510.2
380.102	527.2
380.504	528.2
380.906	517.4
381.308	538.8
381.71	519
382.113	522.6
382.515	524.6
382.918	515.8
383.299	523.2
383.701	530.4
384.104	525.8
384.507	506.4
384.909	517.8
385.312	510.2
385.715	508
386.118	522.4
386.521	504
386.924	528.6
387.327	510.2
387.709	508.2
388.112	513.6
388.515	519.4
388.918	514.4
389.322	514.8
389.725	512.8
390.129	533.8
390.532	523.2
390.936	520.4
391.339	513.8
391.743	523.2
392.125	513.8
392.529	531
392.933	529.4
393.337	512.2
393.74	508.8
394.144	517.6
394.548	514
394.953	525.4
395.357	523.2
395.761	512.2
396.144	523
396.548	526.6
396.952	519.4
397.357	521.4
397.761	519.2
398.166	513.6
398.57	512
398.975	510.2
399.379	517.4
399.763	551
400.168	518.6
400.572	523.6
400.977	517.6
401.382	530.8
401.787	525
402.192	530.8
402.597	529.8
403.002	510
403.386	521.8
403.791	531.6
404.197	514.8
404.602	524.4
405.007	518.4
405.413	514.4
405.818	518.2
406.224	515.2
406.608	522
407.014	511.6
407.42	535.4
407.825	514.2
408.231	528.8
408.637	527.6
409.043	524.2
409.449	517.6
409.834	513.2
410.24	516.6
410.646	526.4
411.052	525.8
411.458	522.4
411.865	530
412.271	528
412.677	515
413.062	523.2
413.469	511.6
413.875	537.8
414.282	526.6
414.689	523
415.095	522.4
415.502	516.8
415.888	526.8
416.294	509.2
416.701	546.2
417.108	517.4
417.515	532.6
417.923	519.8
418.33	536.4
418.715	522
419.123	516.2
419.53	506.4
419.937	521.2
420.345	528.8
420.752	510.2
421.16	526.4
421.546	521.4
421.953	523.2
422.361	516.8
422.769	525
423.177	514.6
423.585	534.4
423.992	535.6
424.379	524.6
424.787	522.2
425.195	538.4
425.603	516
426.011	525
426.419	529.2
426.806	516.8
427.214	518.2
427.623	520.8
428.031	527
428.44	524
428.848	530.2
429.235	535.4
429.644	511.4
430.053	518.8
430.461	528.8
430.87	544
431.279	529.6
431.666	523
432.075	516.6
432.484	521.4
432.893	520.2
433.302	533.2
433.711	555
434.099	519.6
434.508	519
434.918	520
435.327	529.6
435.737	535.2
436.125	530.6
436.534	536.4
436.944	525
437.353	537.8
437.763	557.4
438.173	539.2
438.561	551.8
438.971	529.6
439.381	548
439.791	552
440.201	543
440.589	567.8
440.999	567
441.409	573.2
441.819	566.4
442.23	584.8
442.619	585
443.029	579.2
443.439	585.6
443.85	595.6
444.26	602
444.649	609
445.06	602.8
445.471	596
445.881	601.6
446.292	614.2
446.682	627.2
447.092	601.6
447.503	652.8
447.914	618.4
448.325	623.2
448.715	631.8
449.126	615
449.537	626.8
449.948	632.2
450.338	631.8
450.75	649.4
451.161	637.4
451.572	647.8
451.984	634.4
452.374	627
452.786	641.2
453.197	643.8
453.609	647.6
453.999	639.2
454.411	643.2
454.823	661.4
455.235	655
455.647	655
456.037	662
456.449	640
456.862	657.8
457.274	660.6
457.665	647.2
458.077	660.6
458.489	681.4
458.902	652
459.293	662.4
459.705	664.8
460.118	646
460.53	666
460.921	666
461.334	673
461.747	678.8
462.16	676.4
462.551	679.8
462.964	678.8
463.377	662.2
463.79	671.6
464.182	681.8
464.595	676.4
465.008	689.8
465.421	694
465.813	680.2
466.226	692.8
466.64	684.4
467.053	727.6
467.445	701.8
467.859	704
468.272	687.2
468.686	697.4
469.078	685.2
469.492	679
469.906	703.2
470.298	696.4
470.712	697
471.126	720.8
471.54	680.8
471.933	699.8
472.347	692.6
472.761	698.2
473.175	702.6
473.568	690.2
473.982	697.8
474.397	705.4
474.79	699.2
475.204	704.6
475.619	693.8
476.033	701.4
476.426	695
476.841	699.8
477.256	725.6
477.649	693.2
478.064	698
478.479	700.6
478.872	694
479.287	691.2
479.702	696.6
480.118	705.6
480.511	692.2
480.927	694.6
481.342	685.6
481.736	703.2
482.151	685.2
482.566	702.4
482.96	695.6
483.376	698.4
483.792	690.8
484.186	701.6
484.602	690
485.017	700.2
485.412	700.6
485.827	691.6
486.243	688.8
486.638	708.2
487.054	700
487.47	709
487.865	687.6
488.281	689.6
488.697	691.6
489.092	692.4
489.508	678
489.925	691.4
490.32	684.8
490.736	687
491.153	689.6
491.548	685.4
491.964	688.8
492.381	663.2
492.776	680.4
493.193	679.2
493.61	675.8
494.006	677.4
494.422	668.8
494.84	666.4
495.235	679.4
495.652	668
496.069	664.4
496.465	666
496.883	666.4
497.3	689.2
497.696	655
498.113	670.6
498.509	655
498.927	659.2
499.344	656.8
499.741	658.8
500.158	666.6
500.576	673.2
500.973	668.4
501.39	643.2
501.787	645.6
502.205	658.4
502.623	651.2
503.02	644.4
503.438	651.8
503.856	647.8
504.253	655.2
504.671	654.6
505.068	652.4
505.486	642
505.905	668.8
506.302	643.4
506.72	659.6
507.118	636.2
507.536	645
507.955	638.8
508.352	642
508.771	640.6
509.169	636
509.587	633
510.006	631.2
510.404	625.2
510.823	627
511.221	631.2
511.64	631.6
512.038	642.8
512.457	628.6
512.877	624
513.275	622.6
513.694	619.6
514.092	623
514.512	622.4
514.91	624.6
515.33	617.4
515.749	628
516.148	618.6
516.568	616
516.966	625.4
517.386	617.2
517.785	614.4
518.205	604
518.603	612.6
519.024	607.2
519.444	611.6
519.843	622.2
520.263	607.8
520.662	603.6
521.082	606.6
521.481	604.4
521.902	606.6
522.301	602.4
522.722	609
523.121	595.6
523.542	594.2
523.963	604.8
524.362	601
524.783	594.8
525.183	580.8
525.604	596.4
526.003	583.8
526.425	587.8
526.824	594.8
527.246	595
527.646	604.6
528.067	587.6
528.467	584.6
528.888	589.8
529.289	583.8
529.71	581.6
530.11	576
530.532	579.6
530.932	579.8
531.354	572.8
531.755	603.2
532.176	589.2
532.577	583
532.999	584.2
533.4	579
533.822	583.2
534.223	577
534.645	579.4
535.046	576.2
535.468	573.6
535.869	590
536.292	573
536.693	604.4
537.115	574.2
537.516	571
537.939	574
538.34	589.2
538.742	587.6
539.165	577.2
539.566	567.8
539.989	558.8
540.391	571
540.814	571
541.216	571.8
541.639	575.4
542.041	576.6
542.464	573.8
542.866	564
543.268	565.4
543.691	576.2
544.093	582.8
544.517	580.2
544.919	554.4
545.343	595.2
545.745	548
546.147	569
546.571	563.8
546.974	558.4
547.398	551.6
547.8	573.2
548.224	555.8
548.627	557.6
549.03	562.6
549.454	554.4
549.857	554.6
550.281	561.6
550.684	548
551.087	563.6
551.512	553.4
551.915	557.2
552.34	557.8
552.743	558.4
553.146	556
553.571	556.6
553.975	572
554.399	552.2
554.803	597.8
555.207	547.6
555.632	542.6
556.036	553.2
556.461	543
556.865	550.6
557.268	536.6
557.694	543.8
558.098	552.8
558.502	551.2
558.927	544.8
559.332	540
559.736	543.6
560.162	550.2
560.566	549.2
560.992	553.2
561.396	550
561.801	548.6
562.227	542.4
562.631	544.4
563.036	541.6
563.462	550
563.867	546.2
564.272	528.2
564.698	550.6
565.103	529.4
565.508	558.2
565.935	540.4
566.34	544.8
566.745	556.4
567.172	530.2
567.577	555.8
567.982	545.2
568.409	544.6
568.815	528.2
569.22	534.8
569.626	543.6
570.053	529
570.459	531.6
570.865	541.6
571.292	546.2
571.698	536.6
572.104	518.8
572.531	533.6
572.937	539.2
573.343	530
573.75	522.4
574.177	538.2
574.583	535.4
574.99	534
575.396	535.8
575.824	541.2
576.231	538.2
576.637	526.8
577.065	554.8
577.472	524.8
577.879	530.6
578.286	544.4
578.714	538.8
579.121	528.4
579.528	532
579.935	530.6
580.364	525.2
580.771	519
581.178	521.4
581.585	524.8
582.014	536.6
582.421	519.4
582.829	524.2
583.236	532.2
583.644	529.6
584.073	522.8
584.481	530.2
584.889	518.8
585.296	528.6
585.726	532
586.134	511.8
586.542	523
586.95	544.8
587.358	519.4
587.787	522.4
588.196	516
588.604	523.2
589.012	521
589.421	518.2
589.851	520
590.259	525.6
590.668	509.4
591.076	544
591.485	513.2
591.894	518.4
592.324	530
592.733	528.8
593.142	509.8
593.551	515.2
593.96	541
594.369	504.6
594.8	507.6
595.209	512.4
595.618	510.4
596.028	518.2
596.437	504
596.847	509.4
597.256	509.8
597.687	519.4
598.097	516.6
598.507	508.4
598.917	521.4
599.327	515.6
599.736	512.8
600.146	528.2
600.556	521
600.988	526.8
601.398	509.8
601.808	519.4
602.219	507.8
602.629	518.4
603.039	509.4
603.45	532.4
603.86	515.2
604.271	523.8
604.703	517
605.114	512.8
605.525	507.4
605.935	523
606.346	527.4
606.757	506.4
607.168	503.2
607.579	509.8
607.99	521
608.402	513.2
608.813	520.6
609.224	510.8
609.636	504.4
610.047	506.4
610.48	515.8
610.892	518.4
611.303	520.6
611.715	510
612.127	509.8
612.539	512.2
612.95	516.4
613.362	501.4
613.774	499.6
614.186	501.6
614.599	507.2
615.011	513
615.423	512.2
615.835	500.2
616.248	510.4
616.66	513
617.073	495.2
617.485	503.4
617.898	511.4
618.311	509.6
618.723	505.8
619.136	533
619.549	516.4
619.962	521.4
620.375	501.8
620.788	508.8
621.201	503.4
621.614	511
622.028	502
622.441	510.8
622.854	521
623.268	501.8
623.681	515.8
624.095	512
624.509	515
624.922	515.8
625.336	498.6
625.728	502.8
626.142	517.4
626.556	520.4
626.97	511.4
627.384	503.2
627.799	505.6
628.213	512.2
628.627	507
629.041	508
629.456	502.8
629.87	508.8
630.285	518
630.699	517.2
631.093	501.8
631.507	504.2
631.922	502.6
632.337	516
632.752	500
633.167	508.4
633.582	508.2
633.997	507
634.412	502
634.806	511.4
635.221	500.2
635.637	509.6
636.052	497.8
636.468	502
636.883	518
637.299	498.6
637.715	493.6
638.109	498.2
638.525	490.4
638.941	511.4
639.357	503.6
639.773	512.6
640.189	496.8
640.584	510.8
641	506.2
641.416	495.6
641.832	504
642.249	501
642.665	503.2
643.06	514
643.477	511.2
643.894	497.8
644.31	496.8
644.727	506.8
645.123	512.2
645.54	502.8
645.957	500.8
646.374	522.8
646.77	505.8
647.187	522.6
647.604	506.6
648.021	490.4
648.439	502.8
648.835	507
649.252	506
649.67	508.6
650.088	506.2
650.484	510.6
650.902	508.2
651.32	509.2
651.738	500.8
652.134	503.2
652.552	515
652.971	510.8
653.389	501
653.786	516.6
654.204	504.8
654.622	498.8
655.019	503.2
655.438	508.6
655.857	504
656.275	502.4
656.673	495.6
657.091	506
657.51	500
657.908	511.2
658.327	514.8
658.746	496.4
659.144	504.2
659.563	512.6
659.982	501.4
660.38	494
660.8	504.2
661.219	509.4
661.617	502
662.037	500
662.457	501.2
662.855	492.2
663.275	523.4
663.695	499
664.094	496
664.514	502.4
664.934	494.2
665.333	504
665.753	499.4
666.152	495
666.572	493.6
666.993	510.2
667.392	504.4
667.812	500
668.212	501
668.632	507.2
669.053	500
669.453	508.4
669.874	493.6
670.273	501.8
670.694	500.8
671.116	510.4
671.515	503.8
671.937	506.8
672.337	495.2
672.758	496
673.158	505.4
673.58	497
673.98	511.8
674.402	506
674.824	501.6
675.224	498.2
675.646	484.6
676.047	492
676.469	503.4
676.869	503.6
677.292	502.2
677.693	495.6
678.115	495.2
678.516	507.4
678.939	502
679.34	494.2
679.762	505
680.164	497.8
680.586	488.6
680.988	504.2
681.411	520
681.812	501.4
682.236	497
682.637	490.6
683.061	486.4
683.462	499.6
683.864	499.4
684.288	502.4
684.69	491.4
685.114	502
685.516	507.2
685.94	489.8
686.342	501.2
686.766	493.8
687.168	497.2
687.571	508.6
687.995	508.2
688.398	488.2
688.822	500.4
689.225	503.2
689.628	514.8
690.052	489.4
690.456	503.2
690.88	504.2
691.284	488.4
691.687	497
692.112	493.6
692.515	483.4
692.919	500.6
693.344	488.8
693.747	491.6
694.173	490.4
694.577	509
694.98	496.8
695.406	501.8
695.81	498.6
696.214	500
696.64	504
697.044	506.2
697.448	502.8
697.874	500
698.279	500
698.684	481.6
699.11	491.2
699.514	498
699.919	494.4
700.324	490.6
700.75	502.6
701.156	501
701.561	502.4
701.987	505
702.393	509.4
702.798	503.6
703.203	504.4
703.63	498.8
704.036	491.4
704.442	501
704.847	490.4
705.274	495.6
705.68	497.8
706.086	504.2
706.492	492
706.92	496.2
707.326	508.4
707.732	488.8
708.139	502.8
708.545	498.2
708.973	496.2
709.38	494
709.786	486.2
710.193	510.4
710.6	498.2
711.028	487.6
711.435	494.8
711.842	494.8
712.249	490.6
712.656	487.2
713.064	499.8
713.492	490
713.9	490
714.307	493
714.715	488.2
715.123	493.8
715.53	489.6
715.938	496
716.367	485.4
716.775	496.4
717.184	494
717.592	485.6
718	499.8
718.408	517.2
718.816	529
719.225	490
719.633	502.2
720.042	483.2
720.472	488.4
720.881	510.4
721.29	493.2
721.699	486.6
722.108	494.2
722.517	488.2
722.926	480.8
723.335	499.8
723.744	489
724.154	493.8
724.563	492.2
724.973	495
725.382	497
725.792	487.4
726.202	478
726.612	503.8
727.022	485.8
727.432	488.4
779.813	487.8
780.223	520.6
780.634	494
781.044	487.2
781.454	496.8
781.865	500.8
782.276	483.8
782.686	499.8
783.097	498.2
783.508	492.4
783.919	501
784.33	507.4
784.741	513
785.152	490.2
785.563	483.4
785.974	494
786.386	498.4
786.776	491
787.188	485
787.599	480.6
788.011	496.6
788.423	499.4
788.835	488.2
789.247	487.8
789.659	486.8
790.071	491.6
790.483	523.4
790.874	485
791.286	498.6
791.699	487.4
792.111	500.2
792.524	496.8
792.937	494.8
793.349	481
793.741	489
794.154	479.8
794.567	507.6
794.98	484.8
795.393	492.4
795.785	506.4
796.198	497
796.612	496.8
797.026	494.2
797.439	477.4
797.831	495
798.245	488.2
798.659	490.2
799.073	489.4
799.487	485
799.88	491.6
800.294	490.8
800.708	497.4
801.123	499.8
801.516	513
801.93	483.6
802.345	484.6
802.76	492.2
803.153	506
803.568	502.4
803.983	503
804.377	503.2
804.792	486
805.207	484
805.601	492.4
806.016	521
806.432	484
806.826	518
807.242	511.4
807.658	493.8
808.052	490.6
808.468	491
808.884	491.6
809.279	487.8
809.695	497.8
810.111	507.8
810.506	495.2
810.922	505.4
811.339	485.6
811.734	501.4
812.151	491.4
812.546	492.6
812.963	484.8
813.38	490.6
813.776	489.2
814.193	505.8
814.589	488.8
815.006	492.4
815.402	486.8
815.82	491.4
816.237	487.4
816.633	500.4
817.051	491.6
817.448	495
817.866	486.6
818.262	501.4
818.68	492.6
819.077	490.2
819.495	485.2
819.892	525.6
820.311	495.2
820.708	497.4
821.127	493.4
821.524	496
821.943	492.4
822.34	508.4
822.759	497.4
823.157	489.8
823.576	505.8
823.974	501.8
824.393	581.2
824.791	486.2
825.189	485.4
825.609	492
826.007	489
826.427	486.4
826.826	487
827.246	500.4
827.644	486.2
828.043	499
828.463	482.6
828.862	500.6
829.261	495.2
829.682	475.4
830.081	495.8
830.502	493.2
830.901	489.4
831.301	485.6
831.722	485.4
832.121	495
832.521	496.8
832.943	490.2
833.342	491.8
833.742	477.6
834.164	486.4
834.564	482.2
834.965	482.8
835.386	483.6
835.787	491.4
836.188	493.4
836.588	493.8
837.01	494
837.411	477.6
837.812	492.2
838.213	498.6
838.636	487.6
839.037	541.8
839.438	491.4
839.84	495.2
840.263	493.8
840.664	489.4
841.066	493.8
841.468	498
841.891	492.2
842.293	496.4
842.695	493.8
843.098	497.6
843.5	489
843.902	487.4
844.326	499.4
844.729	492.6
845.131	501.6
845.534	499.6
845.937	496.6
846.34	500.6
846.764	487.8
847.167	492.8
847.571	479.8
847.974	488.6
848.377	487.4
848.781	526.8
849.184	498.2
849.588	490.4
849.992	487.4
850.396	489.4
850.821	511.8
851.225	488.2
851.63	491.2
852.034	502.6
852.438	489.2
852.843	516.8
853.247	480.4
853.652	491.8
854.057	502.2
854.462	497.4
854.867	486.6
855.272	510.4
855.677	492.8
856.082	487.8
856.487	476.4
856.893	490.8
857.298	484.4
