#lambda/nm	C1
208.295	463.6
208.67	428.4
209.045	391.2
209.419	390.6
209.794	530.2
210.169	520.8
210.544	609.2
210.919	529.2
211.295	516.2
211.67	534.6
212.045	518.6
212.421	524.6
212.796	556.6
213.172	525.8
213.547	519
213.923	525
214.299	518.4
214.675	536.8
215.051	533.4
215.427	546
215.803	544.4
216.179	526.4
216.555	519.6
216.932	534
217.308	523.6
217.684	529.4
218.061	533.2
218.438	532.8
218.814	523.6
219.191	537.6
219.568	514.4
219.945	530.2
220.322	534.8
220.699	530.6
221.076	536.8
221.453	535.2
221.83	523.4
222.208	519.6
222.585	529.2
222.962	531.4
223.34	533.2
223.717	527.4
224.095	529
224.473	526
224.851	520
225.229	514.2
225.607	537.2
225.985	522.8
226.363	527.4
226.741	526
227.119	524.6
227.497	533.4
227.876	515.2
228.254	528.4
228.633	529.2
229.011	529
229.39	534.4
229.769	529
230.148	529
230.527	547.4
230.905	526.8
231.284	524.8
231.664	521
232.043	542.8
232.422	530.6
232.801	528.4
233.181	538.4
233.56	521.4
233.94	523.8
234.319	521.6
234.699	523.6
235.079	558.4
235.458	557.6
235.838	541
236.218	534
236.598	526
236.978	522
237.358	521.4
237.738	527.8
238.119	528.4
238.499	521.2
238.88	519.6
239.26	535.8
239.641	521
240.021	527.2
240.402	532
240.783	532.6
241.163	532.8
241.544	529
241.925	523.4
242.306	539.4
242.687	523
243.069	528.6
243.45	528.6
243.831	522.4
244.212	523.4
244.594	559.4
244.975	538.4
245.357	534.2
245.739	523
246.12	530.2
246.502	535.4
246.884	529.8
247.266	528
247.648	534.8
248.03	544.8
248.412	533.2
248.794	525.2
249.176	520
249.559	528.6
249.941	526.4
250.323	526
250.706	520.2
251.089	527.8
251.471	531.4
251.854	533.2
252.237	531.8
252.62	537
253.002	537.4
253.385	528.4
253.769	536.2
254.152	529
254.535	533.2
254.918	522.6
255.301	524.4
255.685	528.6
256.068	518.6
256.452	551
256.835	535.2
257.219	535.8
257.603	535.4
257.986	525.2
258.37	528
258.754	514.8
259.138	530.2
259.522	537.4
259.906	525
260.29	533.8
260.675	522.6
261.059	525.6
261.443	521.6
261.828	538.6
262.212	527.6
262.597	520.2
262.981	520
263.366	536.2
263.751	524.8
264.136	525.6
264.521	531.8
264.906	525.8
265.291	541.4
265.676	525.4
266.061	531.6
266.446	552.2
266.831	527.8
267.217	544.4
267.602	529.4
267.987	533.8
268.373	527.8
268.759	538.6
269.144	529.4
269.53	529.4
269.916	529
270.302	525.2
270.688	537.2
271.074	528.8
271.46	538.2
271.846	557.2
272.232	534.6
272.618	526.4
273.004	526.6
273.391	538
273.777	537.2
274.164	535
274.55	535.6
274.937	532
275.324	525.4
275.71	539.2
276.097	535
276.484	524.6
276.871	528
277.258	529.6
277.645	516
278.032	524.8
278.419	519
278.807	522.8
279.194	524.4
279.581	524.2
279.969	528.8
280.356	529
280.744	532.8
281.131	542
281.519	539.2
281.907	524.2
282.295	516.2
282.682	540.2
283.07	532.6
283.458	533.6
283.846	526.4
284.235	531
284.623	529.2
285.011	517.4
285.399	532.8
285.788	521.8
286.176	520.8
286.565	536
286.953	518.2
287.342	527
287.731	523.8
288.119	522.6
288.508	520.4
288.897	523.8
289.286	513
289.675	525.8
290.064	539.6
290.453	523.2
290.821	529.2
291.21	536.4
291.599	524.4
291.989	529.6
292.378	527.8
292.768	541
293.157	526
293.547	532.4
293.936	527.2
294.326	529.4
294.716	535.4
295.106	525.8
295.496	537.2
295.886	528
296.276	523.6
296.666	521.2
297.056	527.6
297.446	511.6
297.836	542.8
298.227	527
298.617	532
299.008	531.2
299.398	530
299.789	525.4
300.179	531
300.57	541.6
300.961	520
301.352	522
301.742	527
302.133	531
302.524	528.6
302.915	528.6
303.307	525.8
303.698	543
304.089	533.6
304.48	520.6
304.872	535.2
305.263	528.8
305.655	520.6
306.046	534.4
306.438	524.8
306.829	523.6
307.221	542.4
307.613	527.6
308.005	544.8
308.397	532.8
308.789	546.6
309.181	549.6
309.573	538.2
309.965	538.4
310.357	523.2
310.749	539
311.142	516
311.534	519.2
311.926	530.6
312.319	514.4
312.711	523
313.104	540.4
313.497	526.2
313.889	555.6
314.282	543
314.675	544.4
315.068	533.2
315.461	532.2
315.854	549.6
316.247	536
316.64	524.2
317.033	532.6
317.405	538.8
317.798	529.4
318.192	530.2
318.585	525.8
318.979	534.2
319.372	523.6
319.766	523.8
320.16	534.6
320.553	537.6
320.947	540.8
321.341	525
321.735	530.2
322.129	514.2
322.523	544.2
322.917	518.8
323.311	540
323.705	532.6
324.099	529.8
324.494	536.6
324.888	537.2
325.282	526
325.677	535
326.071	525.4
326.466	534.4
326.861	523
327.255	533.8
327.65	528.2
328.045	537.2
328.44	520
328.835	524.4
329.23	511.8
329.625	544.4
330.02	520
330.415	547.2
330.81	531.2
331.206	530.2
331.601	524
331.996	532.6
332.37	541.4
332.766	523.6
333.161	543
333.557	532.8
333.953	523.2
334.348	820
334.744	524.2
335.14	525.2
335.536	513.6
335.932	539.4
336.328	528.6
336.724	534.2
337.12	526.2
337.516	529.4
337.913	534.8
338.309	538.2
338.705	519.4
339.102	539.8
339.498	529.4
339.895	535.8
340.291	524.6
340.688	532.8
341.085	522
341.481	528.8
341.878	524.2
342.275	544.6
342.672	520.6
343.069	523.2
343.466	511.4
343.842	530.4
344.239	521
344.636	523.8
345.033	525.2
345.431	516.2
345.828	522.8
346.225	518.2
346.623	550.8
347.02	524.2
347.418	524.4
347.816	536
348.213	518.8
348.611	525
349.009	512
349.407	533.4
349.805	510.8
350.203	506.8
350.601	538.2
350.999	523.2
351.397	584.6
351.795	524.2
352.193	530.8
352.57	533.2
352.969	532.2
353.367	518.4
353.766	523.8
354.164	526
354.563	530
354.961	524.8
355.36	515.2
355.759	519.2
356.158	522.4
356.557	519.4
356.956	516.6
357.355	515.4
357.754	525.2
358.153	522
358.552	534
358.951	518.4
359.35	535.2
359.75	524.8
360.149	515.2
360.527	515.8
360.926	521.4
361.326	529.2
361.726	518.6
362.125	518.4
362.525	530.8
362.925	516.8
363.325	525
363.724	524
364.124	520.4
364.524	515.8
364.924	522.6
365.324	525.6
365.725	505
366.125	525.2
366.525	523.4
366.904	519.8
367.304	503.4
367.705	531
368.105	537
368.506	525.4
368.906	525.8
369.307	517.6
369.708	520.2
370.108	523
370.509	530.6
370.91	522.4
371.311	521.6
371.712	523.6
372.113	520.6
372.514	522.2
372.894	519.2
373.295	522.4
373.696	531.6
374.097	528.4
374.499	545.4
374.9	522.8
375.301	509.6
375.703	520.6
376.105	513.8
376.506	516.4
376.908	522.6
377.309	516.8
377.711	516
378.113	511.8
378.493	513.8
378.895	512.4
379.297	527.8
379.699	509.6
380.102	517.6
380.504	515
380.906	512
381.308	525.4
381.71	518.6
382.113	520.6
382.515	511.4
382.918	516.6
383.299	520.2
383.701	525.4
384.104	521.6
384.507	504.6
384.909	512.2
385.312	505.2
385.715	517.8
386.118	523.8
386.521	515
386.924	521.2
387.327	512
387.709	514
388.112	510.4
388.515	518.8
388.918	517.4
389.322	518
389.725	519
390.129	534
390.532	523.6
390.936	514.6
391.339	514.8
391.743	517.4
392.125	516.2
392.529	527.6
392.933	527.6
393.337	514.4
393.74	521.8
394.144	523.6
394.548	516.2
394.953	519.4
395.357	522.8
395.761	525.6
396.144	522.2
396.548	523.6
396.952	521.4
397.357	516.2
397.761	509.4
398.166	518.8
398.57	523.2
398.975	518.8
399.379	520.4
399.763	557.8
400.168	524.2
400.572	515.2
400.977	515.4
401.382	539.6
401.787	529.4
402.192	531
402.597	539
403.002	506.4
403.386	533
403.791	534
404.197	515.2
404.602	519.6
405.007	512.8
405.413	504.4
405.818	516.6
406.224	512.6
406.608	511.8
407.014	508
407.42	539.6
407.825	512
408.231	525.4
408.637	522.6
409.043	529.8
409.449	508
409.834	514.4
410.24	513
410.646	529.2
411.052	524.4
411.458	525.2
411.865	524.4
412.271	526.4
412.677	524
413.062	521
413.469	515.8
413.875	535.4
414.282	535.6
414.689	514.8
415.095	530.4
415.502	520.2
415.888	520.2
416.294	507.6
416.701	549.8
417.108	515.4
417.515	527.4
417.923	521.6
418.33	535.8
418.715	524.8
419.123	522.8
419.53	514.2
419.937	521.6
420.345	533.2
420.752	516.6
421.16	531
421.546	533.2
421.953	531
422.361	514.2
422.769	520.4
423.177	518.6
423.585	546
423.992	532
424.379	519.6
424.787	525.2
425.195	538.6
425.603	520.8
426.011	530.8
426.419	533.4
426.806	526.4
427.214	519.6
427.623	530.8
428.031	529.4
428.44	521.6
428.848	531.8
429.235	534.8
429.644	526
430.053	527
430.461	536.2
430.87	543.2
431.279	530.4
431.666	516.6
432.075	529.4
432.484	530.6
432.893	518.8
433.302	535.2
433.711	552.4
434.099	530.2
434.508	520.8
434.918	522.4
435.327	537.2
435.737	537.8
436.125	536.8
436.534	534.6
436.944	535.2
437.353	544.4
437.763	562
438.173	529.4
438.561	550.6
438.971	531.4
439.381	549.4
439.791	558
440.201	543.4
440.589	554
440.999	570.2
441.409	576.2
441.819	562.8
442.23	585.8
442.619	590
443.029	580
443.439	592.6
443.85	606.6
444.26	615.6
444.649	605.6
445.06	606.6
445.471	604
445.881	620.2
446.292	635
446.682	633.8
447.092	612.2
447.503	664.8
447.914	628.2
448.325	632
448.715	635.2
449.126	627.8
449.537	639.2
449.948	637.8
450.338	651.8
450.75	658
451.161	654.6
451.572	651
451.984	645.8
452.374	652.4
452.786	651.8
453.197	663.2
453.609	675.8
453.999	667.6
454.411	659.2
454.823	678
455.235	676.2
455.647	666.6
456.037	667.6
456.449	667
456.862	684.6
457.274	675.2
457.665	672.8
458.077	688
458.489	709.2
458.902	683.2
459.293	685.2
459.705	693
460.118	686.4
460.53	691.2
460.921	684.6
461.334	709.4
461.747	701.2
462.16	710.4
462.551	714
462.964	715
463.377	699.6
463.79	706.4
464.182	720
464.595	712.8
465.008	718.2
465.421	714.6
465.813	709
466.226	721.4
466.64	727.4
467.053	759
467.445	741.4
467.859	735.2
468.272	730
468.686	740.8
469.078	747.8
469.492	735
469.906	739.4
470.298	751.6
470.712	727.2
471.126	763.4
471.54	730.4
471.933	736
472.347	735.4
472.761	738.6
473.175	738
473.568	739.4
473.982	731.6
474.397	738.4
474.79	733
475.204	753.2
475.619	731.6
476.033	739.2
476.426	725.4
476.841	733
477.256	766.2
477.649	731.8
478.064	731.4
478.479	732.4
478.872	740.2
479.287	729
479.702	740.6
480.118	735.2
480.511	738
480.927	743.6
481.342	739
481.736	740.2
482.151	725.6
482.566	748
482.96	735.8
483.376	733.4
483.792	729.8
484.186	734.4
484.602	730.8
485.017	732.8
485.412	731
485.827	740.4
486.243	736
486.638	749.6
487.054	741.6
487.47	741.8
487.865	733
488.281	735.6
488.697	727.2
489.092	731.2
489.508	721.8
489.925	741.4
490.32	709.2
490.736	739.6
491.153	728.4
491.548	732.8
491.964	728
492.381	718.4
492.776	721.4
493.193	714.6
493.61	725
494.006	717.6
494.422	722.8
494.84	714.2
495.235	723
495.652	720.2
496.069	720.6
496.465	701
496.883	706.2
497.3	720.4
497.696	710.6
498.113	706.6
498.509	695.6
498.927	702.2
499.344	685.8
499.741	691
500.158	708
500.576	702.6
500.973	705.8
501.39	697.8
501.787	684.8
502.205	688
502.623	685.8
503.02	688
503.438	679.4
503.856	686.4
504.253	680.4
504.671	683.6
505.068	670
505.486	681.4
505.905	685.6
506.302	681.6
506.72	683.4
507.118	668.8
507.536	674.6
507.955	671.6
508.352	671
508.771	669.4
509.169	670.6
509.587	661.2
510.006	659.8
510.404	654.8
510.823	660.4
511.221	661
511.64	656.6
512.038	667
512.457	655.4
512.877	652
513.275	644.8
513.694	655.2
514.092	645.2
514.512	653.2
514.91	654.2
515.33	650.8
515.749	654
516.148	645.4
516.568	643.4
516.966	643.8
517.386	626.8
517.785	631.2
518.205	637.8
518.603	630
519.024	632.8
519.444	635
519.843	634.2
520.263	642.6
520.662	633
521.082	633
521.481	623.2
521.902	621.6
522.301	623.4
522.722	627.2
523.121	631.4
523.542	624.2
523.963	616.4
524.362	623.6
524.783	615.2
525.183	620.8
525.604	633.2
526.003	620.6
526.425	617.8
526.824	616
527.246	611.4
527.646	619.6
528.067	608.2
528.467	608.2
528.888	614
529.289	608.8
529.71	596.2
530.11	610.6
530.532	603.2
530.932	598.6
531.354	586.8
531.755	626.4
532.176	605.8
532.577	592.8
532.999	598.4
533.4	593
533.822	599.6
534.223	599.4
534.645	587.6
535.046	591.2
535.468	595.4
535.869	599
536.292	586.4
536.693	612
537.115	589.6
537.516	577.2
537.939	581.8
538.34	600
538.742	593.4
539.165	592.4
539.566	587.6
539.989	579.8
540.391	580
540.814	579.6
541.216	590.8
541.639	589.4
542.041	591.8
542.464	579.4
542.866	579.8
543.268	576.2
543.691	579.8
544.093	582.4
544.517	596.2
544.919	568.4
545.343	606
545.745	575
546.147	578.2
546.571	579
546.974	562.2
547.398	578.8
547.8	581.6
548.224	565.2
548.627	562.6
549.03	570.8
549.454	563
549.857	563.8
550.281	574.2
550.684	563
551.087	568.2
551.512	570.4
551.915	571.4
552.34	570.4
552.743	557.6
553.146	567
553.571	563.6
553.975	575.6
554.399	556.2
554.803	597.6
555.207	551.4
555.632	549.6
556.036	562.6
556.461	558.2
556.865	558
557.268	554.6
557.694	551.8
558.098	558
558.502	556.2
558.927	544.8
559.332	547.8
559.736	548.6
560.162	560.6
560.566	551.2
560.992	560.6
561.396	554.4
561.801	545.2
562.227	557
562.631	545.4
563.036	551.4
563.462	555.4
563.867	555.2
564.272	538.2
564.698	545.6
565.103	537.2
565.508	561.6
565.935	540
566.34	545.4
566.745	543.6
567.172	532.2
567.577	559.6
567.982	551.8
568.409	547.6
568.815	535.2
569.22	545
569.626	538
570.053	529
570.459	538.2
570.865	546
571.292	544.2
571.698	539.6
572.104	518.8
572.531	528
572.937	537
573.343	529.4
573.75	525.2
574.177	535.2
574.583	538
574.99	532.6
575.396	530
575.824	531
576.231	535
576.637	524.2
577.065	550.8
577.472	527.2
577.879	526
578.286	540.8
578.714	524.8
579.121	529.8
579.528	522.8
579.935	532.6
580.364	530.6
580.771	526.4
581.178	524.2
581.585	529.2
582.014	533.4
582.421	523.4
582.829	527.8
583.236	532
583.644	518
584.073	527.6
584.481	522.4
584.889	526
585.296	527.2
585.726	526
586.134	516.6
586.542	517
586.95	542.4
587.358	519.4
587.787	525.2
588.196	515
588.604	521.6
589.012	526
589.421	519.4
589.851	512.6
590.259	525.2
590.668	512
591.076	549.8
591.485	511
591.894	524
592.324	527.4
592.733	533.8
593.142	510
593.551	524.4
593.96	544.6
594.369	511.8
594.8	513
595.209	524.4
595.618	508.2
596.028	505
596.437	513.2
596.847	518.2
597.256	518.6
597.687	522
598.097	517.6
598.507	508.2
598.917	510.2
599.327	518.8
599.736	512.8
600.146	524.4
600.556	510
600.988	533
601.398	509.6
601.808	518.8
602.219	502.6
602.629	518.2
603.039	505.2
603.45	536.2
603.86	515.8
604.271	528.4
604.703	514.8
605.114	515.2
605.525	509
605.935	525.6
606.346	532.8
606.757	517.6
607.168	515.4
607.579	512.4
607.99	516
608.402	508
608.813	519.4
609.224	512
609.636	510
610.047	504.4
610.48	519
610.892	523.2
611.303	518.4
611.715	515.4
612.127	505.2
612.539	509.6
612.95	517.8
613.362	508
613.774	512.2
614.186	510.6
614.599	505.6
615.011	517.2
615.423	511.2
615.835	512.4
616.248	505.8
616.66	511.4
617.073	499.2
617.485	511.6
617.898	519
618.311	516.2
618.723	514.6
619.136	543.4
619.549	531.8
619.962	528.8
620.375	513
620.788	520.2
621.201	511
621.614	527.8
622.028	512.4
622.441	512.4
622.854	524
623.268	504.2
623.681	523.2
624.095	521.2
624.509	518.6
624.922	521.8
625.336	507.6
625.728	515.2
626.142	527.8
626.556	528
626.97	520
627.384	510.6
627.799	512
628.213	526.4
628.627	512.6
629.041	514.2
629.456	506.8
629.87	512.6
630.285	521.2
630.699	529.4
631.093	515
631.507	520
631.922	513.2
632.337	520.2
632.752	503
633.167	507
633.582	510.8
633.997	511.4
634.412	509.8
634.806	511.2
635.221	503.2
635.637	511.4
636.052	504.8
636.468	511.4
636.883	518.2
637.299	509.8
637.715	501
638.109	504.6
638.525	503
638.941	520.2
639.357	509.8
639.773	522.4
640.189	493.4
640.584	509.8
641	506.2
641.416	501.2
641.832	503.4
642.249	505.4
642.665	508
643.06	515.4
643.477	514.6
643.894	502.4
644.31	506.2
644.727	511.2
645.123	503.8
645.54	497.4
645.957	513.8
646.374	519.4
646.77	511.4
647.187	537.4
647.604	511
648.021	498.8
648.439	505.2
648.835	507
649.252	517.4
649.67	511
650.088	509.8
650.484	511.8
650.902	515
651.32	516.8
651.738	516
652.134	511.6
652.552	517
652.971	507.8
653.389	504.2
653.786	514
654.204	508.8
654.622	503.4
655.019	504.4
655.438	507.6
655.857	510
656.275	510.8
656.673	505.4
657.091	514
657.51	497.6
657.908	512
658.327	517.4
658.746	503.8
659.144	508.2
659.563	517.6
659.982	507.8
660.38	495.8
660.8	501.2
661.219	511.2
661.617	511.4
662.037	501
662.457	513
662.855	495
663.275	526.6
663.695	504
664.094	501.2
664.514	504.6
664.934	491.2
665.333	508.4
665.753	495.4
666.152	489.4
666.572	497.8
666.993	508
667.392	496.8
667.812	501
668.212	501.6
668.632	509.2
669.053	502.6
669.453	495.4
669.874	501.8
670.273	500.4
670.694	493.8
671.116	506
671.515	507.4
671.937	497.8
672.337	497
672.758	493
673.158	505.6
673.58	489.4
673.98	493.8
674.402	511.6
674.824	501.8
675.224	493.8
675.646	491.2
676.047	490.2
676.469	500.4
676.869	498
677.292	492.6
677.693	493
678.115	496.2
678.516	501.2
678.939	500.6
679.34	499.8
679.762	500
680.164	499.8
680.586	495.4
680.988	507.4
681.411	511.6
681.812	492.6
682.236	498
682.637	492.8
683.061	485.2
683.462	501.8
683.864	497.8
684.288	503
684.69	499.2
685.114	509.4
685.516	509.6
685.94	490.6
686.342	502.8
686.766	494.4
687.168	489.6
687.571	517
687.995	505.6
688.398	487.8
688.822	495.6
689.225	516.4
689.628	512.6
690.052	495
690.456	505.2
690.88	495.4
691.284	488.4
691.687	501.8
692.112	495.8
692.515	494.4
692.919	499.8
693.344	497.8
693.747	492.4
694.173	496.6
694.577	509.6
694.98	492.4
695.406	492
695.81	498.4
696.214	499.8
696.64	496
697.044	497.2
697.448	509.8
697.874	498.6
698.279	497.4
698.684	492.8
699.11	487.6
699.514	500.2
699.919	492.2
700.324	490.6
700.75	496.4
701.156	497
701.561	510.4
701.987	505.8
702.393	508.2
702.798	508.4
703.203	500.8
703.63	490.6
704.036	489.8
704.442	501.8
704.847	486.6
705.274	497.4
705.68	509.4
706.086	504.4
706.492	487.8
706.92	498.6
707.326	508.6
707.732	498.6
708.139	498.2
708.545	496.8
708.973	494.2
709.38	491.2
709.786	487
710.193	510.6
710.6	495.8
711.028	496.6
711.435	494.6
711.842	497.2
712.249	489.6
712.656	495.6
713.064	506.6
713.492	491.6
713.9	493.4
714.307	492
714.715	503.4
715.123	491.2
715.53	490.2
715.938	505
716.367	503
716.775	496.8
717.184	489.4
717.592	492.6
718	500
718.408	530.8
718.816	533.8
719.225	501.4
719.633	500.2
720.042	489.8
720.472	501.2
720.881	513.2
721.29	502
721.699	491.4
722.108	492.2
722.517	501.2
722.926	498.2
723.335	505.8
723.744	497.6
724.154	499
724.563	489.8
724.973	499.2
725.382	495.6
725.792	500.2
726.202	490.8
726.612	505.2
727.022	493.4
727.432	488.2
779.813	496.8
780.223	536.2
780.634	491
781.044	488
781.454	493.4
781.865	503.2
782.276	496.2
782.686	503.2
783.097	496.8
783.508	483.4
783.919	492.6
784.33	505.4
784.741	504.6
785.152	491.2
785.563	490.4
785.974	499.8
786.386	499.4
786.776	492.2
787.188	491.8
787.599	486.2
788.011	506.4
788.423	499
788.835	486
789.247	494.2
789.659	491.6
790.071	493.8
790.483	529.2
790.874	491.6
791.286	503
791.699	489
792.111	497.4
792.524	497.6
792.937	490.4
793.349	483
793.741	491
794.154	487.8
794.567	499.4
794.98	491
795.393	483.8
795.785	509.8
796.198	499
796.612	495.2
797.026	493.8
797.439	480.8
797.831	488.8
798.245	483.2
798.659	495.4
799.073	487.2
799.487	481.6
799.88	495
800.294	493
800.708	499.6
801.123	491
801.516	512.8
801.93	482.2
802.345	490.4
802.76	497
803.153	507.2
803.568	511.6
803.983	498.8
804.377	491.8
804.792	481.8
805.207	483.8
805.601	497
806.016	523.6
806.432	496.6
806.826	519
807.242	504.4
807.658	494
808.052	497
808.468	492.8
808.884	486.2
809.279	494.6
809.695	505.4
810.111	515.8
810.506	494.2
810.922	510
811.339	490.2
811.734	496
812.151	488.2
812.546	483.6
812.963	492.4
813.38	496.6
813.776	492.4
814.193	505.4
814.589	490.2
815.006	482.8
815.402	479.4
815.82	488.2
816.237	485.6
816.633	491
817.051	488.2
817.448	483.2
817.866	478.6
818.262	503.4
818.68	490
819.077	479.2
819.495	487.6
819.892	516
820.311	478.8
820.708	492.8
821.127	488.8
821.524	500.4
821.943	494.4
822.34	507.2
822.759	485.4
823.157	489.8
823.576	494.4
823.974	498.2
824.393	580.4
824.791	481.2
825.189	484.8
825.609	484.6
826.007	485.4
826.427	474.6
826.826	490.8
827.246	495
827.644	487
828.043	499.6
828.463	495.2
828.862	500
829.261	499.6
829.682	483.2
830.081	494.4
830.502	488
830.901	494.4
831.301	492.8
831.722	488.8
832.121	485.8
832.521	493.2
832.943	484.6
833.342	491.8
833.742	490.8
834.164	488.4
834.564	480.4
834.965	494.8
835.386	487.6
835.787	490
836.188	492.6
836.588	492
837.01	500.8
837.411	487.2
837.812	495
838.213	494.8
838.636	488.4
839.037	546.6
839.438	497.2
839.84	494.4
840.263	500.8
840.664	501.4
841.066	486.2
841.468	494.6
841.891	485
842.293	499.6
842.695	492.4
843.098	504.6
843.5	487.6
843.902	492
844.326	491.4
844.729	496
845.131	499.2
845.534	491.4
845.937	509.4
846.34	501
846.764	487.2
847.167	499.2
847.571	483.6
847.974	491.6
848.377	490
848.781	529.8
849.184	502.2
849.588	493.6
849.992	492.6
850.396	488.2
850.821	505.4
851.225	493.2
851.63	489
852.034	508.8
852.438	487
852.843	512
853.247	486.2
853.652	489
854.057	502.8
854.462	497
854.867	494.6
855.272	509.4
855.677	494.4
856.082	486.8
856.487	486
856.893	493
857.298	489.8
