#lambda/nm	C1
208.295	463.6
208.67	433.6
209.045	390.6
209.419	399.4
209.794	535.8
210.169	520
210.544	616
210.919	527.8
211.295	522.2
211.67	527.6
212.045	527.6
212.421	535
212.796	550.8
213.172	518.6
213.547	526.2
213.923	520.6
214.299	522.4
214.675	536.6
215.051	537.6
215.427	537.8
215.803	539.8
216.179	535.2
216.555	521.4
216.932	531
217.308	528.6
217.684	521.2
218.061	528.6
218.438	529.4
218.814	524
219.191	535.2
219.568	517.6
219.945	530
220.322	528.6
220.699	528
221.076	536.4
221.453	535.8
221.83	520
222.208	528.4
222.585	523.2
222.962	528.2
223.34	539
223.717	526.8
224.095	524.4
224.473	530
224.851	525
225.229	521.2
225.607	538.4
225.985	527.6
226.363	527
226.741	531
227.119	527.6
227.497	536.2
227.876	512.6
228.254	534.8
228.633	527.4
229.011	523.2
229.39	533.8
229.769	535.4
230.148	540.8
230.527	543.6
230.905	527
231.284	528.2
231.664	524.2
232.043	538.8
232.422	533.2
232.801	522.8
233.181	531.2
233.56	525
233.94	530.2
234.319	514.6
234.699	527.6
235.079	557.8
235.458	555
235.838	537.2
236.218	527.4
236.598	520.2
236.978	530.2
237.358	526.4
237.738	525.4
238.119	532.2
238.499	517.6
238.88	535.2
239.26	538
239.641	524.8
240.021	528
240.402	526
240.783	527
241.163	529.4
241.544	533.8
241.925	534
242.306	542
242.687	528.8
243.069	524.2
243.45	530.6
243.831	527.6
244.212	519.2
244.594	550.8
244.975	536.2
245.357	529.4
245.739	526.2
246.12	527
246.502	542.2
246.884	527.8
247.266	521.8
247.648	530
248.03	546
248.412	526.8
248.794	530.2
249.176	531.8
249.559	533
249.941	523.6
250.323	522.4
250.706	519
251.089	523.8
251.471	531.2
251.854	522
252.237	529.6
252.62	537.6
253.002	527.6
253.385	527.2
253.769	539
254.152	528.2
254.535	535.4
254.918	527.6
255.301	528.8
255.685	524
256.068	522.6
256.452	547
256.835	535.2
257.219	531.4
257.603	536.6
257.986	524
258.37	539
258.754	523.2
259.138	536.8
259.522	529.4
259.906	527.8
260.29	526.8
260.675	524.6
261.059	536.8
261.443	520.8
261.828	526.6
262.212	529
262.597	526.8
262.981	519.6
263.366	533.4
263.751	530.8
264.136	522
264.521	523.6
264.906	523.8
265.291	534.6
265.676	530.6
266.061	529.4
266.446	543.6
266.831	532
267.217	551.4
267.602	534.4
267.987	533.6
268.373	529.4
268.759	540.4
269.144	533.2
269.53	529.6
269.916	527.8
270.302	524.2
270.688	530.6
271.074	528.4
271.46	541.6
271.846	548.2
272.232	526
272.618	521.6
273.004	533.8
273.391	540.2
273.777	535.6
274.164	530
274.55	547.2
274.937	540
275.324	525
275.71	538.6
276.097	538.8
276.484	524.8
276.871	537
277.258	536
277.645	524
278.032	528
278.419	521.8
278.807	531.4
279.194	523.2
279.581	524.8
279.969	534.6
280.356	530.4
280.744	534.8
281.131	553.2
281.519	541.6
281.907	532.2
282.295	529.4
282.682	535.4
283.07	531.2
283.458	532.6
283.846	540.8
284.235	537.6
284.623	533.6
285.011	517.8
285.399	527
285.788	522.6
286.176	521.2
286.565	534
286.953	519.6
287.342	523.8
287.731	524.6
288.119	529
288.508	521.4
288.897	532.6
289.286	518.6
289.675	537.8
290.064	538.6
290.453	523.8
290.821	532.8
291.21	539
291.599	521.6
291.989	532.6
292.378	536.6
292.768	545.6
293.157	526.6
293.547	541.8
293.936	525
294.326	522.8
294.716	537
295.106	524.2
295.496	534.4
295.886	541.4
296.276	522
296.666	529.6
297.056	526.4
297.446	514.8
297.836	534.8
298.227	519
298.617	530.4
299.008	532.6
299.398	522.8
299.789	521.4
300.179	519.4
300.57	537.8
300.961	524.8
301.352	520
301.742	529.2
302.133	523.8
302.524	522
302.915	537.6
303.307	522.4
303.698	536.8
304.089	532.4
304.48	523.4
304.872	531.8
305.263	530.6
305.655	523.4
306.046	532
306.438	530.4
306.829	516.6
307.221	537.2
307.613	526.4
308.005	538.6
308.397	533.6
308.789	545.6
309.181	547.4
309.573	543
309.965	540.6
310.357	519.2
310.749	543.6
311.142	519.8
311.534	530.8
311.926	527.8
312.319	528.2
312.711	531.2
313.104	539.6
313.497	532.8
313.889	565.2
314.282	543.2
314.675	544
315.068	533.6
315.461	533.6
315.854	548.8
316.247	530.4
316.64	522.8
317.033	525.2
317.405	527
317.798	529.2
318.192	526.8
318.585	516.2
318.979	522.8
319.372	525.4
319.766	530
320.16	533.4
320.553	535.2
320.947	536.8
321.341	523.6
321.735	522.6
322.129	520.2
322.523	547.8
322.917	519.6
323.311	537.4
323.705	532.2
324.099	532.2
324.494	538
324.888	536.4
325.282	525.4
325.677	534.4
326.071	537.4
326.466	533
326.861	536.4
327.255	533.2
327.65	536.8
328.045	539.2
328.44	531.2
328.835	530.8
329.23	531.6
329.625	547
330.02	526.2
330.415	538.6
330.81	528.6
331.206	525.6
331.601	525
331.996	529.8
332.37	542.8
332.766	521.4
333.161	546
333.557	524.6
333.953	534.2
334.348	805.8
334.744	528.4
335.14	524
335.536	522.4
335.932	543.2
336.328	522.4
336.724	537.6
337.12	523
337.516	525.4
337.913	530
338.309	525.6
338.705	528
339.102	537.6
339.498	522.4
339.895	544.6
340.291	524.2
340.688	536
341.085	515.2
341.481	518.6
341.878	526.4
342.275	541.8
342.672	516.4
343.069	518.8
343.466	519.2
343.842	531.6
344.239	521.4
344.636	527.4
345.033	522.2
345.431	525.2
345.828	525.8
346.225	520.4
346.623	558.2
347.02	521.6
347.418	540.2
347.816	537
348.213	520.8
348.611	535.6
349.009	526.4
349.407	534
349.805	517.4
350.203	510.6
350.601	529.8
350.999	521.8
351.397	551.4
351.795	528.8
352.193	527.8
352.57	524.8
352.969	530.4
353.367	519.2
353.766	520.6
354.164	533.2
354.563	524
354.961	517.6
355.36	517
355.759	526.2
356.158	521.4
356.557	520.6
356.956	518.6
357.355	515.4
357.754	525
358.153	528.6
358.552	544
358.951	524.8
359.35	541.4
359.75	523.4
360.149	516.2
360.527	515.2
360.926	512.6
361.326	522.2
361.726	524
362.125	520
362.525	527.2
362.925	518.6
363.325	523
363.724	528.2
364.124	518.6
364.524	517.2
364.924	526.4
365.324	527.8
365.725	517.4
366.125	533.4
366.525	525.6
366.904	516.8
367.304	512.4
367.705	530.4
368.105	537.8
368.506	526.4
368.906	522
369.307	520.4
369.708	534.8
370.108	516.2
370.509	530.8
370.91	517.2
371.311	527.4
371.712	527.8
372.113	525.6
372.514	505.4
372.894	520.6
373.295	517.8
373.696	534
374.097	528.8
374.499	549.4
374.9	521.8
375.301	516.2
375.703	524.8
376.105	507.2
376.506	519.4
376.908	523.6
377.309	524
377.711	527
378.113	525.4
378.493	521.2
378.895	521.2
379.297	533.6
379.699	506.8
380.102	521
380.504	520
380.906	518.8
381.308	543.2
381.71	517.6
382.113	528
382.515	519.4
382.918	521.2
383.299	516.4
383.701	526.2
384.104	523
384.507	507
384.909	523
385.312	503.2
385.715	515.6
386.118	525.4
386.521	507.4
386.924	525
387.327	516.8
387.709	513.8
388.112	506.8
388.515	521.8
388.918	519.6
389.322	521.6
389.725	516.6
390.129	534.2
390.532	527.4
390.936	522
391.339	516.2
391.743	520
392.125	514
392.529	527.6
392.933	533
393.337	517
393.74	516
394.144	520.6
394.548	517.6
394.953	520
395.357	522
395.761	520.2
396.144	522.8
396.548	521.4
396.952	517
397.357	524.2
397.761	517.4
398.166	510.4
398.57	521.4
398.975	511.8
399.379	519
399.763	558.8
400.168	517.2
400.572	516
400.977	508.8
401.382	526
401.787	524.4
402.192	529
402.597	526.6
403.002	504.6
403.386	526.6
403.791	530.6
404.197	514.4
404.602	520.2
405.007	523.8
405.413	515.2
405.818	521.8
406.224	518.2
406.608	511.6
407.014	511
407.42	528.2
407.825	520.8
408.231	526.8
408.637	522
409.043	528.6
409.449	513
409.834	515
410.24	513.4
410.646	531.8
411.052	528.2
411.458	520
411.865	530.2
412.271	528.4
412.677	520.2
413.062	524.8
413.469	514.6
413.875	539.4
414.282	536.2
414.689	522
415.095	532
415.502	515.4
415.888	520.2
416.294	512.6
416.701	556.2
417.108	515.8
417.515	527.2
417.923	518
418.33	540.2
418.715	525.6
419.123	517.6
419.53	517.4
419.937	524
420.345	527
420.752	522.8
421.16	529.4
421.546	518.6
421.953	528.6
422.361	511.4
422.769	522
423.177	517.6
423.585	545.2
423.992	538.4
424.379	532.8
424.787	523
425.195	541.2
425.603	527.8
426.011	530.4
426.419	534.6
426.806	520.4
427.214	525
427.623	535.4
428.031	549.8
428.44	527
428.848	537.4
429.235	549.6
429.644	539.4
430.053	552
430.461	565.4
430.87	586
431.279	588
431.666	581.6
432.075	596.8
432.484	619.2
432.893	627.8
433.302	650
433.711	679.2
434.099	677.6
434.508	687.6
434.918	700.6
435.327	740
435.737	756.2
436.125	779.6
436.534	796
436.944	823.2
437.353	847.6
437.763	881.6
438.173	894
438.561	922
438.971	923.6
439.381	950.6
439.791	979
440.201	971.4
440.589	1013
440.999	1030
441.409	1056.4
441.819	1046.6
442.23	1082.4
442.619	1104.2
443.029	1105.4
443.439	1112.6
443.85	1133.8
444.26	1135
444.649	1156.6
445.06	1161.6
445.471	1169.6
445.881	1173.6
446.292	1207.4
446.682	1205.8
447.092	1213.2
447.503	1264.4
447.914	1213.6
448.325	1234.2
448.715	1243.4
449.126	1228.4
449.537	1239
449.948	1260.4
450.338	1273.6
450.75	1290.2
451.161	1281.2
451.572	1291.8
451.984	1280.4
452.374	1283.2
452.786	1293
453.197	1296.8
453.609	1302
453.999	1293.4
454.411	1287.6
454.823	1316
455.235	1312.8
455.647	1304.8
456.037	1321.8
456.449	1300.2
456.862	1310.4
457.274	1330.2
457.665	1316
458.077	1325.4
458.489	1346.8
458.902	1342.6
459.293	1320.2
459.705	1321.2
460.118	1305
460.53	1321
460.921	1324.2
461.334	1332.6
461.747	1341
462.16	1356.6
462.551	1333.6
462.964	1331.8
463.377	1309.8
463.79	1320.6
464.182	1334.8
464.595	1321.6
465.008	1338.4
465.421	1344.6
465.813	1330
466.226	1331.8
466.64	1323.2
467.053	1362.4
467.445	1346.8
467.859	1344.6
468.272	1338.6
468.686	1356.4
469.078	1343
469.492	1323.6
469.906	1351.8
470.298	1349.4
470.712	1320.2
471.126	1359
471.54	1328
471.933	1338.2
472.347	1325.4
472.761	1325
473.175	1309.4
473.568	1330
473.982	1302
474.397	1312.4
474.79	1306.8
475.204	1306.6
475.619	1314
476.033	1299.4
476.426	1283.6
476.841	1278.2
477.256	1306.2
477.649	1272
478.064	1259.8
478.479	1276.8
478.872	1262.2
479.287	1255.8
479.702	1274.8
480.118	1269.6
480.511	1249
480.927	1250.4
481.342	1248.2
481.736	1240.4
482.151	1245.2
482.566	1262.6
482.96	1236.4
483.376	1247.2
483.792	1227.4
484.186	1227.8
484.602	1210.8
485.017	1226.4
485.412	1203.2
485.827	1206.2
486.243	1196.6
486.638	1210.8
487.054	1193.4
487.47	1197.6
487.865	1185.8
488.281	1176.2
488.697	1170.8
489.092	1167.2
489.508	1170.4
489.925	1169.8
490.32	1143.6
490.736	1153.2
491.153	1137.2
491.548	1138.4
491.964	1146.6
492.381	1122.2
492.776	1135.4
493.193	1115.8
493.61	1113.8
494.006	1109
494.422	1110.2
494.84	1090.2
495.235	1107.2
495.652	1088.6
496.069	1097
496.465	1055.2
496.883	1076
497.3	1083
497.696	1060.2
498.113	1056.6
498.509	1038.4
498.927	1048.8
499.344	1042.6
499.741	1027.4
500.158	1038.8
500.576	1038
500.973	1015.8
501.39	1012.2
501.787	1014.8
502.205	1014.6
502.623	1008
503.02	997.8
503.438	985.4
503.856	991.6
504.253	996.2
504.671	986.4
505.068	971.8
505.486	970.2
505.905	985.4
506.302	976.6
506.72	972.8
507.118	945.2
507.536	940.2
507.955	940
508.352	949.4
508.771	942.8
509.169	935.2
509.587	925.8
510.006	919.4
510.404	920.6
510.823	913
511.221	916.8
511.64	893.4
512.038	907.8
512.457	893.6
512.877	885.2
513.275	873
513.694	885.8
514.092	871
514.512	887
514.91	879
515.33	870.8
515.749	866.8
516.148	873.6
516.568	856
516.966	846.6
517.386	852.2
517.785	844.8
518.205	830.2
518.603	836.4
519.024	834.6
519.444	830.4
519.843	839
520.263	845.2
520.662	817.2
521.082	817.6
521.481	817
521.902	820
522.301	812.8
522.722	806.4
523.121	800.2
523.542	800.8
523.963	786.8
524.362	793.6
524.783	791.6
525.183	782.6
525.604	782
526.003	771.2
526.425	768.2
526.824	777
527.246	769.2
527.646	778.2
528.067	769.4
528.467	758.2
528.888	764.4
529.289	748.6
529.71	749
530.11	740
530.532	736.4
530.932	747.8
531.354	741.8
531.755	762.6
532.176	753.4
532.577	735.8
532.999	731
533.4	718.2
533.822	743
534.223	732.8
534.645	717
535.046	719
535.468	718
535.869	715.8
536.292	710.6
536.693	734
537.115	718
537.516	709.4
537.939	703.4
538.34	713.4
538.742	714.4
539.165	700.6
539.566	708.2
539.989	681.4
540.391	685.2
540.814	691.6
541.216	693.2
541.639	683.8
542.041	697.2
542.464	678.4
542.866	682.2
543.268	678
543.691	679.2
544.093	677
544.517	696.8
544.919	663.2
545.343	693
545.745	668.2
546.147	669.6
546.571	655.8
546.974	647
547.398	661.6
547.8	671.4
548.224	664.6
548.627	651
549.03	664.8
549.454	649.8
549.857	645.8
550.281	639.8
550.684	649.2
551.087	656
551.512	647.8
551.915	645.2
552.34	641.8
552.743	633.6
553.146	635.2
553.571	640
553.975	653.4
554.399	628.4
554.803	669
555.207	631.2
555.632	630.2
556.036	629.8
556.461	615.2
556.865	621.8
557.268	613.8
557.694	618.4
558.098	622.2
558.502	627.8
558.927	617.4
559.332	617.4
559.736	617.6
560.162	618.2
560.566	608.8
560.992	618.6
561.396	610.8
561.801	591.4
562.227	605
562.631	604.4
563.036	600.8
563.462	611.6
563.867	596.2
564.272	583.6
564.698	600
565.103	586.2
565.508	610.6
565.935	591.4
566.34	593.6
566.745	596.2
567.172	583.6
567.577	613
567.982	597.2
568.409	594.4
568.815	586
569.22	590
569.626	592.2
570.053	572.6
570.459	588.6
570.865	582
571.292	589
571.698	580.8
572.104	572.2
572.531	578
572.937	590
573.343	587.6
573.75	575.2
574.177	578.4
574.583	573.8
574.99	576
575.396	578.8
575.824	572
576.231	576.4
576.637	571.6
577.065	586.2
577.472	566
577.879	572.4
578.286	579
578.714	558.2
579.121	567.4
579.528	567.8
579.935	571.6
580.364	553.6
580.771	544.4
581.178	555.2
581.585	565.6
582.014	560.6
582.421	561.4
582.829	556.4
583.236	568.2
583.644	554.8
584.073	557.4
584.481	555.4
584.889	555.8
585.296	567.4
585.726	556
586.134	549.6
586.542	552
586.95	570.4
587.358	547.4
587.787	552.6
588.196	545
588.604	550.8
589.012	554.2
589.421	532
589.851	539.8
590.259	543
590.668	543.4
591.076	566.8
591.485	545
591.894	551.8
592.324	552.2
592.733	553
593.142	525.2
593.551	531.8
593.96	534.6
594.369	520.8
594.8	534.8
595.209	538.8
595.618	526.2
596.028	524.8
596.437	516
596.847	532.8
597.256	536
597.687	538.6
598.097	526
598.507	523.8
598.917	532.6
599.327	534.2
599.736	533.4
600.146	533.8
600.556	529.2
600.988	542.2
601.398	528.8
601.808	536.4
602.219	520
602.629	527.8
603.039	524.4
603.45	546.6
603.86	529.2
604.271	533.6
604.703	529.2
605.114	528.8
605.525	521.4
605.935	531.6
606.346	544.4
606.757	526.8
607.168	530
607.579	516
607.99	533
608.402	521.8
608.813	535.2
609.224	524.2
609.636	516
610.047	518.2
610.48	519.4
610.892	529.8
611.303	531.6
611.715	530.2
612.127	526.2
612.539	528
612.95	524.4
613.362	514.6
613.774	516.8
614.186	522
614.599	522.8
615.011	531.8
615.423	526
615.835	512.2
616.248	518
616.66	523.8
617.073	517.6
617.485	524.4
617.898	522.4
618.311	527
618.723	516
619.136	547
619.549	529.2
619.962	537.8
620.375	516.8
620.788	522.6
621.201	525.6
621.614	528.6
622.028	523.6
622.441	533.4
622.854	526.2
623.268	517.8
623.681	525.8
624.095	527.4
624.509	532.4
624.922	517.6
625.336	505.8
625.728	519.4
626.142	528.6
626.556	541.8
626.97	525.8
627.384	517
627.799	518.8
628.213	538.8
628.627	513.2
629.041	521.4
629.456	513
629.87	519.2
630.285	528
630.699	532.4
631.093	521.2
631.507	517.8
631.922	524.6
632.337	526.2
632.752	515.4
633.167	526.8
633.582	517
633.997	515.4
634.412	511.2
634.806	523
635.221	508.8
635.637	518.4
636.052	512
636.468	522.4
636.883	531.2
637.299	515.8
637.715	505
638.109	514.4
638.525	504.8
638.941	520.6
639.357	513.6
639.773	531
640.189	509.6
640.584	514.4
641	513.4
641.416	499.8
641.832	511.6
642.249	510.8
642.665	501
643.06	516.6
643.477	522
643.894	513.4
644.31	508.4
644.727	510.8
645.123	512
645.54	509.4
645.957	515.6
646.374	523.8
646.77	513.2
647.187	534.8
647.604	509.8
648.021	497
648.439	500.8
648.835	524
649.252	509
649.67	506.6
650.088	507.6
650.484	517
650.902	517
651.32	516.4
651.738	513.6
652.134	515.2
652.552	523
652.971	511.2
653.389	504.2
653.786	517.8
654.204	515
654.622	500.6
655.019	510.4
655.438	510.4
655.857	513
656.275	512.2
656.673	510.8
657.091	515
657.51	504.2
657.908	515.4
658.327	523
658.746	500.8
659.144	509.2
659.563	520.6
659.982	500
660.38	497
660.8	500.8
661.219	510.6
661.617	505.6
662.037	502.6
662.457	513.4
662.855	488.8
663.275	531
663.695	509.8
664.094	506
664.514	511.6
664.934	498.6
665.333	507.2
665.753	504
666.152	497.6
666.572	497
666.993	517.6
667.392	503.8
667.812	505.2
668.212	495
668.632	515.6
669.053	501.2
669.453	516.8
669.874	502.8
670.273	509.2
670.694	497.4
671.116	516.8
671.515	509.6
671.937	505
672.337	498.8
672.758	496.6
673.158	502.8
673.58	498
673.98	504
674.402	510.6
674.824	500.4
675.224	499.8
675.646	494.2
676.047	505.6
676.469	508.4
676.869	512
677.292	495.4
677.693	507
678.115	503
678.516	507.2
678.939	507.8
679.34	506.6
679.762	514.6
680.164	510.2
680.586	496.4
680.988	495.2
681.411	526.2
681.812	503.8
682.236	490
682.637	496
683.061	494.4
683.462	498.8
683.864	497.2
684.288	509.4
684.69	492.4
685.114	515.8
685.516	511.2
685.94	494
686.342	509.2
686.766	493.6
687.168	492.8
687.571	512
687.995	499.2
688.398	483.4
688.822	493.2
689.225	508.4
689.628	503.8
690.052	498.6
690.456	505.6
690.88	495.4
691.284	479.6
691.687	503.8
692.112	490.2
692.515	491.4
692.919	489.2
693.344	502
693.747	497.6
694.173	493
694.577	503.8
694.98	501.2
695.406	494.6
695.81	497.4
696.214	504.8
696.64	500.6
697.044	494.2
697.448	503.4
697.874	499.4
698.279	500
698.684	492.6
699.11	494.6
699.514	496.8
699.919	495.4
700.324	498.8
700.75	499.6
701.156	498.2
701.561	501.8
701.987	503.2
702.393	499.4
702.798	506.4
703.203	506.4
703.63	494.4
704.036	500.4
704.442	498.6
704.847	493.2
705.274	499.6
705.68	501.6
706.086	505.6
706.492	493.4
706.92	502
707.326	503.2
707.732	490.2
708.139	492.8
708.545	486.2
708.973	491
709.38	491.6
709.786	483.2
710.193	510.4
710.6	501.4
711.028	490.4
711.435	495
711.842	500.8
712.249	496.2
712.656	490
713.064	500.6
713.492	486.8
713.9	488.8
714.307	501
714.715	491.6
715.123	498.2
715.53	494.2
715.938	497.6
716.367	501.4
716.775	495
717.184	490.4
717.592	489.4
718	504.6
718.408	523.4
718.816	540
719.225	499.6
719.633	495
720.042	485.6
720.472	495.6
720.881	518
721.29	493.8
721.699	496.6
722.108	500.6
722.517	501.4
722.926	503
723.335	511
723.744	496
724.154	496.8
724.563	499.8
724.973	500.8
725.382	495.6
725.792	493
726.202	489.8
726.612	510.2
727.022	496.2
727.432	489.2
779.813	493
780.223	535.2
780.634	499.2
781.044	489.2
781.454	499.2
781.865	502.8
782.276	494.2
782.686	504.2
783.097	496.2
783.508	495.2
783.919	498.8
784.33	511.2
784.741	508.2
785.152	490.2
785.563	486.6
785.974	483
786.386	497.6
786.776	492.4
787.188	496
787.599	492
788.011	502.4
788.423	491.2
788.835	498.8
789.247	486
789.659	495.8
790.071	490.8
790.483	529.4
790.874	493.2
791.286	505.2
791.699	486.8
792.111	501
792.524	499.6
792.937	498.2
793.349	487.2
793.741	491.6
794.154	490
794.567	504.6
794.98	496.6
795.393	488.6
795.785	513.2
796.198	496.2
796.612	499.6
797.026	488
797.439	482
797.831	486.4
798.245	485.6
798.659	487.6
799.073	486.4
799.487	491
799.88	492.6
800.294	498.4
800.708	498.2
801.123	489
801.516	501.4
801.93	490.4
802.345	483.2
802.76	492.6
803.153	501.4
803.568	503.2
803.983	498.2
804.377	503.4
804.792	484.6
805.207	478.2
805.601	493.2
806.016	519.4
806.432	479
806.826	509.8
807.242	500.6
807.658	492.6
808.052	488.6
808.468	491.8
808.884	483.4
809.279	492.2
809.695	501.2
810.111	508.8
810.506	497.4
810.922	510.6
811.339	490
811.734	498
812.151	492
812.546	481.4
812.963	488.4
813.38	495.4
813.776	490.8
814.193	519.4
814.589	486.8
815.006	493.6
815.402	488.2
815.82	485.6
816.237	493.2
816.633	496.8
817.051	488.6
817.448	499.2
817.866	488.2
818.262	505.8
818.68	483.6
819.077	489
819.495	484.6
819.892	529.4
820.311	491.8
820.708	497.6
821.127	490.8
821.524	502.2
821.943	489.4
822.34	505.2
822.759	498.4
823.157	497.8
823.576	506.8
823.974	503.4
824.393	550.8
824.791	498
825.189	486
825.609	499.8
826.007	498.4
826.427	493.8
826.826	494.2
827.246	492
827.644	479.4
828.043	497.2
828.463	488.6
828.862	497.2
829.261	501.8
829.682	488.8
830.081	507.2
830.502	485.6
830.901	496.6
831.301	487.2
831.722	483.6
832.121	501.2
832.521	496.8
832.943	496.8
833.342	492.6
833.742	488.6
834.164	485
834.564	481.4
834.965	491.6
835.386	484.8
835.787	492
836.188	485.2
836.588	486.8
837.01	477
837.411	483
837.812	498.8
838.213	490.6
838.636	485.2
839.037	541
839.438	492.2
839.84	487
840.263	491.2
840.664	501.4
841.066	488.6
841.468	491.6
841.891	486.6
842.293	486.6
842.695	494
843.098	492
843.5	495.2
843.902	493.2
844.326	493.6
844.729	501.8
845.131	501.4
845.534	492.6
845.937	506
846.34	502.8
846.764	491.8
847.167	491.8
847.571	490.4
847.974	500
848.377	492.4
848.781	530
849.184	507.8
849.588	481.2
849.992	493
850.396	488.8
850.821	502.6
851.225	489.8
851.63	492.4
852.034	506
852.438	496.6
