#lambda/nm	C1
208.295	466
208.67	431.2
209.045	398
209.419	394.2
209.794	530.8
210.169	512.2
210.544	617
210.919	528.2
211.295	522.8
211.67	533.2
212.045	522
212.421	528.2
212.796	553.6
213.172	527
213.547	521.6
213.923	524.6
214.299	521.6
214.675	531.8
215.051	535.8
215.427	533.6
215.803	545.4
216.179	535.4
216.555	527.6
216.932	535.6
217.308	534.6
217.684	534.2
218.061	539.6
218.438	531.2
218.814	519.8
219.191	532.4
219.568	526.8
219.945	531.2
220.322	537.6
220.699	533.6
221.076	526.2
221.453	528.6
221.83	529
222.208	526
222.585	525.4
222.962	534.8
223.34	527
223.717	531.6
224.095	529
224.473	529
224.851	525.2
225.229	515.2
225.607	538.6
225.985	524.2
226.363	530.8
226.741	535.6
227.119	529.6
227.497	542
227.876	515.8
228.254	536.8
228.633	529.6
229.011	523.4
229.39	536.4
229.769	526
230.148	532.2
230.527	545.4
230.905	524.8
231.284	533.4
231.664	518.6
232.043	531.2
232.422	532.2
232.801	522.4
233.181	539.6
233.56	524
233.94	527
234.319	516.8
234.699	515.8
235.079	556
235.458	554
235.838	537.4
236.218	523.8
236.598	517.8
236.978	517.2
237.358	524
237.738	515.8
238.119	534.6
238.499	522.2
238.88	524.8
239.26	538.6
239.641	517.8
240.021	529.4
240.402	532.8
240.783	524.4
241.163	526.4
241.544	530
241.925	531.4
242.306	539.6
242.687	523.8
243.069	529.4
243.45	533.6
243.831	520.8
244.212	526.2
244.594	560.8
244.975	529.4
245.357	537.2
245.739	523.4
246.12	528.4
246.502	541.6
246.884	525
247.266	531.2
247.648	526.8
248.03	541.6
248.412	531.2
248.794	534
249.176	528.4
249.559	539.8
249.941	524.2
250.323	513.6
250.706	524.4
251.089	523
251.471	533
251.854	531.4
252.237	530.4
252.62	533.4
253.002	517
253.385	526.8
253.769	543
254.152	522
254.535	532.2
254.918	519.6
255.301	526.2
255.685	522.4
256.068	519.2
256.452	547.6
256.835	534
257.219	533.2
257.603	538.4
257.986	524.8
258.37	536.4
258.754	519.8
259.138	530.6
259.522	536
259.906	523.2
260.29	528.4
260.675	528
261.059	531.8
261.443	520.6
261.828	535
262.212	527.4
262.597	519
262.981	523
263.366	527.4
263.751	529.8
264.136	523.2
264.521	525.2
264.906	526.2
265.291	537.6
265.676	527.2
266.061	537
266.446	544.6
266.831	525.6
267.217	543.6
267.602	527.6
267.987	535
268.373	525.4
268.759	544.4
269.144	538.2
269.53	528.6
269.916	525
270.302	531
270.688	541.8
271.074	540
271.46	543.4
271.846	554.2
272.232	529.2
272.618	526.2
273.004	534
273.391	533
273.777	536
274.164	533.6
274.55	539
274.937	535.2
275.324	526.4
275.71	536.2
276.097	537.2
276.484	518.4
276.871	532.2
277.258	528.8
277.645	517.2
278.032	525.2
278.419	528.6
278.807	530.2
279.194	526.6
279.581	520.2
279.969	533.8
280.356	530.2
280.744	528
281.131	553.8
281.519	538.8
281.907	524.4
282.295	524.4
282.682	534.6
283.07	534.4
283.458	529.4
283.846	534.4
284.235	535.6
284.623	536.4
285.011	527.8
285.399	538.2
285.788	526.4
286.176	519.4
286.565	535.2
286.953	529.2
287.342	523.6
287.731	524
288.119	517.2
288.508	531
288.897	532
289.286	518.4
289.675	524.6
290.064	539.4
290.453	531
290.821	524
291.21	542
291.599	522.6
291.989	526.6
292.378	527.8
292.768	546
293.157	531.6
293.547	534
293.936	533.4
294.326	532
294.716	535.8
295.106	522
295.496	540.6
295.886	536
296.276	530.6
296.666	522.8
297.056	531.8
297.446	522.8
297.836	542.2
298.227	523.2
298.617	526
299.008	534
299.398	529
299.789	525.4
300.179	526.4
300.57	537
300.961	534.4
301.352	528.2
301.742	530.8
302.133	533.8
302.524	521
302.915	534.2
303.307	527.2
303.698	540.8
304.089	534.4
304.48	522
304.872	530.4
305.263	524.4
305.655	519.8
306.046	533.6
306.438	528.8
306.829	519
307.221	526.6
307.613	530.8
308.005	535
308.397	532.2
308.789	540.2
309.181	545.6
309.573	538.8
309.965	533
310.357	525.6
310.749	541.2
311.142	524.8
311.534	530.4
311.926	533.2
312.319	528.4
312.711	532
313.104	529.2
313.497	521.8
313.889	559.4
314.282	545.4
314.675	544.2
315.068	529.8
315.461	529.6
315.854	553.8
316.247	540.4
316.64	530.4
317.033	535.6
317.405	535
317.798	526.4
318.192	535.4
318.585	520.2
318.979	536.8
319.372	526.2
319.766	524.4
320.16	537.2
320.553	544.4
320.947	546.8
321.341	527.6
321.735	524
322.129	520.4
322.523	548.8
322.917	520.8
323.311	529.4
323.705	536.8
324.099	532.4
324.494	539.8
324.888	535.4
325.282	528.2
325.677	536
326.071	540.2
326.466	535.8
326.861	529.4
327.255	536
327.65	542
328.045	542
328.44	523.8
328.835	526
329.23	518.6
329.625	544.2
330.02	526
330.415	545
330.81	527.2
331.206	524.6
331.601	527
331.996	529.6
332.37	545.6
332.766	521.4
333.161	547.8
333.557	525.6
333.953	519.2
334.348	813.8
334.744	529.6
335.14	517.8
335.536	524.4
335.932	541
336.328	530.4
336.724	539
337.12	526
337.516	525.4
337.913	527.6
338.309	536.4
338.705	524.6
339.102	533.2
339.498	516.2
339.895	541.8
340.291	525.2
340.688	537.4
341.085	519.6
341.481	526
341.878	532
342.275	543.4
342.672	530.4
343.069	513.4
343.466	515.6
343.842	540.8
344.239	511.4
344.636	523
345.033	518
345.431	514.2
345.828	525.4
346.225	519.8
346.623	548.2
347.02	523.8
347.418	527.2
347.816	531
348.213	517.8
348.611	535.2
349.009	518.8
349.407	541.2
349.805	517
350.203	514.6
350.601	534
350.999	520
351.397	556.2
351.795	525
352.193	533.8
352.57	527.8
352.969	533.8
353.367	506.4
353.766	512.4
354.164	521.4
354.563	538.4
354.961	524.6
355.36	524
355.759	520.8
356.158	511.6
356.557	511.8
356.956	516.6
357.355	520.4
357.754	524.2
358.153	528
358.552	547.2
358.951	531.2
359.35	530.2
359.75	517
360.149	511.4
360.527	514.4
360.926	515.8
361.326	522
361.726	526.6
362.125	524
362.525	530
362.925	527.8
363.325	519.4
363.724	529.2
364.124	520.6
364.524	518.2
364.924	520.8
365.324	528
365.725	514.4
366.125	531.4
366.525	522.2
366.904	519.8
367.304	510
367.705	542.8
368.105	532.4
368.506	531.8
368.906	524.6
369.307	524.2
369.708	522.6
370.108	510.8
370.509	528.6
370.91	516.4
371.311	519.8
371.712	526.6
372.113	518.8
372.514	516.4
372.894	515.6
373.295	514.8
373.696	533.4
374.097	525.2
374.499	550
374.9	527.4
375.301	520.8
375.703	519
376.105	512.2
376.506	524.2
376.908	522.2
377.309	527.4
377.711	516.8
378.113	526.8
378.493	521.2
378.895	513.6
379.297	527.8
379.699	514.8
380.102	528.2
380.504	527.8
380.906	519.6
381.308	540
381.71	523.4
382.113	523.8
382.515	512.4
382.918	520
383.299	514
383.701	532.6
384.104	517
384.507	507
384.909	521.4
385.312	516.6
385.715	513.4
386.118	515
386.521	506
386.924	524.4
387.327	513
387.709	508.4
388.112	508.8
388.515	515.8
388.918	514.8
389.322	521.6
389.725	517.2
390.129	538.8
390.532	528.8
390.936	514
391.339	517.4
391.743	516.6
392.125	518
392.529	523
392.933	533.8
393.337	519.4
393.74	520.8
394.144	523.2
394.548	526.2
394.953	522.2
395.357	531.6
395.761	519.6
396.144	524.2
396.548	525.4
396.952	515.8
397.357	524.2
397.761	514.8
398.166	518.8
398.57	527.6
398.975	507.2
399.379	525
399.763	562.4
400.168	514.6
400.572	522.4
400.977	521
401.382	538.6
401.787	534.2
402.192	535.4
402.597	531
403.002	512
403.386	528.8
403.791	528.8
404.197	507
404.602	518.6
405.007	512.8
405.413	519.2
405.818	512.8
406.224	513.2
406.608	513.6
407.014	513
407.42	530.8
407.825	515.6
408.231	526.8
408.637	527
409.043	526.6
409.449	513.6
409.834	517
410.24	526
410.646	527.8
411.052	525.4
411.458	522.6
411.865	528.6
412.271	535
412.677	523
413.062	519
413.469	513
413.875	545.8
414.282	537.4
414.689	522.8
415.095	525.8
415.502	521.8
415.888	528.2
416.294	502.8
416.701	561
417.108	513.4
417.515	525.8
417.923	520.8
418.33	528.2
418.715	528.6
419.123	518
419.53	515.6
419.937	522.8
420.345	530.8
420.752	514.8
421.16	532
421.546	522
421.953	520.6
422.361	518.8
422.769	518.8
423.177	519.8
423.585	548.2
423.992	538
424.379	536
424.787	528.2
425.195	534.2
425.603	511.2
426.011	529.2
426.419	530.2
426.806	517.2
427.214	524.6
427.623	530.4
428.031	528.8
428.44	518.8
428.848	533.4
429.235	532.6
429.644	521.2
430.053	526
430.461	529.2
430.87	542
431.279	530.2
431.666	519.8
432.075	520.6
432.484	527.6
432.893	516
433.302	535
433.711	556.8
434.099	523.4
434.508	520.8
434.918	527.8
435.327	538.8
435.737	537.6
436.125	538
436.534	545.8
436.944	549.2
437.353	547
437.763	569
438.173	552.4
438.561	575.2
438.971	552.6
439.381	569.2
439.791	581.6
440.201	568.8
440.589	588.2
440.999	599.4
441.409	597.8
441.819	586.4
442.23	612
442.619	615.2
443.029	615.2
443.439	631.8
443.85	643
444.26	648.8
444.649	642
445.06	642.8
445.471	645.6
445.881	653.2
446.292	678
446.682	676.2
447.092	660.6
447.503	705.4
447.914	668.6
448.325	688.4
448.715	681
449.126	678.2
449.537	677
449.948	684.2
450.338	697.8
450.75	699.4
451.161	711.2
451.572	705
451.984	702.2
452.374	694.6
452.786	705.4
453.197	722.6
453.609	715.8
453.999	705.8
454.411	707.4
454.823	732
455.235	718
455.647	718.4
456.037	720.4
456.449	715.4
456.862	721
457.274	736.8
457.665	727.2
458.077	736.6
458.489	757.4
458.902	735.6
459.293	740
459.705	732
460.118	739.6
460.53	753.2
460.921	742.6
461.334	748.6
461.747	741.6
462.16	762
462.551	760.8
462.964	766
463.377	754.6
463.79	758.8
464.182	780.2
464.595	758
465.008	770
465.421	787
465.813	778.2
466.226	773.2
466.64	779.4
467.053	810.8
467.445	784.2
467.859	804
468.272	784
468.686	800.4
469.078	787.2
469.492	780.6
469.906	782
470.298	800
470.712	797
471.126	825.2
471.54	788.2
471.933	793.2
472.347	800.6
472.761	799.4
473.175	794.4
473.568	796.6
473.982	794.6
474.397	805.6
474.79	807.2
475.204	810.2
475.619	791.4
476.033	803.4
476.426	794
476.841	808.2
477.256	819.4
477.649	795.4
478.064	791.8
478.479	791.2
478.872	795.8
479.287	790.2
479.702	797.2
480.118	799.2
480.511	788.6
480.927	795.2
481.342	790.2
481.736	798
482.151	803.2
482.566	799.6
482.96	787.6
483.376	800.2
483.792	781
484.186	796.2
484.602	777.8
485.017	798
485.412	793.6
485.827	795.4
486.243	788.4
486.638	806.6
487.054	791.4
487.47	800.2
487.865	788
488.281	785.8
488.697	774.2
489.092	776.2
489.508	767.2
489.925	785.6
490.32	770
490.736	776.2
491.153	780.8
491.548	775.4
491.964	777
492.381	760
492.776	765.8
493.193	771.4
493.61	768.8
494.006	753.6
494.422	754.6
494.84	760.2
495.235	764.4
495.652	749.6
496.069	749.6
496.465	753.6
496.883	750.8
497.3	767
497.696	738.2
498.113	751
498.509	726
498.927	734.8
499.344	733.2
499.741	726.6
500.158	745.4
500.576	747.8
500.973	734.2
501.39	715.4
501.787	732.2
502.205	723.8
502.623	719.8
503.02	709.2
503.438	716.8
503.856	718.6
504.253	723.4
504.671	712.8
505.068	706.2
505.486	711.8
505.905	725.8
506.302	702.4
506.72	716.8
507.118	705.4
507.536	700.4
507.955	697.4
508.352	707
508.771	702.4
509.169	699.2
509.587	695
510.006	691.8
510.404	684.2
510.823	696.2
511.221	688.6
511.64	690.8
512.038	699
512.457	686.4
512.877	687.6
513.275	683.6
513.694	672
514.092	678.6
514.512	685
514.91	677.4
515.33	676.2
515.749	676.6
516.148	673.4
516.568	676.2
516.966	666.4
517.386	662.6
517.785	671.2
518.205	659.8
518.603	660.8
519.024	649
519.444	657.4
519.843	663.8
520.263	657.2
520.662	653.6
521.082	653.2
521.481	660.4
521.902	654.6
522.301	648.2
522.722	647.2
523.121	640.8
523.542	640.4
523.963	637.8
524.362	631
524.783	635.2
525.183	633
525.604	628.6
526.003	630.2
526.425	628.4
526.824	633.6
527.246	630.4
527.646	630.4
528.067	622.4
528.467	631
528.888	624.6
529.289	629.2
529.71	621
530.11	622.4
530.532	624.2
530.932	612.2
531.354	608.2
531.755	643.4
532.176	628.2
532.577	612
532.999	611.6
533.4	607.8
533.822	616.2
534.223	604
534.645	609.8
535.046	600.6
535.468	605.2
535.869	611
536.292	607
536.693	631.6
537.115	606.4
537.516	601.8
537.939	599.8
538.34	612.2
538.742	614.2
539.165	600.2
539.566	597.2
539.989	595.8
540.391	595.2
540.814	596.2
541.216	596.4
541.639	590.4
542.041	611
542.464	589.6
542.866	591
543.268	589.2
543.691	596.8
544.093	594.4
544.517	600.8
544.919	585.2
545.343	603.4
545.745	575.8
546.147	591.2
546.571	580.8
546.974	575.4
547.398	583.2
547.8	592.2
548.224	592.8
548.627	578.6
549.03	581.4
549.454	575.8
549.857	565.8
550.281	569.8
550.684	572.2
551.087	583.4
551.512	579
551.915	576
552.34	572.2
552.743	570.8
553.146	566.8
553.571	574.4
553.975	591.4
554.399	561.6
554.803	610.2
555.207	566.8
555.632	565.8
556.036	582.6
556.461	561.8
556.865	558.8
557.268	564.2
557.694	560.2
558.098	564.6
558.502	568.4
558.927	553
559.332	563.2
559.736	566.6
560.162	564.2
560.566	561.2
560.992	559.4
561.396	563.6
561.801	555.6
562.227	568.2
562.631	555.6
563.036	558.6
563.462	567.4
563.867	554
564.272	545.4
564.698	558.8
565.103	549.8
565.508	565.2
565.935	551
566.34	545
566.745	565.2
567.172	548
567.577	564
567.982	565.8
568.409	553.2
568.815	546.8
569.22	546.2
569.626	547.8
570.053	541.8
570.459	556.2
570.865	552.2
571.292	559.8
571.698	550
572.104	534.8
572.531	541.6
572.937	556.4
573.343	541.2
573.75	532.2
574.177	548.6
574.583	549.2
574.99	541.2
575.396	539.8
575.824	540.2
576.231	543.8
576.637	540.8
577.065	568.6
577.472	539.4
577.879	537.2
578.286	555.4
578.714	533.2
579.121	532.2
579.528	534.6
579.935	541
580.364	541.6
580.771	523.2
581.178	536.4
581.585	535
582.014	542
582.421	531.8
582.829	532.8
583.236	538.2
583.644	530.6
584.073	530.6
584.481	538.6
584.889	530.8
585.296	543.8
585.726	520.8
586.134	531.6
586.542	523
586.95	544.8
587.358	525.2
587.787	530.4
588.196	513.4
588.604	529.8
589.012	529.8
589.421	519
589.851	517
590.259	524.6
590.668	526.6
591.076	558.6
591.485	523.4
591.894	522.4
592.324	524.4
592.733	531
593.142	515.6
593.551	523.6
593.96	523.8
594.369	520
594.8	511.4
595.209	522.4
595.618	506.4
596.028	511.6
596.437	512.6
596.847	524.6
597.256	521
597.687	520
598.097	523.2
598.507	513.2
598.917	521
599.327	524.8
599.736	528
600.146	522.4
600.556	523.4
600.988	527
601.398	515.2
601.808	517.4
602.219	511.4
602.629	519.8
603.039	517.2
603.45	543.4
603.86	518.6
604.271	535.6
604.703	514.8
605.114	514.6
605.525	515.8
605.935	510.2
606.346	534
606.757	511.2
607.168	518
607.579	511.6
607.99	518
608.402	517.8
608.813	524.6
609.224	510.2
609.636	502.4
610.047	506.4
610.48	512.8
610.892	518.6
611.303	520
611.715	507.2
612.127	514.4
612.539	506.8
612.95	515.6
613.362	502.4
613.774	499.6
614.186	512.6
614.599	506.6
615.011	518.4
615.423	515.8
615.835	505.2
616.248	507
616.66	515.8
617.073	506
617.485	519.8
617.898	514
618.311	512
618.723	511
619.136	531.6
619.549	522
619.962	532.4
620.375	510.2
620.788	508.8
621.201	501.2
621.614	519.6
622.028	509.2
622.441	508.4
622.854	523.8
623.268	503
623.681	503.8
624.095	510
624.509	512.6
624.922	513.8
625.336	500.2
625.728	515.8
626.142	522.6
626.556	515.6
626.97	520
627.384	502.8
627.799	502
628.213	527.4
628.627	513.8
629.041	509.2
629.456	509.2
629.87	505.4
630.285	510.2
630.699	514.4
631.093	507.4
631.507	510.4
631.922	512.4
632.337	516.8
632.752	502.8
633.167	514.2
633.582	506.2
633.997	504.8
634.412	497
634.806	506.4
635.221	493.2
635.637	518
636.052	505.4
636.468	508
636.883	525.4
637.299	502.8
637.715	490.6
638.109	503.4
638.525	496.8
638.941	508.2
639.357	508
639.773	518.8
640.189	498
640.584	506
641	500
641.416	496.8
641.832	508.4
642.249	503
642.665	508.4
643.06	507
643.477	514.2
643.894	493
644.31	499.4
644.727	503.6
645.123	505.6
645.54	494.6
645.957	500.8
646.374	518.2
646.77	498
647.187	532.6
647.604	502.4
648.021	493.6
648.439	501.4
648.835	503
649.252	497.2
649.67	504.8
650.088	504.2
650.484	508.2
650.902	505.6
651.32	514.4
651.738	500.6
652.134	514
652.552	520.2
652.971	498.8
653.389	495.2
653.786	513
654.204	502.6
654.622	497.2
655.019	498.6
655.438	507
655.857	499.6
656.275	501.4
656.673	491.2
657.091	511.8
657.51	507.6
657.908	517.2
658.327	517.6
658.746	492
659.144	501.6
659.563	514.6
659.982	510.2
660.38	494.6
660.8	503.2
661.219	516.6
661.617	506
662.037	503.8
662.457	514.6
662.855	490.4
663.275	528.8
663.695	504.6
664.094	497.6
664.514	505.4
664.934	493.8
665.333	507
665.753	496.6
666.152	498.8
666.572	497
666.993	515.2
667.392	502.6
667.812	498.4
668.212	496.2
668.632	512.4
669.053	494.2
669.453	502.2
669.874	505.6
670.273	507.6
670.694	500.2
671.116	507.8
671.515	513
671.937	495.8
672.337	493.2
672.758	497
673.158	506
673.58	492.8
673.98	504.4
674.402	518.6
674.824	507.2
675.224	497.8
675.646	501
676.047	488.2
676.469	502.6
676.869	508.8
677.292	509.8
677.693	499
678.115	493.6
678.516	501.8
678.939	501.8
679.34	503.2
679.762	512
680.164	502.8
680.586	497
680.988	497.2
681.411	523.8
681.812	496.8
682.236	494.8
682.637	494.2
683.061	496
683.462	498.2
683.864	499.8
684.288	508.4
684.69	491.8
685.114	507.2
685.516	511.4
685.94	499.8
686.342	508.4
686.766	498.8
687.168	495.6
687.571	513.6
687.995	503.6
688.398	494.4
688.822	495.2
689.225	506.2
689.628	509.8
690.052	499.8
690.456	504.6
690.88	496.8
691.284	492.8
691.687	508.8
692.112	486
692.515	491.4
692.919	499.6
693.344	498.8
693.747	494.6
694.173	494.2
694.577	509.6
694.98	502.6
695.406	503.6
695.81	499.8
696.214	495.6
696.64	501.8
697.044	499.4
697.448	506.4
697.874	502.2
698.279	495
698.684	491.6
699.11	495
699.514	491.8
699.919	494.4
700.324	488.8
700.75	493.4
701.156	501.2
701.561	507.6
701.987	500.8
702.393	502.8
702.798	501.4
703.203	499.4
703.63	499.6
704.036	487.8
704.442	499.2
704.847	495.6
705.274	496.4
705.68	504
706.086	502.2
706.492	490.6
706.92	500.4
707.326	508.2
707.732	498.4
708.139	490.4
708.545	495.8
708.973	497.4
709.38	495.4
709.786	489
710.193	515.2
710.6	498.6
711.028	498.6
711.435	489.2
711.842	494.6
712.249	495.8
712.656	496.6
713.064	502
713.492	491.2
713.9	493.4
714.307	500.4
714.715	501.8
715.123	496
715.53	499
715.938	501
716.367	495
716.775	497.6
717.184	485.8
717.592	487.6
718	497.2
718.408	520.4
718.816	525
719.225	486.8
719.633	493
720.042	486
720.472	487
720.881	510.6
721.29	500.2
721.699	484.4
722.108	495
722.517	497.2
722.926	490.8
723.335	499.6
723.744	501.2
724.154	494.8
724.563	497.6
724.973	495.4
725.382	501.6
725.792	500.8
726.202	496
726.612	508.6
727.022	500.8
727.432	500.8
779.813	496.6
780.223	535.6
780.634	494.2
781.044	491.4
781.454	492.6
781.865	508.2
782.276	496.8
782.686	499.8
783.097	491
783.508	500.4
783.919	510.4
784.33	498.8
784.741	511
785.152	487
785.563	482
785.974	486.8
786.386	501.6
786.776	486
787.188	491.8
787.599	485
788.011	498.8
788.423	491.4
788.835	499.2
789.247	491
789.659	486.2
790.071	483.8
790.483	519.8
790.874	495
791.286	501
791.699	492.6
792.111	491.8
792.524	495.4
792.937	490.8
793.349	488.2
793.741	494.2
794.154	484.8
794.567	506.6
794.98	495.8
795.393	489.6
795.785	505.8
796.198	487
796.612	496.8
797.026	493.6
797.439	482.8
797.831	490.6
798.245	486.8
798.659	492.2
799.073	487.2
799.487	490
799.88	492.8
800.294	492.6
800.708	496
801.123	493.4
801.516	507.6
801.93	479.2
802.345	484
802.76	490.6
803.153	505.2
803.568	501.2
803.983	494.8
804.377	502
804.792	483.6
805.207	485.4
805.601	495
806.016	528.6
806.432	491.8
806.826	516.8
807.242	503.2
807.658	492.2
808.052	492
808.468	486
808.884	491.4
809.279	495.2
809.695	498.2
810.111	511
810.506	499.6
810.922	505.2
811.339	487.6
811.734	501.4
812.151	490.2
812.546	496.8
812.963	490
813.38	506.4
813.776	497.2
814.193	512.6
814.589	483.6
815.006	494.4
815.402	493
815.82	488.8
816.237	498.2
816.633	492.8
817.051	486.4
817.448	488.6
817.866	493.6
818.262	508.4
818.68	497.8
819.077	487.8
819.495	490.6
819.892	526
820.311	484.8
820.708	492
821.127	491
821.524	503.2
821.943	491.2
822.34	500
822.759	488
823.157	496.8
823.576	500
823.974	500
824.393	545.8
824.791	493.6
825.189	486.4
825.609	486.8
826.007	490.4
826.427	480
826.826	490.4
827.246	490
827.644	481.6
828.043	508
828.463	479.8
828.862	499.8
829.261	489.8
829.682	484
830.081	496.6
830.502	487
830.901	501.2
831.301	494
831.722	483.4
832.121	498.8
832.521	488
832.943	493
833.342	485.6
833.742	489.6
834.164	487.6
834.564	485.8
834.965	490
835.386	495.6
835.787	482.6
836.188	494.4
836.588	492.4
837.01	489.2
837.411	489.6
837.812	500.8
838.213	500
838.636	491.6
839.037	542
839.438	494.4
839.84	501
840.263	494.8
840.664	492
841.066	490
841.468	488
841.891	495.2
842.293	500
842.695	497.4
843.098	494.6
843.5	490
843.902	496
844.326	496.4
844.729	493.4
845.131	502.4
845.534	484.6
845.937	501.6
846.34	509
846.764	484.4
847.167	493
847.571	487
847.974	481.8
848.377	490
848.781	533.2
849.184	493
849.588	490.2
849.992	487.2
850.396	498.4
850.821	505.8
851.225	489.8
851.63	487.4
852.034	493.8
852.438	491.6
852.843	521.6
853.247	488.6
853.652	490
854.057	510
854.462	493.8
854.867	493.4
855.272	512.8
855.677	492.4
856.082	491.6
856.487	484
856.893	493.6
857.298	490.6
857.704	486.6
