#lambda/nm	C1
208.295	468
208.67	431.2
209.045	397.4
209.419	403.4
209.794	526.8
210.169	518
210.544	619.4
210.919	525.2
211.295	517.2
211.67	535.8
212.045	531
212.421	527.4
212.796	556
213.172	519.6
213.547	523.4
213.923	527
214.299	533.8
214.675	531.4
215.051	533.2
215.427	533.8
215.803	544.2
216.179	533.8
216.555	524.2
216.932	531.6
217.308	527.8
217.684	526.4
218.061	534.4
218.438	524.2
218.814	524.6
219.191	540.8
219.568	517.6
219.945	533.8
220.322	532
220.699	534
221.076	530.8
221.453	537
221.83	517
222.208	522.8
222.585	520.4
222.962	536.6
223.34	529.4
223.717	525
224.095	526.6
224.473	527.8
224.851	525.2
225.229	519.2
225.607	542.8
225.985	519.4
226.363	530.6
226.741	534.8
227.119	527.8
227.497	542.4
227.876	516
228.254	538.8
228.633	530.4
229.011	540.8
229.39	535.4
229.769	539.4
230.148	538.6
230.527	545
230.905	527.6
231.284	537
231.664	521.8
232.043	540.2
232.422	529.4
232.801	525.6
233.181	536
233.56	529
233.94	530.2
234.319	520.8
234.699	530.6
235.079	562.2
235.458	561
235.838	544.6
236.218	521
236.598	519.2
236.978	517
237.358	521.8
237.738	534.6
238.119	523.6
238.499	521.6
238.88	529.6
239.26	539.6
239.641	520.2
240.021	523.4
240.402	524.8
240.783	524.6
241.163	523.6
241.544	533
241.925	521.6
242.306	544.8
242.687	522.8
243.069	524
243.45	530.8
243.831	524.2
244.212	532.2
244.594	559
244.975	534.8
245.357	534.8
245.739	527.8
246.12	533.6
246.502	539.8
246.884	522.2
247.266	525.6
247.648	528.4
248.03	544.2
248.412	527
248.794	533.4
249.176	530.8
249.559	537
249.941	518.4
250.323	517.2
250.706	521.6
251.089	535.6
251.471	534.4
251.854	529.4
252.237	531.2
252.62	536.2
253.002	530.2
253.385	533.6
253.769	545.8
254.152	530
254.535	537.6
254.918	517.2
255.301	528.8
255.685	522.4
256.068	527.8
256.452	540.8
256.835	536.8
257.219	528.4
257.603	538.2
257.986	521.4
258.37	531
258.754	519.2
259.138	532
259.522	530.8
259.906	527.4
260.29	529
260.675	519.4
261.059	521.2
261.443	521.8
261.828	529.8
262.212	527.8
262.597	515
262.981	521.6
263.366	523.8
263.751	527.2
264.136	524.6
264.521	524.8
264.906	524.2
265.291	534.2
265.676	524.2
266.061	527.2
266.446	542.6
266.831	528.4
267.217	531.8
267.602	532
267.987	537
268.373	532
268.759	545
269.144	548
269.53	524.6
269.916	525.4
270.302	524.2
270.688	534.6
271.074	532.8
271.46	538.8
271.846	548.8
272.232	532.6
272.618	517.6
273.004	526.6
273.391	539
273.777	537.6
274.164	533.8
274.55	537.6
274.937	527.8
275.324	521.8
275.71	521.4
276.097	533.2
276.484	519
276.871	526.8
277.258	526.2
277.645	517.6
278.032	522.8
278.419	523
278.807	536
279.194	525
279.581	520.6
279.969	528.2
280.356	521.8
280.744	525.8
281.131	551.4
281.519	532
281.907	522.2
282.295	531.8
282.682	534.8
283.07	529.6
283.458	538.8
283.846	537
284.235	533.4
284.623	537.2
285.011	521.6
285.399	533.6
285.788	530.6
286.176	522.8
286.565	534.2
286.953	517
287.342	525
287.731	531.6
288.119	521.6
288.508	521.6
288.897	526.4
289.286	521.2
289.675	531.4
290.064	536
290.453	524.8
290.821	527
291.21	542.4
291.599	525.2
291.989	530.8
292.378	529.8
292.768	534.2
293.157	532.6
293.547	533.8
293.936	522.4
294.326	529.2
294.716	530.8
295.106	522
295.496	532
295.886	536
296.276	524.2
296.666	519
297.056	527.2
297.446	525
297.836	541
298.227	526.2
298.617	533.6
299.008	536.8
299.398	527.8
299.789	525.4
300.179	530.4
300.57	542.2
300.961	523
301.352	526.6
301.742	525.4
302.133	522.4
302.524	529.6
302.915	524.8
303.307	520.6
303.698	540.8
304.089	539.6
304.48	529.4
304.872	536.4
305.263	527.2
305.655	529.6
306.046	543.4
306.438	534.4
306.829	520.8
307.221	542.6
307.613	531.2
308.005	531.2
308.397	539.4
308.789	543.4
309.181	544
309.573	542
309.965	535.4
310.357	529.6
310.749	538.4
311.142	519.2
311.534	533.8
311.926	530.6
312.319	536
312.711	528.8
313.104	541.6
313.497	526.2
313.889	564
314.282	539.2
314.675	541
315.068	527.4
315.461	535.6
315.854	550.2
316.247	527.8
316.64	525.4
317.033	531.2
317.405	525
317.798	530.6
318.192	523.6
318.585	523.2
318.979	529.4
319.372	530
319.766	522.4
320.16	528.6
320.553	537.8
320.947	546.6
321.341	518.6
321.735	528.4
322.129	519.2
322.523	546.6
322.917	519.2
323.311	531
323.705	537.6
324.099	535
324.494	542.2
324.888	529.4
325.282	523.4
325.677	545.4
326.071	533.2
326.466	533
326.861	522.4
327.255	541.8
327.65	531.2
328.045	542.2
328.44	534.4
328.835	531.2
329.23	520.8
329.625	543.6
330.02	524.6
330.415	543.8
330.81	536.8
331.206	522.2
331.601	521.2
331.996	533.8
332.37	543
332.766	510.4
333.161	547
333.557	529.2
333.953	532.4
334.348	862.4
334.744	535.8
335.14	527
335.536	520
335.932	534.6
336.328	529.4
336.724	532.2
337.12	525.2
337.516	537.6
337.913	528.4
338.309	536.8
338.705	533.8
339.102	538
339.498	517.2
339.895	538
340.291	517.4
340.688	526.4
341.085	518.2
341.481	524
341.878	521.6
342.275	540.8
342.672	512.8
343.069	515.2
343.466	512.4
343.842	529
344.239	523.6
344.636	527.4
345.033	515.2
345.431	525.2
345.828	522.8
346.225	517
346.623	550.8
347.02	530.6
347.418	534.4
347.816	538.6
348.213	517.2
348.611	531
349.009	517.6
349.407	533.2
349.805	512.8
350.203	521.4
350.601	532.6
350.999	526.6
351.397	574.8
351.795	531.8
352.193	539.4
352.57	533.4
352.969	532.4
353.367	517.8
353.766	518.2
354.164	520
354.563	531.8
354.961	522
355.36	521.2
355.759	517.2
356.158	515
356.557	518.2
356.956	517
357.355	503
357.754	524.2
358.153	524.6
358.552	541.6
358.951	517.2
359.35	530.2
359.75	522.2
360.149	512.4
360.527	512
360.926	510.2
361.326	526.2
361.726	515.6
362.125	517.6
362.525	526.6
362.925	521.8
363.325	525.8
363.724	526.6
364.124	521
364.524	509.8
364.924	521.4
365.324	534
365.725	510.4
366.125	524.4
366.525	520.2
366.904	516.6
367.304	507.8
367.705	534.4
368.105	534.2
368.506	520.6
368.906	521.4
369.307	525.2
369.708	530.4
370.108	516
370.509	522.8
370.91	515.4
371.311	521.4
371.712	518.4
372.113	517.6
372.514	505.4
372.894	516.4
373.295	510
373.696	525
374.097	526.2
374.499	532.2
374.9	519.8
375.301	512.2
375.703	515.4
376.105	515.4
376.506	528.2
376.908	530.2
377.309	521.6
377.711	522.2
378.113	508
378.493	517.4
378.895	517
379.297	528.8
379.699	510.6
380.102	521.8
380.504	519
380.906	520.6
381.308	538.2
381.71	522
382.113	528.4
382.515	516
382.918	530.2
383.299	519
383.701	524.4
384.104	523.4
384.507	506.6
384.909	519.8
385.312	506.4
385.715	514.6
386.118	522.6
386.521	509.8
386.924	534.2
387.327	520.6
387.709	511.8
388.112	505
388.515	513.8
388.918	518
389.322	523.4
389.725	521.4
390.129	535.8
390.532	521.6
390.936	524
391.339	519.6
391.743	520
392.125	518.8
392.529	524.2
392.933	526.2
393.337	517.6
393.74	520.6
394.144	515.4
394.548	511.6
394.953	513.4
395.357	521
395.761	515
396.144	520.8
396.548	521.6
396.952	519.4
397.357	521.2
397.761	511.2
398.166	514.8
398.57	513.4
398.975	516.8
399.379	521.2
399.763	550.6
400.168	521.4
400.572	513.6
400.977	521.6
401.382	529.8
401.787	524
402.192	527.2
402.597	534.6
403.002	510.6
403.386	531.8
403.791	537.6
404.197	516.6
404.602	519.8
405.007	525
405.413	513.2
405.818	523.8
406.224	511.2
406.608	519
407.014	518
407.42	529.6
407.825	516.4
408.231	527.4
408.637	517.6
409.043	534.4
409.449	521.4
409.834	517
410.24	523
410.646	526.4
411.052	529
411.458	520.2
411.865	519.8
412.271	525
412.677	527.4
413.062	521
413.469	511.6
413.875	536.8
414.282	527.4
414.689	516.6
415.095	524
415.502	503.4
415.888	527.4
416.294	504.4
416.701	550.4
417.108	522.6
417.515	525
417.923	519
418.33	529.2
418.715	526.6
419.123	515.6
419.53	523.4
419.937	527.8
420.345	520.4
420.752	518.4
421.16	530
421.546	523
421.953	523.2
422.361	510.8
422.769	526.8
423.177	517.8
423.585	535.4
423.992	530.8
424.379	529.6
424.787	530.2
425.195	535.8
425.603	516.2
426.011	524.6
426.419	526.2
426.806	518.2
427.214	522.2
427.623	526.6
428.031	536.8
428.44	531.2
428.848	531
429.235	543.2
429.644	524.6
430.053	519.4
430.461	539.2
430.87	537.2
431.279	522
431.666	518
432.075	520.2
432.484	528.6
432.893	518.2
433.302	536.6
433.711	565
434.099	526.8
434.508	526.2
434.918	523.6
435.327	534.4
435.737	532.8
436.125	530.8
436.534	540.8
436.944	544.6
437.353	552.8
437.763	567.4
438.173	540.4
438.561	559.2
438.971	541.8
439.381	557.2
439.791	565
440.201	552
440.589	575
440.999	587.6
441.409	584.4
441.819	573.6
442.23	597.2
442.619	605.6
443.029	605.2
443.439	608
443.85	620.2
444.26	626.4
444.649	620.8
445.06	625.4
445.471	615.6
445.881	627.8
446.292	650.2
446.682	655.8
447.092	633.4
447.503	688.2
447.914	644.2
448.325	648.4
448.715	650.8
449.126	651.2
449.537	649.8
449.948	660.2
450.338	658.8
450.75	670.6
451.161	673.8
451.572	676.2
451.984	668.4
452.374	664
452.786	678.4
453.197	683.2
453.609	681.2
453.999	673
454.411	681.6
454.823	694
455.235	690.2
455.647	688
456.037	694
456.449	668.2
456.862	694.4
457.274	691.4
457.665	688.6
458.077	704.6
458.489	729.6
458.902	700.2
459.293	705
459.705	700.6
460.118	703.8
460.53	716.8
460.921	709
461.334	713.4
461.747	723.6
462.16	720.4
462.551	721.6
462.964	721.8
463.377	712
463.79	712.4
464.182	730.6
464.595	734
465.008	732.4
465.421	738.6
465.813	728
466.226	737.4
466.64	736.4
467.053	777
467.445	750.6
467.859	751.8
468.272	751.4
468.686	765.4
469.078	748.6
469.492	733.8
469.906	756.8
470.298	752
470.712	752.2
471.126	786.4
471.54	743.4
471.933	746.6
472.347	763.4
472.761	751.8
473.175	749.6
473.568	753.8
473.982	749
474.397	763
474.79	752.6
475.204	775
475.619	757.8
476.033	761
476.426	764
476.841	755.4
477.256	776
477.649	752.6
478.064	759.8
478.479	755.4
478.872	757.6
479.287	746.8
479.702	740.6
480.118	756.6
480.511	756.4
480.927	769.4
481.342	746.8
481.736	753.6
482.151	754.4
482.566	768.8
482.96	756
483.376	764.2
483.792	746.2
484.186	753
484.602	742.6
485.017	750
485.412	751.4
485.827	763.8
486.243	738
486.638	762
487.054	750.2
487.47	762.8
487.865	737.4
488.281	748.4
488.697	742.4
489.092	742
489.508	734
489.925	751.6
490.32	727.6
490.736	753.6
491.153	736.4
491.548	738.6
491.964	740
492.381	719.4
492.776	731.8
493.193	735.4
493.61	730.8
494.006	729.2
494.422	732.6
494.84	726
495.235	738.2
495.652	720.2
496.069	726.2
496.465	723.8
496.883	716.6
497.3	734
497.696	711.4
498.113	721.4
498.509	702
498.927	704.6
499.344	702.2
499.741	707.6
500.158	712.4
500.576	709
500.973	711.4
501.39	700.2
501.787	694.2
502.205	701.2
502.623	703
503.02	691.8
503.438	686.2
503.856	689.6
504.253	690.8
504.671	699
505.068	683.4
505.486	683.2
505.905	701.4
506.302	682.2
506.72	692.2
507.118	668.4
507.536	673.6
507.955	678
508.352	667.8
508.771	677.6
509.169	668
509.587	668
510.006	666.6
510.404	657.4
510.823	657.6
511.221	663.2
511.64	663
512.038	667.8
512.457	660
512.877	664.4
513.275	657
513.694	658.4
514.092	653.4
514.512	654.8
514.91	667.2
515.33	654.2
515.749	647.8
516.148	652.4
516.568	644.6
516.966	648.8
517.386	649.8
517.785	644.4
518.205	636.2
518.603	644.8
519.024	637.6
519.444	638.6
519.843	649
520.263	647.6
520.662	637.2
521.082	632.2
521.481	637.4
521.902	621
522.301	629.4
522.722	634.4
523.121	617.6
523.542	627.8
523.963	625.2
524.362	621.6
524.783	627.8
525.183	612.2
525.604	629.4
526.003	614.2
526.425	611.8
526.824	617.4
527.246	618
527.646	622.4
528.067	607
528.467	614.6
528.888	613.2
529.289	608.6
529.71	611.8
530.11	603.4
530.532	606
530.932	603.6
531.354	591
531.755	630
532.176	609.2
532.577	600
532.999	598.2
533.4	593.6
533.822	597.6
534.223	590.8
534.645	591.8
535.046	592.2
535.468	597.4
535.869	598.8
536.292	583.4
536.693	608.2
537.115	596.2
537.516	591.8
537.939	584.6
538.34	606.8
538.742	597.8
539.165	594.2
539.566	593
539.989	588.2
540.391	577.8
540.814	584.6
541.216	585.4
541.639	585
542.041	591.2
542.464	584.4
542.866	581.6
543.268	578.2
543.691	597.2
544.093	586
544.517	599.8
544.919	576.8
545.343	598.6
545.745	568.8
546.147	581
546.571	573
546.974	567.2
547.398	569.4
547.8	586.8
548.224	567.2
548.627	569.2
549.03	582
549.454	562.6
549.857	561.2
550.281	559.6
550.684	559.6
551.087	576.8
551.512	568.2
551.915	577.8
552.34	565
552.743	552.4
553.146	562.8
553.571	564.6
553.975	581.6
554.399	557.2
554.803	601.2
555.207	561.6
555.632	558
556.036	560.2
556.461	547
556.865	562
557.268	549.2
557.694	556.8
558.098	568.2
558.502	560.4
558.927	557.8
559.332	555
559.736	547.2
560.162	556.2
560.566	554.8
560.992	560.8
561.396	558.8
561.801	553.2
562.227	551.6
562.631	548
563.036	559.6
563.462	554.6
563.867	548.2
564.272	543.8
564.698	549.6
565.103	541.6
565.508	565.6
565.935	549
566.34	541.6
566.745	553.2
567.172	537.4
567.577	557.6
567.982	556
568.409	544
568.815	538.6
569.22	540.6
569.626	549.6
570.053	527
570.459	542.8
570.865	543.2
571.292	548.6
571.698	541
572.104	528
572.531	530.8
572.937	542.8
573.343	538
573.75	533
574.177	535.6
574.583	538.8
574.99	534
575.396	541
575.824	530.4
576.231	541.2
576.637	529
577.065	554.2
577.472	530
577.879	539.6
578.286	540.2
578.714	529.8
579.121	527.4
579.528	533.2
579.935	533.2
580.364	524
580.771	521.8
581.178	525
581.585	533.2
582.014	537.8
582.421	529.2
582.829	523.6
583.236	536.6
583.644	519.6
584.073	522
584.481	521.8
584.889	527.2
585.296	525.8
585.726	525.4
586.134	521.6
586.542	523.6
586.95	540.2
587.358	514
587.787	520.8
588.196	517.2
588.604	519.4
589.012	526
589.421	516.6
589.851	521.4
590.259	522
590.668	530.4
591.076	553
591.485	514.6
591.894	521
592.324	533.2
592.733	528.6
593.142	512.2
593.551	512.8
593.96	547.2
594.369	512.8
594.8	515.6
595.209	516.8
595.618	506.4
596.028	508
596.437	510.4
596.847	516.8
597.256	515.8
597.687	519.6
598.097	517.6
598.507	505.4
598.917	525.6
599.327	521.6
599.736	523.4
600.146	525.2
600.556	514
600.988	527.6
601.398	512.4
601.808	523.6
602.219	510.8
602.629	519.6
603.039	517.2
603.45	537
603.86	515.6
604.271	524.4
604.703	512
605.114	510.4
605.525	514.2
605.935	518.6
606.346	530
606.757	515.4
607.168	507.4
607.579	509.8
607.99	513.6
608.402	504
608.813	511.2
609.224	504.8
609.636	503.4
610.047	497.4
610.48	513.8
610.892	517.8
611.303	507.6
611.715	513.2
612.127	511.6
612.539	507.8
612.95	511.8
613.362	503.8
613.774	509.4
614.186	506.2
614.599	507.8
615.011	526.8
615.423	513
615.835	507.6
616.248	500.6
616.66	511
617.073	507.2
617.485	510.4
617.898	518
618.311	522.8
618.723	512
619.136	535
619.549	524.8
619.962	532.2
620.375	513
620.788	511.6
621.201	504
621.614	515.8
622.028	508.4
622.441	518.8
622.854	526.6
623.268	514.6
623.681	522.2
624.095	520.6
624.509	517.2
624.922	518.2
625.336	505.4
625.728	515.6
626.142	520
626.556	523
626.97	516.2
627.384	510
627.799	517.6
628.213	529.4
628.627	513.8
629.041	509.6
629.456	512.4
629.87	515.8
630.285	514.4
630.699	520.6
631.093	510.8
631.507	514.6
631.922	514.2
632.337	525
632.752	504.6
633.167	514.6
633.582	509.4
633.997	506.6
634.412	504.6
634.806	514
635.221	497
635.637	519.8
636.052	496
636.468	505.6
636.883	522.8
637.299	509.8
637.715	497.8
638.109	504.8
638.525	507.8
638.941	517
639.357	509.6
639.773	522.4
640.189	509.4
640.584	506.2
641	516.2
641.416	495
641.832	501.4
642.249	509.4
642.665	513.8
643.06	509.6
643.477	511
643.894	501.4
644.31	506.2
644.727	508.6
645.123	511.4
645.54	495.2
645.957	513.4
646.374	516.4
646.77	509
647.187	528.2
647.604	511
648.021	494.2
648.439	496.4
648.835	515.2
649.252	500.2
649.67	506.4
650.088	504.2
650.484	515.8
650.902	510.8
651.32	512.6
651.738	503
652.134	509.8
652.552	520.4
652.971	505.2
653.389	505.2
653.786	517
654.204	510.6
654.622	504.2
655.019	512.8
655.438	503.2
655.857	506
656.275	504.2
656.673	505
657.091	510
657.51	502.2
657.908	515.2
658.327	514.4
658.746	499
659.144	507.6
659.563	512.6
659.982	508.6
660.38	512.2
660.8	505.4
661.219	509
661.617	505
662.037	506.8
662.457	511
662.855	490.4
663.275	524
663.695	500.8
664.094	504.2
664.514	504.2
664.934	495
665.333	498
665.753	505
666.152	494.8
666.572	493.6
666.993	512.2
667.392	501.8
667.812	496.4
668.212	504.2
668.632	508
669.053	500.2
669.453	503.8
669.874	507.8
670.273	503.6
670.694	502.6
671.116	511.6
671.515	510.4
671.937	498.6
672.337	498.4
672.758	495.6
673.158	505.6
673.58	495.4
673.98	508.4
674.402	508.4
674.824	499.4
675.224	497.8
675.646	498.2
676.047	495.2
676.469	501.4
676.869	511
677.292	501.4
677.693	498.4
678.115	503.8
678.516	503.6
678.939	502.2
679.34	500.4
679.762	507.2
680.164	506.8
680.586	498.4
680.988	501
681.411	523.2
681.812	492
682.236	490.8
682.637	499.6
683.061	492.4
683.462	509.6
683.864	494.2
684.288	507.4
684.69	490.8
685.114	512.4
685.516	507.6
685.94	500.4
686.342	503.2
686.766	491.8
687.168	501.4
687.571	509.6
687.995	503.6
688.398	485.8
688.822	497.4
689.225	512
689.628	510.2
690.052	501.8
690.456	499.8
690.88	501.8
691.284	491.6
691.687	501
692.112	484.4
692.515	486.4
692.919	499.2
693.344	497.8
693.747	501.2
694.173	493.4
694.577	503.4
694.98	490.2
695.406	499.4
695.81	497.2
696.214	501.8
696.64	498
697.044	496.4
697.448	508
697.874	493.6
698.279	498.6
698.684	489
699.11	487.8
699.514	497
699.919	494.4
700.324	487.2
700.75	501.4
701.156	498.4
701.561	504.2
701.987	500.4
702.393	503.6
702.798	498
703.203	494.2
703.63	488
704.036	488.6
704.442	491
704.847	490.2
705.274	493.2
705.68	496.2
706.086	493.8
706.492	485.8
706.92	492.2
707.326	495.8
707.732	491.8
708.139	483.8
708.545	487.6
708.973	493.8
709.38	497.8
709.786	486
710.193	509.6
710.6	499.4
711.028	491
711.435	496.6
711.842	496.8
712.249	497.4
712.656	495
713.064	499.6
713.492	487
713.9	489.8
714.307	494.4
714.715	490.6
715.123	496
715.53	496
715.938	505.2
716.367	493.2
716.775	498.4
717.184	487.6
717.592	494
718	504.6
718.408	523.6
718.816	529.2
719.225	498.4
719.633	491.2
720.042	495.4
720.472	486.6
720.881	517
721.29	495.8
721.699	488.8
722.108	491.4
722.517	500
722.926	498
723.335	506.6
723.744	491.4
724.154	497
724.563	499.4
724.973	498.2
725.382	499.4
725.792	490
726.202	484.2
726.612	499.4
727.022	498.6
727.432	497
779.813	494.2
780.223	526.4
780.634	490
781.044	486
781.454	492
781.865	501
782.276	487.4
782.686	504.4
783.097	491
783.508	496.6
783.919	493.8
784.33	497.6
784.741	505.8
785.152	491.4
785.563	486.6
785.974	484
786.386	492.6
786.776	494.2
787.188	491.6
787.599	477.8
788.011	505.2
788.423	500.6
788.835	493.6
789.247	481.8
789.659	491.6
790.071	493.4
790.483	530.4
790.874	492.4
791.286	505.8
791.699	493.2
792.111	486.6
792.524	493.4
792.937	489.4
793.349	488.6
793.741	488.6
794.154	488.4
794.567	507
794.98	497.8
795.393	487.6
795.785	504.8
796.198	495.2
796.612	494.6
797.026	489.8
797.439	479
797.831	485.8
798.245	491.4
798.659	493.6
799.073	491
799.487	491.8
799.88	494.4
800.294	497.2
800.708	495.2
801.123	492
801.516	501
801.93	488.2
802.345	486
802.76	492.8
803.153	500
803.568	509.8
803.983	504
804.377	500
804.792	483
805.207	481.2
805.601	496.4
806.016	521.4
806.432	490.6
806.826	521.2
807.242	503.6
807.658	496.2
808.052	495.8
808.468	487
808.884	485
809.279	490.6
809.695	501.6
810.111	508.2
810.506	496.6
810.922	508.8
811.339	486
811.734	500.4
812.151	491.6
812.546	490.8
812.963	485.6
813.38	495.8
813.776	501.6
814.193	510.4
814.589	487.6
815.006	495.8
815.402	484.6
815.82	484
816.237	489
816.633	495.6
817.051	494.2
817.448	493.6
817.866	482.2
818.262	519.6
818.68	489.8
819.077	491.4
819.495	488.8
819.892	528.2
820.311	492.8
820.708	483.2
821.127	490.6
821.524	503
821.943	496.2
822.34	505.4
822.759	492.6
823.157	493.2
823.576	502.6
823.974	499.4
824.393	589.4
824.791	487.8
825.189	486.4
825.609	491.4
826.007	500.6
826.427	479.4
826.826	490
827.246	490
827.644	479.8
828.043	499.2
828.463	489
828.862	503.2
829.261	493.8
829.682	479.4
830.081	498.8
830.502	486.8
830.901	502.2
831.301	496.4
831.722	482.2
832.121	488.2
832.521	481.2
832.943	488.2
833.342	493
833.742	483.2
834.164	487.8
834.564	488.8
834.965	493.6
835.386	485.6
835.787	500
836.188	491.6
836.588	495.4
837.01	496.6
837.411	485
837.812	495.4
838.213	495.2
838.636	494.8
839.037	537.2
839.438	491.2
839.84	496
840.263	492.4
840.664	499
841.066	492.2
841.468	497
841.891	491.6
842.293	493.6
842.695	495.4
843.098	499.2
843.5	499.4
843.902	501.6
844.326	493.8
844.729	492.2
845.131	505.6
845.534	489.2
845.937	498
846.34	505.6
846.764	491.4
847.167	492
847.571	484.8
847.974	487.4
848.377	487.8
848.781	523.6
849.184	502.8
849.588	487
849.992	488.6
850.396	495
850.821	496.8
851.225	482.2
851.63	479.4
852.034	501.4
852.438	484.8
852.843	511
853.247	479.4
853.652	484.4
854.057	493.4
854.462	487.6
854.867	488.2
855.272	513.4
855.677	494.8
856.082	480.4
856.487	486.4
