#lambda/nm	C1
208.295	468
208.67	435
209.045	399.6
209.419	397.6
209.794	532.8
210.169	517.6
210.544	613.8
210.919	523.2
211.295	516.8
211.67	533
212.045	517.6
212.421	533.4
212.796	556.2
213.172	520.8
213.547	526
213.923	525.2
214.299	515
214.675	535
215.051	529.2
215.427	540
215.803	536.8
216.179	533.2
216.555	519
216.932	535.4
217.308	523.2
217.684	517.6
218.061	529
218.438	522.4
218.814	518.2
219.191	537.4
219.568	517.6
219.945	519.8
220.322	533.4
220.699	539
221.076	538.8
221.453	531.8
221.83	522
222.208	518.2
222.585	518
222.962	531.2
223.34	531.4
223.717	530.8
224.095	524
224.473	533.6
224.851	523.6
225.229	511.4
225.607	544.6
225.985	519.2
226.363	528
226.741	530.6
227.119	529.4
227.497	536.2
227.876	521.6
228.254	542.2
228.633	528.8
229.011	535.2
229.39	529
229.769	531.2
230.148	537
230.527	548.2
230.905	529.4
231.284	535.8
231.664	519.8
232.043	538.6
232.422	531
232.801	522.4
233.181	524.8
233.56	519.4
233.94	522.8
234.319	516.2
234.699	522
235.079	553.2
235.458	556.4
235.838	537.8
236.218	516
236.598	509.6
236.978	515.4
237.358	519.4
237.738	519.8
238.119	533.4
238.499	520.8
238.88	527
239.26	537.2
239.641	516.4
240.021	529
240.402	531.2
240.783	521.6
241.163	524.8
241.544	520.2
241.925	531.2
242.306	540.6
242.687	522.2
243.069	526.8
243.45	534.8
243.831	518.4
244.212	525.2
244.594	552.4
244.975	542.6
245.357	535.2
245.739	524.4
246.12	531
246.502	536.6
246.884	529.6
247.266	526.4
247.648	533.6
248.03	547.4
248.412	527.2
248.794	531.6
249.176	522.6
249.559	535.8
249.941	518.6
250.323	519.8
250.706	527.2
251.089	527.6
251.471	532.4
251.854	529.8
252.237	525
252.62	541.6
253.002	530.6
253.385	528
253.769	544.4
254.152	528
254.535	528.2
254.918	528.2
255.301	528
255.685	527.6
256.068	516.8
256.452	540.6
256.835	535.4
257.219	536
257.603	543
257.986	519
258.37	536
258.754	522.6
259.138	529.4
259.522	537.2
259.906	535
260.29	536
260.675	522.2
261.059	530
261.443	519.4
261.828	530.4
262.212	536.2
262.597	519.2
262.981	529
263.366	535.4
263.751	534
264.136	521
264.521	533
264.906	518.2
265.291	543.2
265.676	528.4
266.061	529.2
266.446	540.6
266.831	533.8
267.217	546.8
267.602	530.8
267.987	529.6
268.373	519.4
268.759	535
269.144	528.4
269.53	525
269.916	521.8
270.302	527.8
270.688	534.8
271.074	530.4
271.46	535.2
271.846	546.6
272.232	533.8
272.618	521.4
273.004	525.4
273.391	534.6
273.777	536.8
274.164	534.8
274.55	536.8
274.937	538.8
275.324	525.2
275.71	530.8
276.097	530.8
276.484	527.4
276.871	528
277.258	526.4
277.645	524
278.032	519.2
278.419	521.8
278.807	522.4
279.194	513.8
279.581	522
279.969	525.2
280.356	529.2
280.744	525.2
281.131	547
281.519	537.8
281.907	528.8
282.295	525.2
282.682	537.8
283.07	526.2
283.458	535.6
283.846	540.8
284.235	533.2
284.623	538.4
285.011	523.8
285.399	527.4
285.788	530.6
286.176	519.2
286.565	532
286.953	524.4
287.342	524.8
287.731	521.2
288.119	519
288.508	522.2
288.897	535.2
289.286	519.6
289.675	526
290.064	539
290.453	526.6
290.821	524.8
291.21	547.4
291.599	526.6
291.989	523.8
292.378	535.4
292.768	547.8
293.157	534
293.547	530.8
293.936	524.8
294.326	522.6
294.716	521.2
295.106	522
295.496	530.2
295.886	528.4
296.276	527.6
296.666	524
297.056	513.2
297.446	522.4
297.836	536.6
298.227	522.2
298.617	524.8
299.008	540
299.398	522.4
299.789	522.6
300.179	532.4
300.57	542.6
300.961	526.4
301.352	536.8
301.742	535
302.133	527.4
302.524	524.4
302.915	517.6
303.307	527
303.698	542.6
304.089	528.6
304.48	526.4
304.872	534
305.263	531.2
305.655	520
306.046	531
306.438	521.6
306.829	526
307.221	543
307.613	534.8
308.005	533.4
308.397	536.6
308.789	545
309.181	552.8
309.573	543.2
309.965	536.4
310.357	528.6
310.749	539
311.142	517.8
311.534	533.4
311.926	533.2
312.319	522.4
312.711	521.2
313.104	536.8
313.497	529
313.889	565.2
314.282	544.8
314.675	542.2
315.068	520.8
315.461	519.8
315.854	546.2
316.247	535.2
316.64	525.2
317.033	520.4
317.405	527.4
317.798	529.6
318.192	531
318.585	524.4
318.979	526.4
319.372	512.2
319.766	525
320.16	537.6
320.553	535.2
320.947	536.8
321.341	522.6
321.735	524.6
322.129	513
322.523	551.2
322.917	526
323.311	532.8
323.705	526.6
324.099	535.4
324.494	544.4
324.888	537.4
325.282	522.4
325.677	533
326.071	532.6
326.466	531.2
326.861	525.6
327.255	536
327.65	541
328.045	540.8
328.44	528.8
328.835	523.8
329.23	523.2
329.625	551.8
330.02	530.2
330.415	530.6
330.81	531
331.206	525
331.601	527.2
331.996	528
332.37	539
332.766	515.4
333.161	545
333.557	513.4
333.953	521.4
334.348	697.6
334.744	526.8
335.14	521
335.536	522.6
335.932	533.4
336.328	519
336.724	533.6
337.12	523.8
337.516	532.2
337.913	526.6
338.309	535.2
338.705	527.4
339.102	535.8
339.498	521.4
339.895	535.4
340.291	526.8
340.688	529.6
341.085	520
341.481	526.8
341.878	523.2
342.275	538.8
342.672	517.6
343.069	511
343.466	518.2
343.842	532.2
344.239	519.6
344.636	516.8
345.033	519.2
345.431	519
345.828	529.2
346.225	521.8
346.623	550.4
347.02	521.2
347.418	535.2
347.816	540.4
348.213	520.4
348.611	523.2
349.009	524.6
349.407	542.8
349.805	521.2
350.203	523
350.601	535.4
350.999	520.8
351.397	561.6
351.795	523.4
352.193	532.6
352.57	529.2
352.969	533.8
353.367	511.6
353.766	519.8
354.164	527.6
354.563	537.8
354.961	527
355.36	522.2
355.759	522.8
356.158	516.8
356.557	518.6
356.956	524.6
357.355	516.6
357.754	519.4
358.153	530.4
358.552	542.6
358.951	525.8
359.35	536.6
359.75	523
360.149	509.2
360.527	512.6
360.926	514.6
361.326	524
361.726	526.2
362.125	518
362.525	527.2
362.925	515.2
363.325	522.2
363.724	518.6
364.124	516.6
364.524	521
364.924	520.2
365.324	530.6
365.725	514.8
366.125	525.4
366.525	521.2
366.904	514
367.304	510.4
367.705	530.2
368.105	528.6
368.506	521.6
368.906	523.4
369.307	518.4
369.708	527.2
370.108	520
370.509	536.8
370.91	520.6
371.311	528.6
371.712	521.2
372.113	524.8
372.514	513
372.894	523.8
373.295	514
373.696	524.8
374.097	535.8
374.499	542.4
374.9	520
375.301	512.2
375.703	524.2
376.105	512.4
376.506	523.2
376.908	527.8
377.309	528.8
377.711	518
378.113	513
378.493	519.8
378.895	516.4
379.297	528.6
379.699	511.2
380.102	527
380.504	520.2
380.906	516
381.308	542.2
381.71	517.2
382.113	527.4
382.515	518.4
382.918	517.8
383.299	518.8
383.701	524.4
384.104	526.4
384.507	509.2
384.909	518.2
385.312	505.4
385.715	519.6
386.118	520
386.521	509.6
386.924	522.2
387.327	514.8
387.709	506
388.112	512.6
388.515	522.4
388.918	511
389.322	529.2
389.725	517
390.129	535.6
390.532	522
390.936	513.8
391.339	518.6
391.743	524.6
392.125	515
392.529	524.8
392.933	533.2
393.337	519.8
393.74	521.2
394.144	520
394.548	516
394.953	520.4
395.357	521.4
395.761	516.8
396.144	523.2
396.548	523.2
396.952	515.4
397.357	524.8
397.761	522
398.166	517.6
398.57	515.4
398.975	509
399.379	520.6
399.763	557.4
400.168	521.8
400.572	520.6
400.977	522.2
401.382	531.6
401.787	529
402.192	533.6
402.597	521.4
403.002	504.8
403.386	525
403.791	530.6
404.197	512.6
404.602	518.4
405.007	517.4
405.413	512.8
405.818	513.2
406.224	512.2
406.608	515.2
407.014	510.6
407.42	532.6
407.825	517.4
408.231	521.8
408.637	515.8
409.043	529.2
409.449	513.8
409.834	514.2
410.24	529.2
410.646	533.8
411.052	528
411.458	524.2
411.865	524.2
412.271	526.4
412.677	519.2
413.062	528.4
413.469	509.2
413.875	540.2
414.282	529.2
414.689	523.6
415.095	521.8
415.502	510.4
415.888	519.6
416.294	505.2
416.701	548.4
417.108	513.4
417.515	522.2
417.923	518.8
418.33	535.4
418.715	524.8
419.123	516
419.53	514.6
419.937	517
420.345	533
420.752	515.4
421.16	529
421.546	526.2
421.953	521.6
422.361	518.4
422.769	518
423.177	521
423.585	535.4
423.992	534.2
424.379	536.6
424.787	530
425.195	540.2
425.603	513.8
426.011	529.6
426.419	536.6
426.806	522.4
427.214	523.8
427.623	529.8
428.031	529.4
428.44	528
428.848	530
429.235	535.4
429.644	529.6
430.053	528.4
430.461	545.6
430.87	563.8
431.279	545.8
431.666	543.2
432.075	556.6
432.484	562
432.893	566.4
433.302	591.4
433.711	634.8
434.099	608.8
434.508	618.2
434.918	614.2
435.327	656.8
435.737	662.6
436.125	679.2
436.534	693.6
436.944	706.8
437.353	726.6
437.763	744.4
438.173	751
438.561	781.2
438.971	788.4
439.381	805
439.791	824.2
440.201	824.4
440.589	852.6
440.999	881.2
441.409	878.4
441.819	893.4
442.23	924.8
442.619	912.8
443.029	928.6
443.439	933.8
443.85	959.2
444.26	978
444.649	989.8
445.06	993
445.471	996.8
445.881	1004.4
446.292	1036
446.682	1039.8
447.092	1020.2
447.503	1073.4
447.914	1049.2
448.325	1046.4
448.715	1056.6
449.126	1049
449.537	1073
449.948	1077.6
450.338	1080.2
450.75	1084.2
451.161	1100.6
451.572	1098.6
451.984	1088.6
452.374	1079.8
452.786	1093.6
453.197	1106
453.609	1109
453.999	1085.6
454.411	1101
454.823	1123.6
455.235	1105
455.647	1117.8
456.037	1128.2
456.449	1105.4
456.862	1113.8
457.274	1122.4
457.665	1127.8
458.077	1130.4
458.489	1136.2
458.902	1107.4
459.293	1123.6
459.705	1117.4
460.118	1117.4
460.53	1137
460.921	1135.2
461.334	1155.6
461.747	1135
462.16	1156
462.551	1153.8
462.964	1134.8
463.377	1139.6
463.79	1128
464.182	1140.2
464.595	1117.6
465.008	1131.6
465.421	1120.4
465.813	1135
466.226	1134.2
466.64	1148.2
467.053	1174.4
467.445	1147.8
467.859	1154.4
468.272	1152
468.686	1158
469.078	1131.2
469.492	1139.6
469.906	1127
470.298	1141.8
470.712	1141.6
471.126	1166
471.54	1128.8
471.933	1139.4
472.347	1142.6
472.761	1125.4
473.175	1138.2
473.568	1126.2
473.982	1132.6
474.397	1132.2
474.79	1135.2
475.204	1125.4
475.619	1118.8
476.033	1120
476.426	1106.4
476.841	1100.8
477.256	1136.2
477.649	1099.4
478.064	1097.8
478.479	1094.4
478.872	1088.4
479.287	1073.6
479.702	1089.6
480.118	1082.2
480.511	1088.4
480.927	1077.2
481.342	1080.8
481.736	1087.8
482.151	1067.8
482.566	1093.4
482.96	1073.4
483.376	1058.6
483.792	1059
484.186	1061.6
484.602	1055.2
485.017	1054.4
485.412	1048.6
485.827	1038
486.243	1056.6
486.638	1059
487.054	1045
487.47	1049
487.865	1018.4
488.281	1026.8
488.697	1019
489.092	1023
489.508	1011.4
489.925	1019.2
490.32	1002.8
490.736	1010.2
491.153	1003.8
491.548	997.6
491.964	997.6
492.381	971.6
492.776	994.6
493.193	984.2
493.61	996
494.006	974.2
494.422	986
494.84	961
495.235	983
495.652	972
496.069	955.2
496.465	957.6
496.883	959
497.3	961.8
497.696	934.6
498.113	939.8
498.509	919.4
498.927	916.8
499.344	925.2
499.741	915.2
500.158	922.6
500.576	919.2
500.973	911.8
501.39	888.4
501.787	903
502.205	902.4
502.623	890.6
503.02	898.2
503.438	892.4
503.856	889.8
504.253	884.2
504.671	887.6
505.068	869.6
505.486	877.4
505.905	886.2
506.302	874.4
506.72	872
507.118	851.2
507.536	854.8
507.955	853.8
508.352	850.2
508.771	856.6
509.169	837.2
509.587	822.6
510.006	828.8
510.404	824
510.823	815.8
511.221	820.4
511.64	808
512.038	832.2
512.457	809.2
512.877	807
513.275	807.8
513.694	794
514.092	798.6
514.512	799
514.91	809.8
515.33	794.4
515.749	794
516.148	785.8
516.568	787.4
516.966	779
517.386	766.2
517.785	775.6
518.205	768.8
518.603	763
519.024	748.8
519.444	766
519.843	772
520.263	781.8
520.662	752.6
521.082	756.2
521.481	755.6
521.902	753.4
522.301	749.4
522.722	738.8
523.121	733
523.542	743.4
523.963	729.2
524.362	734.6
524.783	732
525.183	724.2
525.604	728.4
526.003	722
526.425	719
526.824	712.6
527.246	718
527.646	722.8
528.067	710.8
528.467	714.6
528.888	716.6
529.289	694.6
529.71	690.6
530.11	705.6
530.532	698.2
530.932	690
531.354	682.2
531.755	719.2
532.176	699
532.577	691.6
532.999	681.2
533.4	675.6
533.822	685.2
534.223	677
534.645	676.8
535.046	689.2
535.468	677.6
535.869	682.8
536.292	665.8
536.693	705.8
537.115	667.6
537.516	661
537.939	664.6
538.34	681
538.742	669.2
539.165	663
539.566	664.8
539.989	650.8
540.391	654.2
540.814	656
541.216	652
541.639	657.8
542.041	646.4
542.464	642.4
542.866	649.8
543.268	635.4
543.691	652.6
544.093	647
544.517	650.6
544.919	634.4
545.343	659.4
545.745	635.6
546.147	632.8
546.571	635
546.974	624.4
547.398	628.6
547.8	636.6
548.224	625
548.627	629.2
549.03	633.6
549.454	618.8
549.857	612.4
550.281	620
550.684	618.4
551.087	622.6
551.512	622
551.915	619.6
552.34	611.8
552.743	609
553.146	617.4
553.571	608.6
553.975	629.8
554.399	595.8
554.803	647.2
555.207	598.2
555.632	603.6
556.036	603.8
556.461	604
556.865	603.2
557.268	600
557.694	601
558.098	611.2
558.502	595.4
558.927	598
559.332	586.4
559.736	586.8
560.162	593.2
560.566	587.4
560.992	598.8
561.396	585
561.801	584
562.227	585.2
562.631	582.8
563.036	581.4
563.462	593.4
563.867	585.8
564.272	570.6
564.698	590
565.103	576.4
565.508	594.6
565.935	569.8
566.34	571.8
566.745	588.6
567.172	571.6
567.577	581.2
567.982	588.4
568.409	571.2
568.815	562.4
569.22	573.6
569.626	575.4
570.053	556.6
570.459	562.4
570.865	574.6
571.292	566
571.698	578.4
572.104	551
572.531	561.2
572.937	575.8
573.343	556.2
573.75	557.2
574.177	556.2
574.583	556.4
574.99	561.2
575.396	563.4
575.824	554
576.231	568.2
576.637	548.8
577.065	582.2
577.472	546.8
577.879	553.4
578.286	562.2
578.714	543
579.121	556
579.528	552.4
579.935	564
580.364	557.6
580.771	539.6
581.178	540.6
581.585	558
582.014	551.4
582.421	555.2
582.829	538.4
583.236	557.6
583.644	544.6
584.073	540.2
584.481	546.6
584.889	537.6
585.296	553.2
585.726	544.8
586.134	532.6
586.542	539.8
586.95	550.6
587.358	540
587.787	544
588.196	528.4
588.604	536.4
589.012	540.4
589.421	532.4
589.851	525.6
590.259	548.8
590.668	531.2
591.076	565
591.485	536.6
591.894	534.6
592.324	542.8
592.733	534.8
593.142	523.2
593.551	526.6
593.96	540.8
594.369	524
594.8	525.8
595.209	531.4
595.618	507.2
596.028	526.6
596.437	522.4
596.847	535.4
597.256	531.2
597.687	531.4
598.097	524.8
598.507	512.8
598.917	531.8
599.327	531.4
599.736	525.6
600.146	526.2
600.556	520.2
600.988	538.2
601.398	522
601.808	530.4
602.219	516.6
602.629	521.6
603.039	528
603.45	540.4
603.86	519
604.271	534.6
604.703	515.4
605.114	524.2
605.525	527.6
605.935	526.2
606.346	538.2
606.757	530.4
607.168	515.6
607.579	511.4
607.99	527.8
608.402	514.4
608.813	524.4
609.224	523
609.636	518.2
610.047	511
610.48	525.2
610.892	534.4
611.303	527
611.715	522.6
612.127	508
612.539	515
612.95	519.4
613.362	508.4
613.774	513.2
614.186	510.4
614.599	514.4
615.011	524.4
615.423	520.6
615.835	519.8
616.248	513.4
616.66	520
617.073	513.8
617.485	516.6
617.898	512.8
618.311	520.2
618.723	523.4
619.136	534
619.549	531.2
619.962	543.2
620.375	517.4
620.788	525
621.201	518.8
621.614	522.2
622.028	512.6
622.441	516.8
622.854	527
623.268	511.2
623.681	515
624.095	504.4
624.509	513.6
624.922	524.4
625.336	500.4
625.728	511.8
626.142	518.2
626.556	521
626.97	510.6
627.384	514.4
627.799	518.8
628.213	522
628.627	511.2
629.041	510.2
629.456	516.2
629.87	506.6
630.285	524.2
630.699	521.8
631.093	513
631.507	518.4
631.922	513.4
632.337	523.6
632.752	501.2
633.167	512.4
633.582	510.4
633.997	517.6
634.412	508.4
634.806	514.4
635.221	509.6
635.637	520.6
636.052	498.2
636.468	506.4
636.883	522
637.299	510.6
637.715	510
638.109	510.6
638.525	504.4
638.941	520.6
639.357	512.8
639.773	523.4
640.189	512.6
640.584	513.2
641	520.4
641.416	496.2
641.832	508.6
642.249	504.8
642.665	512
643.06	518
643.477	515.8
643.894	497.8
644.31	510.8
644.727	512.6
645.123	506.4
645.54	498
645.957	511.2
646.374	517.6
646.77	501.8
647.187	532.8
647.604	506.6
648.021	496.2
648.439	499.2
648.835	506
649.252	508
649.67	508.8
650.088	503.4
650.484	515.8
650.902	515.2
651.32	511.2
651.738	506.8
652.134	498.8
652.552	524
652.971	507.4
653.389	500.8
653.786	513.4
654.204	513.6
654.622	499.6
655.019	510.8
655.438	508
655.857	501.2
656.275	513.6
656.673	501
657.091	510.4
657.51	496.8
657.908	510.2
658.327	519.8
658.746	497.6
659.144	503.8
659.563	506.8
659.982	499.8
660.38	501
660.8	507.2
661.219	508.4
661.617	502.2
662.037	500.6
662.457	508.6
662.855	482
663.275	523.4
663.695	498.6
664.094	503.4
664.514	499
664.934	497.8
665.333	507.8
665.753	501.6
666.152	501.4
666.572	491.2
666.993	509
667.392	498.2
667.812	508
668.212	497.8
668.632	506
669.053	503
669.453	509.6
669.874	502.6
670.273	505.8
670.694	502.4
671.116	520
671.515	515
671.937	503.4
672.337	499.6
672.758	499.8
673.158	508.2
673.58	498.8
673.98	513.6
674.402	513.8
674.824	500
675.224	496
675.646	495.8
676.047	497.6
676.469	505.8
676.869	505.2
677.292	506.8
677.693	499.6
678.115	497.4
678.516	507.4
678.939	500.4
679.34	503.4
679.762	512
680.164	512
680.586	494.2
680.988	508.6
681.411	522.6
681.812	501
682.236	495
682.637	492.6
683.061	496.6
683.462	500.4
683.864	499.4
684.288	505.8
684.69	490.8
685.114	502.6
685.516	502.6
685.94	495.8
686.342	505.4
686.766	499.2
687.168	495.6
687.571	509
687.995	501.8
688.398	489.6
688.822	499.4
689.225	511.8
689.628	518.8
690.052	504.6
690.456	498.4
690.88	500.2
691.284	488
691.687	498.2
692.112	486.8
692.515	490.2
692.919	504.2
693.344	506.8
693.747	496
694.173	495.2
694.577	497.2
694.98	490.2
695.406	497.2
695.81	503
696.214	500.2
696.64	494.2
697.044	499.4
697.448	502.2
697.874	502.2
698.279	502
698.684	493.6
699.11	496.2
699.514	495.4
699.919	503.6
700.324	490.2
700.75	499.8
701.156	500.2
701.561	508.4
701.987	499.2
702.393	507.2
702.798	497
703.203	503
703.63	490
704.036	484.6
704.442	499.6
704.847	489
705.274	495.8
705.68	494.6
706.086	495
706.492	494.6
706.92	493
707.326	510.4
707.732	489.2
708.139	494.4
708.545	496.6
708.973	491.2
709.38	497.8
709.786	484.6
710.193	508
710.6	497
711.028	497
711.435	483.6
711.842	495
712.249	490.6
712.656	499.2
713.064	505
713.492	484.6
713.9	497.2
714.307	504.6
714.715	502.4
715.123	505.4
715.53	499.6
715.938	503
716.367	490.6
716.775	498.6
717.184	486.6
717.592	486
718	498.8
718.408	517.4
718.816	527.6
719.225	494.8
719.633	496
720.042	482.4
720.472	488
720.881	504.6
721.29	494.2
721.699	489
722.108	494.4
722.517	491
722.926	490.2
723.335	502
723.744	493.8
724.154	491.2
724.563	503.4
724.973	499
725.382	493
725.792	496
726.202	489.8
726.612	501.2
727.022	491
727.432	492.2
779.813	494.4
780.223	528.6
780.634	488.8
781.044	494.6
781.454	498.4
781.865	501.4
782.276	490
782.686	504.2
783.097	498.8
783.508	487.2
783.919	495.6
784.33	505.4
784.741	504.6
785.152	496.8
785.563	488.8
785.974	486.6
786.386	493.6
786.776	487.2
787.188	490.6
787.599	493.6
788.011	500.2
788.423	490.8
788.835	490.2
789.247	486.8
789.659	494
790.071	488.6
790.483	525.8
790.874	493.6
791.286	499.2
791.699	484.4
792.111	491.4
792.524	492
792.937	493
793.349	482.4
793.741	483
794.154	483.6
794.567	505.4
794.98	488.8
795.393	485
795.785	504
796.198	491.6
796.612	494.4
797.026	486.6
797.439	480.6
797.831	491.4
798.245	488.2
798.659	489.4
799.073	485.4
799.487	487.4
799.88	490.2
800.294	500.4
800.708	492.4
801.123	494.4
801.516	501.6
801.93	487.8
802.345	483.6
802.76	496.2
803.153	505.2
803.568	505.4
803.983	498.2
804.377	494.2
804.792	490.4
805.207	480.8
805.601	488.4
806.016	524.8
806.432	488
806.826	516
807.242	499.8
807.658	496
808.052	490
808.468	492
808.884	481.8
809.279	489.4
809.695	496.8
810.111	515.4
810.506	500.2
810.922	509.6
811.339	492.8
811.734	499.8
812.151	490.8
812.546	485.6
812.963	489.8
813.38	492.4
813.776	490.8
814.193	511.2
814.589	500
815.006	494.4
815.402	487.4
815.82	480
816.237	487.4
816.633	495.4
817.051	484.4
817.448	491.2
817.866	481
818.262	509
818.68	491.2
819.077	489.2
819.495	496.4
819.892	529
820.311	488.8
820.708	495.8
821.127	489.4
821.524	502.2
821.943	493.2
822.34	504.2
822.759	490.8
823.157	491.6
823.576	501.6
823.974	500.4
824.393	581.2
824.791	493.4
825.189	487.4
825.609	490.2
826.007	482.6
826.427	480.2
826.826	490
827.246	496.4
827.644	478.6
828.043	505.2
828.463	485.8
828.862	502.2
829.261	496.2
829.682	492.8
830.081	501
830.502	486.6
830.901	495.2
831.301	484
831.722	491.4
832.121	491.6
832.521	482.2
832.943	493.2
833.342	501.4
833.742	485
834.164	498
834.564	479
834.965	495.6
835.386	496.2
835.787	490.2
836.188	489.6
836.588	492
837.01	490.2
837.411	492.8
837.812	494
838.213	492.2
838.636	489
839.037	545.4
839.438	493.8
839.84	498.2
840.263	496.8
840.664	486.2
841.066	493
841.468	489.4
841.891	486.8
842.293	495.8
842.695	490.4
843.098	499.8
843.5	485.8
843.902	488.4
844.326	502
844.729	489.4
845.131	499.8
845.534	488.2
845.937	492
846.34	505
846.764	480.8
847.167	497
847.571	481.4
847.974	494.4
848.377	489.4
848.781	530.8
849.184	502
849.588	488.8
849.992	495
850.396	486
850.821	509
851.225	489.8
851.63	484.6
852.034	498.8
852.438	489.6
852.843	552.2
853.247	479
853.652	483.4
