#lambda/nm	C1
208.295	466.6
208.67	429
209.045	395.2
209.419	398.2
209.794	528.2
210.169	519.4
210.544	605.6
210.919	531
211.295	522.4
211.67	533.6
212.045	522.4
212.421	523.4
212.796	557.2
213.172	525.6
213.547	514.8
213.923	524.6
214.299	526.8
214.675	535.8
215.051	533.8
215.427	538.2
215.803	544.8
216.179	533.6
216.555	518.6
216.932	535.8
217.308	531.2
217.684	528.2
218.061	536.4
218.438	524.2
218.814	532.2
219.191	541.2
219.568	523.4
219.945	521.8
220.322	536.6
220.699	529.8
221.076	536
221.453	532
221.83	521.2
222.208	524.2
222.585	522.8
222.962	530
223.34	528
223.717	525.2
224.095	534.6
224.473	533.2
224.851	528.2
225.229	520.4
225.607	540.2
225.985	525
226.363	534.8
226.741	530.4
227.119	532.2
227.497	541.8
227.876	522.2
228.254	531.2
228.633	535.6
229.011	536.6
229.39	532.6
229.769	525.8
230.148	539.2
230.527	538
230.905	532.8
231.284	531.8
231.664	521.2
232.043	536.6
232.422	531
232.801	522.2
233.181	531.4
233.56	518.8
233.94	526.6
234.319	519.2
234.699	527.8
235.079	557.4
235.458	555.4
235.838	535.2
236.218	523.2
236.598	512.6
236.978	519.2
237.358	519.4
237.738	519.6
238.119	528.8
238.499	521.4
238.88	528.2
239.26	536.6
239.641	519.6
240.021	527.6
240.402	533.2
240.783	524.6
241.163	525.8
241.544	527.4
241.925	531.2
242.306	545.4
242.687	520.6
243.069	529.4
243.45	534.2
243.831	529.2
244.212	524.4
244.594	563
244.975	528.8
245.357	534.4
245.739	527
246.12	531.6
246.502	531
246.884	525.6
247.266	530
247.648	531.6
248.03	536.6
248.412	527.4
248.794	529.2
249.176	529.2
249.559	530.6
249.941	524.8
250.323	520.6
250.706	525.4
251.089	528.8
251.471	531.4
251.854	528.2
252.237	531.6
252.62	531.8
253.002	524
253.385	527
253.769	542.4
254.152	522.6
254.535	528.4
254.918	521.8
255.301	522.6
255.685	528.8
256.068	515.4
256.452	551.2
256.835	526.6
257.219	527.8
257.603	538.6
257.986	518.8
258.37	526.6
258.754	513.8
259.138	533.2
259.522	530.6
259.906	512.2
260.29	531.4
260.675	522
261.059	525.2
261.443	519.4
261.828	528.2
262.212	526.6
262.597	510
262.981	526.4
263.366	529.8
263.751	534.4
264.136	526.6
264.521	526.6
264.906	523
265.291	533
265.676	515.6
266.061	539
266.446	543
266.831	525.4
267.217	532.6
267.602	531.6
267.987	538.4
268.373	527.6
268.759	532.6
269.144	530.8
269.53	530.4
269.916	528.4
270.302	529.8
270.688	531.2
271.074	531.6
271.46	527.4
271.846	548.6
272.232	525
272.618	526.4
273.004	520.2
273.391	526.8
273.777	531.6
274.164	528.6
274.55	539.4
274.937	532.4
275.324	525.2
275.71	534.8
276.097	532
276.484	511.2
276.871	531.2
277.258	529.2
277.645	519.6
278.032	526.2
278.419	522
278.807	526.4
279.194	522
279.581	516.4
279.969	539.6
280.356	528.4
280.744	530.2
281.131	549.2
281.519	536
281.907	528.8
282.295	528.2
282.682	539
283.07	533.6
283.458	543
283.846	531.4
284.235	532.2
284.623	533.8
285.011	523.8
285.399	535.2
285.788	531.4
286.176	513.6
286.565	535.2
286.953	518.4
287.342	527
287.731	523.6
288.119	517.8
288.508	524
288.897	532.2
289.286	523
289.675	532.6
290.064	534.4
290.453	528
290.821	530.8
291.21	535.4
291.599	521.6
291.989	528.4
292.378	531
292.768	539.6
293.157	528.8
293.547	525.4
293.936	525
294.326	526
294.716	533.4
295.106	524.8
295.496	534.8
295.886	537.2
296.276	522
296.666	527
297.056	524.4
297.446	518
297.836	547.4
298.227	528.2
298.617	527.8
299.008	542.6
299.398	527.8
299.789	520.4
300.179	527.4
300.57	544.2
300.961	525.2
301.352	520.4
301.742	529
302.133	529.4
302.524	528
302.915	527
303.307	525.6
303.698	536
304.089	538
304.48	530
304.872	524.8
305.263	532.6
305.655	529.6
306.046	528.4
306.438	531.2
306.829	523.6
307.221	543.6
307.613	530.4
308.005	537.8
308.397	536.8
308.789	536.2
309.181	547.6
309.573	541.6
309.965	536.2
310.357	524
310.749	536.4
311.142	528
311.534	519.2
311.926	533.8
312.319	530.2
312.711	522.2
313.104	532.8
313.497	528.4
313.889	562.4
314.282	541.4
314.675	547.4
315.068	527.4
315.461	531
315.854	552.4
316.247	537.8
316.64	528
317.033	524.6
317.405	536
317.798	527
318.192	531.6
318.585	518.8
318.979	539.2
319.372	529.4
319.766	531
320.16	536.2
320.553	543.4
320.947	537
321.341	527.8
321.735	526.2
322.129	517.4
322.523	541.4
322.917	527.4
323.311	542.6
323.705	536.4
324.099	542.2
324.494	543.2
324.888	530.6
325.282	526.4
325.677	533.4
326.071	541.6
326.466	538.8
326.861	530.4
327.255	534.2
327.65	538
328.045	533.2
328.44	533.8
328.835	524.6
329.23	523.6
329.625	551
330.02	522.2
330.415	543
330.81	520.4
331.206	527.8
331.601	528.6
331.996	539.8
332.37	548.6
332.766	512.8
333.161	549.6
333.557	524.8
333.953	527.6
334.348	811.4
334.744	523.6
335.14	523.4
335.536	521
335.932	531
336.328	524.4
336.724	532.8
337.12	521
337.516	531.4
337.913	530
338.309	533.4
338.705	528.4
339.102	536
339.498	525.8
339.895	538
340.291	521
340.688	535
341.085	516.4
341.481	527.6
341.878	524.6
342.275	539.2
342.672	518.6
343.069	522.2
343.466	522.6
343.842	530.2
344.239	523.6
344.636	527.4
345.033	523.2
345.431	525.2
345.828	527.2
346.225	528.2
346.623	551.2
347.02	527.2
347.418	531.4
347.816	535.4
348.213	517
348.611	534.4
349.009	527
349.407	541.6
349.805	515.4
350.203	520.8
350.601	531.2
350.999	519
351.397	582.6
351.795	526.8
352.193	526.4
352.57	523.8
352.969	536.4
353.367	508
353.766	519.4
354.164	522
354.563	533
354.961	526.6
355.36	521.6
355.759	519.8
356.158	521
356.557	515.8
356.956	518.6
357.355	517.4
357.754	530
358.153	526.4
358.552	543.8
358.951	516.8
359.35	536.6
359.75	515.6
360.149	513.6
360.527	510
360.926	517
361.326	520.4
361.726	528.2
362.125	515.4
362.525	528.6
362.925	525.8
363.325	521.4
363.724	523.2
364.124	516.8
364.524	523
364.924	516.6
365.324	533.4
365.725	514.6
366.125	528.4
366.525	519.4
366.904	516.2
367.304	511.2
367.705	535.8
368.105	531.4
368.506	512.2
368.906	524.4
369.307	519.6
369.708	517.8
370.108	508.8
370.509	524.8
370.91	510.8
371.311	512.4
371.712	522.4
372.113	517
372.514	505.4
372.894	507.8
373.295	511.4
373.696	531.4
374.097	526
374.499	540.2
374.9	519.2
375.301	516
375.703	517.2
376.105	516.6
376.506	518.4
376.908	516.2
377.309	520
377.711	511.2
378.113	513.4
378.493	517
378.895	511.2
379.297	528.8
379.699	504.6
380.102	521.2
380.504	524.8
380.906	525
381.308	531.6
381.71	519.2
382.113	533.2
382.515	522.4
382.918	521.2
383.299	516.8
383.701	534.2
384.104	518.2
384.507	499.4
384.909	514.8
385.312	514.2
385.715	512.4
386.118	514
386.521	515
386.924	529
387.327	518.2
387.709	514.8
388.112	508.2
388.515	518.2
388.918	513.6
389.322	519.6
389.725	518.8
390.129	533.2
390.532	528.6
390.936	520.6
391.339	516.6
391.743	521.6
392.125	513
392.529	518.8
392.933	526.6
393.337	519.2
393.74	518.8
394.144	527.6
394.548	515.8
394.953	517.8
395.357	525.2
395.761	513.6
396.144	516.6
396.548	516.2
396.952	518
397.357	519
397.761	516.8
398.166	517.4
398.57	515.8
398.975	515.6
399.379	524
399.763	564.4
400.168	521.8
400.572	519.2
400.977	516.8
401.382	530.8
401.787	536.4
402.192	532.6
402.597	529.8
403.002	508.4
403.386	526
403.791	534.2
404.197	516.2
404.602	513
405.007	517.6
405.413	515.8
405.818	517.4
406.224	511.6
406.608	519.8
407.014	511
407.42	533.2
407.825	515
408.231	524
408.637	531
409.043	528.2
409.449	516.2
409.834	514.6
410.24	518.4
410.646	523.2
411.052	536
411.458	515.8
411.865	532.6
412.271	520
412.677	521
413.062	521
413.469	521.2
413.875	538
414.282	527.6
414.689	519.8
415.095	518.2
415.502	513.2
415.888	521
416.294	502
416.701	553.2
417.108	515.8
417.515	520.4
417.923	519.6
418.33	534
418.715	523.6
419.123	518.2
419.53	519.2
419.937	523
420.345	529.6
420.752	521.6
421.16	534.6
421.546	527.4
421.953	522.8
422.361	516
422.769	519
423.177	520.2
423.585	543.4
423.992	537
424.379	530
424.787	529.4
425.195	542
425.603	522
426.011	534.2
426.419	534.8
426.806	525
427.214	531.8
427.623	539.6
428.031	538.2
428.44	533.6
428.848	536.2
429.235	535.6
429.644	536.6
430.053	537.6
430.461	544.2
430.87	560
431.279	548
431.666	542.8
432.075	552.2
432.484	563.6
432.893	568.8
433.302	590.8
433.711	621.2
434.099	618.2
434.508	624.8
434.918	635.2
435.327	664
435.737	681.4
436.125	688.8
436.534	710
436.944	730.4
437.353	753.2
437.763	783
438.173	781.6
438.561	821.8
438.971	819.4
439.381	846.8
439.791	864.6
440.201	863.6
440.589	911.4
440.999	922
441.409	951.2
441.819	946.4
442.23	982.6
442.619	996
443.029	999.4
443.439	1006.8
443.85	1023.6
444.26	1045
444.649	1032.4
445.06	1070.6
445.471	1066.8
445.881	1076.2
446.292	1109
446.682	1124.2
447.092	1105.8
447.503	1162.4
447.914	1130.2
448.325	1122.8
448.715	1128.6
449.126	1118.6
449.537	1151.2
449.948	1148.2
450.338	1165.8
450.75	1165.6
451.161	1177.2
451.572	1181.4
451.984	1173.2
452.374	1158.4
452.786	1196.8
453.197	1187
453.609	1203.6
453.999	1186.8
454.411	1180.6
454.823	1209.6
455.235	1192.4
455.647	1203.8
456.037	1214.6
456.449	1192.8
456.862	1205.4
457.274	1204
457.665	1208.6
458.077	1221
458.489	1235.4
458.902	1209.6
459.293	1211.2
459.705	1221.4
460.118	1212.4
460.53	1227.6
460.921	1235.8
461.334	1241.6
461.747	1237.8
462.16	1247.8
462.551	1239.4
462.964	1232.8
463.377	1229.6
463.79	1232.2
464.182	1242.2
464.595	1240.2
465.008	1245
465.421	1242.6
465.813	1233.6
466.226	1239.4
466.64	1227.6
467.053	1281.4
467.445	1241.8
467.859	1243.4
468.272	1273.2
468.686	1251.6
469.078	1246.4
469.492	1231.6
469.906	1241.8
470.298	1251.4
470.712	1235.4
471.126	1266.4
471.54	1231.6
471.933	1233.8
472.347	1224.2
472.761	1227
473.175	1228.6
473.568	1218.2
473.982	1218.8
474.397	1228.8
474.79	1228.4
475.204	1222
475.619	1207.6
476.033	1206
476.426	1202.6
476.841	1212.8
477.256	1216.4
477.649	1204.6
478.064	1190.2
478.479	1202
478.872	1177
479.287	1181.6
479.702	1190.6
480.118	1185.6
480.511	1167.8
480.927	1170.2
481.342	1177.6
481.736	1178
482.151	1173.6
482.566	1177
482.96	1162
483.376	1156.4
483.792	1146.2
484.186	1157.4
484.602	1143
485.017	1141
485.412	1132.6
485.827	1141
486.243	1124.4
486.638	1147.2
487.054	1137.6
487.47	1130.4
487.865	1124
488.281	1119.8
488.697	1094.6
489.092	1112.2
489.508	1098.4
489.925	1098.8
490.32	1082.6
490.736	1086.6
491.153	1079.4
491.548	1087.2
491.964	1073.8
492.381	1062.2
492.776	1074
493.193	1063.6
493.61	1066.2
494.006	1053.6
494.422	1071.4
494.84	1042.8
495.235	1044.4
495.652	1035.8
496.069	1035.8
496.465	1023.4
496.883	1025.6
497.3	1034
497.696	1007
498.113	1010.4
498.509	981
498.927	1000.2
499.344	1000
499.741	983.6
500.158	998.6
500.576	990.8
500.973	980.4
501.39	971.2
501.787	969.8
502.205	966
502.623	958.2
503.02	947
503.438	942.4
503.856	929.6
504.253	941.2
504.671	919.6
505.068	926.8
505.486	920.8
505.905	942.6
506.302	923.4
506.72	914.8
507.118	907.8
507.536	906
507.955	907.8
508.352	892.8
508.771	902.6
509.169	892.2
509.587	877.8
510.006	896
510.404	873
510.823	885.6
511.221	870
511.64	879.4
512.038	868.8
512.457	857
512.877	856.4
513.275	850.8
513.694	848.4
514.092	845.8
514.512	848
514.91	843.2
515.33	839.2
515.749	830
516.148	845.4
516.568	832
516.966	830.2
517.386	820.2
517.785	812.2
518.205	811.8
518.603	802.6
519.024	805.6
519.444	818
519.843	818.2
520.263	804
520.662	804.8
521.082	798.2
521.481	792.6
521.902	781.6
522.301	786.4
522.722	778.8
523.121	769.4
523.542	780.8
523.963	763.8
524.362	765.8
524.783	771.8
525.183	765.8
525.604	759
526.003	753
526.425	750.8
526.824	764.6
527.246	748.2
527.646	741.4
528.067	734.4
528.467	736.8
528.888	732.6
529.289	732.6
529.71	728.6
530.11	732.6
530.532	712
530.932	710.8
531.354	719
531.755	743.6
532.176	719.8
532.577	712.8
532.999	722
533.4	708.2
533.822	710.4
534.223	711
534.645	697
535.046	699.2
535.468	702.2
535.869	708.6
536.292	689.6
536.693	724.2
537.115	685.6
537.516	692.2
537.939	698.4
538.34	707.6
538.742	688.6
539.165	690
539.566	682
539.989	676.6
540.391	674.8
540.814	692.8
541.216	682
541.639	674.8
542.041	676.6
542.464	665.8
542.866	672.8
543.268	658.6
543.691	668.8
544.093	660.4
544.517	684.2
544.919	654.4
545.343	682.6
545.745	652
546.147	659.8
546.571	647.4
546.974	641.6
547.398	646.4
547.8	656.8
548.224	643.6
548.627	637.6
549.03	638.2
549.454	635.2
549.857	631
550.281	629.6
550.684	626.6
551.087	640
551.512	642.2
551.915	634.2
552.34	630.2
552.743	625
553.146	629.4
553.571	625.4
553.975	646.6
554.399	612.8
554.803	648
555.207	622.6
555.632	605
556.036	612.8
556.461	610
556.865	619.6
557.268	607.4
557.694	614.8
558.098	618.8
558.502	611
558.927	605.2
559.332	602.8
559.736	600.4
560.162	602
560.566	602
560.992	610.4
561.396	597.2
561.801	600
562.227	601.2
562.631	589.6
563.036	593
563.462	598.2
563.867	590
564.272	575.6
564.698	594
565.103	579.4
565.508	604.2
565.935	581.4
566.34	576.2
566.745	585.4
567.172	580.4
567.577	589.6
567.982	599.6
568.409	591.4
568.815	577.6
569.22	584.8
569.626	592.4
570.053	561.2
570.459	575.4
570.865	576.4
571.292	573.6
571.698	576
572.104	567.6
572.531	574.2
572.937	584
573.343	568.2
573.75	559.2
574.177	574.8
574.583	578.4
574.99	565.4
575.396	577
575.824	563.4
576.231	573
576.637	563.4
577.065	580
577.472	556.6
577.879	564.6
578.286	569.6
578.714	552
579.121	561
579.528	571
579.935	569.2
580.364	557
580.771	548.4
581.178	551
581.585	565.6
582.014	555.8
582.421	556.6
582.829	551.4
583.236	561
583.644	549.4
584.073	549.8
584.481	545
584.889	543.2
585.296	551.8
585.726	551.2
586.134	551.2
586.542	550
586.95	561.2
587.358	546.4
587.787	546.6
588.196	546.2
588.604	543.8
589.012	541.8
589.421	550.4
589.851	533.4
590.259	543
590.668	534.2
591.076	575
591.485	539
591.894	544
592.324	557.4
592.733	538.8
593.142	529.6
593.551	542.2
593.96	536.4
594.369	521.2
594.8	539.2
595.209	543
595.618	529.4
596.028	527.2
596.437	523.2
596.847	531
597.256	533.2
597.687	531.4
598.097	538
598.507	520
598.917	531.8
599.327	535.6
599.736	537.2
600.146	531
600.556	530.4
600.988	545.8
601.398	522.8
601.808	535.4
602.219	516.8
602.629	519.2
603.039	526.2
603.45	544.6
603.86	522.4
604.271	530
604.703	519.6
605.114	513.6
605.525	526
605.935	527.8
606.346	542.8
606.757	526.8
607.168	518.8
607.579	522.2
607.99	521.8
608.402	524.2
608.813	523.8
609.224	520.2
609.636	513.8
610.047	519.4
610.48	521
610.892	533.4
611.303	539
611.715	523.8
612.127	510.6
612.539	519.6
612.95	522.2
613.362	515.2
613.774	517.6
614.186	511.6
614.599	521.2
615.011	527.6
615.423	516.8
615.835	514
616.248	513.6
616.66	526.4
617.073	512.2
617.485	514
617.898	526.8
618.311	521.2
618.723	519
619.136	545.8
619.549	532.2
619.962	539
620.375	515.8
620.788	524.4
621.201	514.4
621.614	530
622.028	517.6
622.441	521
622.854	529
623.268	507.6
623.681	519.4
624.095	517.2
624.509	520.4
624.922	522.4
625.336	509.8
625.728	522.4
626.142	527.4
626.556	529.2
626.97	526
627.384	518
627.799	506.4
628.213	524.4
628.627	512
629.041	505.8
629.456	516
629.87	518.4
630.285	519
630.699	520.2
631.093	514.6
631.507	518.6
631.922	522
632.337	521.2
632.752	508.4
633.167	512
633.582	518
633.997	517.6
634.412	509.8
634.806	514.8
635.221	507.4
635.637	521.6
636.052	509.8
636.468	514.6
636.883	534.2
637.299	512.6
637.715	501.4
638.109	512.8
638.525	502.2
638.941	524.6
639.357	515.2
639.773	514
640.189	510
640.584	511.6
641	506.2
641.416	504.4
641.832	505.6
642.249	502
642.665	507.6
643.06	514
643.477	515.8
643.894	494.2
644.31	507.8
644.727	499.2
645.123	499.4
645.54	494.8
645.957	506.8
646.374	518.4
646.77	508.4
647.187	532
647.604	510.4
648.021	499.2
648.439	503.8
648.835	515
649.252	503
649.67	502.2
650.088	508.4
650.484	505.4
650.902	506.8
651.32	512.4
651.738	512.4
652.134	501.6
652.552	521
652.971	517.2
653.389	513.2
653.786	509.6
654.204	510
654.622	500.6
655.019	506.8
655.438	515
655.857	508.6
656.275	505.4
656.673	504.2
657.091	508.4
657.51	506.4
657.908	516.6
658.327	521.8
658.746	493.6
659.144	504.4
659.563	511.6
659.982	506
660.38	491.2
660.8	506.8
661.219	506
661.617	505.8
662.037	496
662.457	517.2
662.855	499.2
663.275	531.6
663.695	499.6
664.094	497
664.514	503.2
664.934	498.2
665.333	506
665.753	494.6
666.152	502.8
666.572	505.2
666.993	514.6
667.392	498
667.812	503.2
668.212	508.8
668.632	509.6
669.053	500.6
669.453	514.6
669.874	507.2
670.273	502
670.694	497.6
671.116	514.4
671.515	505.4
671.937	507.8
672.337	504.8
672.758	504.4
673.158	506.2
673.58	497
673.98	504.2
674.402	520.8
674.824	508
675.224	496.4
675.646	504.6
676.047	498.8
676.469	500.8
676.869	510.8
677.292	495
677.693	494.6
678.115	502.4
678.516	504.6
678.939	504.4
679.34	500
679.762	505
680.164	505
680.586	498.4
680.988	501
681.411	520.6
681.812	505.4
682.236	497.4
682.637	500
683.061	496.2
683.462	504.6
683.864	508.6
684.288	503
684.69	499.4
685.114	507.8
685.516	505.6
685.94	491.8
686.342	499.2
686.766	500.8
687.168	500.6
687.571	511.4
687.995	501
688.398	490.6
688.822	498.6
689.225	513.4
689.628	511.4
690.052	506.4
690.456	503.8
690.88	498
691.284	492.2
691.687	503.6
692.112	491.2
692.515	492.2
692.919	500
693.344	499.8
693.747	502.8
694.173	489.2
694.577	503.8
694.98	495.4
695.406	495.2
695.81	502
696.214	504.4
696.64	501.4
697.044	502.2
697.448	500.8
697.874	497.2
698.279	494.8
698.684	488
699.11	490.4
699.514	487.2
699.919	495.2
700.324	488.6
700.75	500.8
701.156	505.4
701.561	503
701.987	500.6
702.393	503.2
702.798	498
703.203	495
703.63	494.4
704.036	495.2
704.442	497.2
704.847	492.4
705.274	496.8
705.68	507.2
706.086	505
706.492	488
706.92	502.2
707.326	502.4
707.732	495
708.139	491
708.545	494
708.973	496.6
709.38	497.8
709.786	486.4
710.193	505
710.6	488.4
711.028	490.4
711.435	502.8
711.842	496.6
712.249	492.4
712.656	495.8
713.064	497.4
713.492	496.2
713.9	493.8
714.307	507.8
714.715	500.2
715.123	510.8
715.53	497.8
715.938	513
716.367	501.6
716.775	497.6
717.184	495.2
717.592	493.2
718	504.8
718.408	520
718.816	534.2
719.225	497.2
719.633	495.4
720.042	491.2
720.472	490.4
720.881	509.6
721.29	500.2
721.699	489
722.108	501.8
722.517	493
722.926	494.2
723.335	496.4
723.744	492.2
724.154	488.8
724.563	496.8
724.973	492.6
725.382	498.4
725.792	496.8
726.202	485.6
726.612	506.6
727.022	494.2
727.432	495
779.813	490
780.223	531.6
780.634	493.4
781.044	488
781.454	501
781.865	509.8
782.276	493.4
782.686	508.4
783.097	495.6
783.508	491
783.919	502
784.33	505
784.741	508
785.152	488.2
785.563	482
785.974	494.8
786.386	509
786.776	492.2
787.188	494
787.599	489.2
788.011	493
788.423	502.2
788.835	493.8
789.247	488.2
789.659	489.8
790.071	490.2
790.483	525
790.874	487.8
791.286	495.2
791.699	491.6
792.111	492.8
792.524	494.8
792.937	495.2
793.349	479.6
793.741	486
794.154	488.2
794.567	514.4
794.98	497.6
795.393	486.8
795.785	506.4
796.198	487.8
796.612	490.8
797.026	483.8
797.439	479.6
797.831	494.6
798.245	485.2
798.659	491.8
799.073	493
799.487	484.6
799.88	492.8
800.294	481.8
800.708	489.6
801.123	495
801.516	502.8
801.93	485.2
802.345	485.4
802.76	496.2
803.153	501.6
803.568	508.8
803.983	500.8
804.377	500.8
804.792	488.2
805.207	475
805.601	490
806.016	520.6
806.432	481.4
806.826	524.4
807.242	504.8
807.658	499.8
808.052	492.4
808.468	491.8
808.884	485
809.279	493.8
809.695	500.2
810.111	500.4
810.506	492.2
810.922	501.6
811.339	495.8
811.734	493.6
812.151	496.8
812.546	486.8
812.963	494
813.38	493.8
813.776	494.8
814.193	508.8
814.589	484.6
815.006	490.2
815.402	486.2
815.82	487.2
816.237	497.2
816.633	490.6
817.051	489
817.448	497.2
817.866	484
818.262	505
818.68	487.4
819.077	490.2
819.495	486.4
819.892	521.8
820.311	492.6
820.708	499.4
821.127	491.2
821.524	497.6
821.943	494.8
822.34	507.4
822.759	492.2
823.157	484
823.576	498.8
823.974	493.6
824.393	576.6
824.791	487.6
825.189	485
825.609	494
826.007	487.8
826.427	478.6
826.826	490.2
827.246	507.2
827.644	485.4
828.043	502.4
828.463	488.2
828.862	493.8
829.261	495
829.682	483.4
830.081	492
830.502	486.6
830.901	499
831.301	488.2
831.722	487.6
832.121	487.6
832.521	488.2
832.943	495
833.342	491
833.742	490.4
834.164	496
834.564	482.2
834.965	489.2
835.386	492.2
835.787	490
836.188	488.2
836.588	489.6
837.01	492
837.411	485.6
837.812	505.8
838.213	492.6
838.636	488.2
839.037	545.2
839.438	491.6
839.84	497.8
840.263	495.6
840.664	499
841.066	488.6
841.468	497.8
841.891	493.6
842.293	500
842.695	498.4
843.098	497.8
843.5	490.4
843.902	493.2
844.326	502.4
844.729	493.6
845.131	495.8
845.534	498.2
845.937	503.2
846.34	496
846.764	486.4
847.167	487.6
847.571	483.4
847.974	490
848.377	492.4
848.781	531
849.184	509.4
849.588	490.8
849.992	489.8
850.396	492.6
850.821	498.6
851.225	492.2
851.63	490.2
852.034	498
852.438	492.6
852.843	514.6
