#lambda/nm	C1
208.295	462.2
208.67	434.4
209.045	396
209.419	401.2
209.794	531.6
210.169	517.8
210.544	618.6
210.919	537.4
211.295	518
211.67	523
212.045	521.6
212.421	528.4
212.796	559.6
213.172	519.6
213.547	518.6
213.923	519
214.299	519.4
214.675	532
215.051	531.2
215.427	543.6
215.803	537.4
216.179	531
216.555	526.2
216.932	535
217.308	532.6
217.684	529.6
218.061	527
218.438	531.6
218.814	527.2
219.191	533.6
219.568	532.4
219.945	533.8
220.322	535.6
220.699	530.8
221.076	535.2
221.453	530.6
221.83	524.4
222.208	532.4
222.585	520.6
222.962	529.2
223.34	534.6
223.717	527.4
224.095	522.4
224.473	532.2
224.851	517.6
225.229	527
225.607	548
225.985	522.8
226.363	531
226.741	532.2
227.119	524.6
227.497	541.8
227.876	516
228.254	525
228.633	532.6
229.011	527.8
229.39	530.8
229.769	533.4
230.148	533.2
230.527	552.8
230.905	531.2
231.284	534.2
231.664	526
232.043	541.6
232.422	534.6
232.801	523.2
233.181	540.2
233.56	524.8
233.94	530
234.319	510.4
234.699	525.4
235.079	566.4
235.458	556.8
235.838	539.6
236.218	522
236.598	516.6
236.978	513.4
237.358	531.2
237.738	530
238.119	536
238.499	523.4
238.88	522.2
239.26	540
239.641	520.8
240.021	530.6
240.402	531.4
240.783	526.8
241.163	527
241.544	533.6
241.925	530
242.306	541
242.687	529.6
243.069	533
243.45	532
243.831	521.8
244.212	527
244.594	548.8
244.975	535.4
245.357	532.6
245.739	526.2
246.12	534.4
246.502	531.4
246.884	523.4
247.266	531.4
247.648	529.4
248.03	552.4
248.412	531.4
248.794	528.8
249.176	527.6
249.559	530.8
249.941	529.4
250.323	523.6
250.706	519.4
251.089	529.8
251.471	526.8
251.854	522.8
252.237	525
252.62	527.4
253.002	534.2
253.385	528.2
253.769	543.4
254.152	531.2
254.535	536.8
254.918	520.2
255.301	526.6
255.685	525
256.068	520
256.452	544
256.835	540
257.219	528.2
257.603	544.4
257.986	528.4
258.37	526.8
258.754	517.4
259.138	529.2
259.522	531.4
259.906	531.8
260.29	528.8
260.675	532
261.059	526.2
261.443	523.2
261.828	525.4
262.212	534.4
262.597	523.8
262.981	519.6
263.366	535.2
263.751	532.2
264.136	526.4
264.521	533
264.906	521.4
265.291	536.6
265.676	527.6
266.061	541
266.446	544.6
266.831	527.8
267.217	552.4
267.602	533.2
267.987	531.8
268.373	529.2
268.759	534.6
269.144	534.6
269.53	529.8
269.916	523.8
270.302	520.8
270.688	532
271.074	519
271.46	536.2
271.846	554.4
272.232	521
272.618	518.2
273.004	528.2
273.391	530.2
273.777	523.6
274.164	529.2
274.55	538.6
274.937	526.8
275.324	513.8
275.71	530.6
276.097	526.4
276.484	512.2
276.871	526.8
277.258	525.6
277.645	514.4
278.032	524.8
278.419	520.4
278.807	527.8
279.194	516.2
279.581	519
279.969	531.6
280.356	523.2
280.744	523.6
281.131	546
281.519	533
281.907	521.4
282.295	521.4
282.682	535.2
283.07	528.4
283.458	533.2
283.846	533.8
284.235	529.6
284.623	537.4
285.011	518
285.399	533.6
285.788	523.8
286.176	515.2
286.565	536.8
286.953	523.6
287.342	522.8
287.731	516.4
288.119	524.6
288.508	520.4
288.897	525.6
289.286	519.2
289.675	532.8
290.064	538.6
290.453	527.2
290.821	523.8
291.21	539.8
291.599	528.2
291.989	531.6
292.378	532.8
292.768	551.8
293.157	534.4
293.547	534
293.936	529.8
294.326	528.4
294.716	530.4
295.106	528.2
295.496	531
295.886	543.4
296.276	529
296.666	518
297.056	516.8
297.446	516.8
297.836	543.8
298.227	527.8
298.617	531.6
299.008	541
299.398	524.6
299.789	524.2
300.179	534.4
300.57	538.8
300.961	525.4
301.352	524.6
301.742	527
302.133	525.6
302.524	523.8
302.915	529.8
303.307	520.8
303.698	536
304.089	528.6
304.48	531.6
304.872	539.6
305.263	527
305.655	524.6
306.046	529
306.438	533.6
306.829	527.2
307.221	540.8
307.613	531.6
308.005	530.2
308.397	535.2
308.789	540.2
309.181	553.4
309.573	539.4
309.965	540.8
310.357	522.2
310.749	542
311.142	526.6
311.534	524.4
311.926	532.2
312.319	523.8
312.711	523.4
313.104	542.4
313.497	525.8
313.889	561.4
314.282	540.8
314.675	545
315.068	529.6
315.461	536.8
315.854	552.2
316.247	527
316.64	525.4
317.033	531.8
317.405	532.6
317.798	527.6
318.192	538.2
318.585	528.2
318.979	532.6
319.372	518.4
319.766	526.8
320.16	539.8
320.553	547.6
320.947	539.2
321.341	535.6
321.735	531
322.129	516.2
322.523	557.8
322.917	522
323.311	540.8
323.705	536.4
324.099	535.2
324.494	537.4
324.888	535.8
325.282	528.2
325.677	539.6
326.071	540
326.466	536.2
326.861	531.8
327.255	539.8
327.65	536.8
328.045	537
328.44	524.6
328.835	528.8
329.23	523.4
329.625	546.8
330.02	530.4
330.415	536.6
330.81	533.4
331.206	529.4
331.601	525.8
331.996	534.6
332.37	542.8
332.766	521.4
333.161	545.6
333.557	526.6
333.953	522.8
334.348	818.6
334.744	530.6
335.14	525.6
335.536	522.6
335.932	533.6
336.328	527
336.724	527
337.12	533.2
337.516	537
337.913	528.8
338.309	541.4
338.705	530.6
339.102	530.8
339.498	522.2
339.895	530
340.291	524.4
340.688	536.2
341.085	522.4
341.481	522.6
341.878	522.4
342.275	541.4
342.672	522
343.069	520.8
343.466	517.6
343.842	529.6
344.239	528.2
344.636	525.4
345.033	513
345.431	519.6
345.828	526
346.225	517.8
346.623	547.4
347.02	521.8
347.418	532.4
347.816	536.8
348.213	521
348.611	537.6
349.009	518
349.407	526.6
349.805	518.2
350.203	523.6
350.601	535
350.999	532.6
351.397	575.2
351.795	520.8
352.193	531.8
352.57	523.8
352.969	528.2
353.367	518.4
353.766	521.2
354.164	522.8
354.563	532.8
354.961	529
355.36	521.4
355.759	529.2
356.158	518.4
356.557	518
356.956	520.4
357.355	517.4
357.754	532.2
358.153	529.4
358.552	533.6
358.951	521.8
359.35	531.6
359.75	525.8
360.149	517.4
360.527	511.8
360.926	510.4
361.326	519.6
361.726	522.4
362.125	514.4
362.525	533.4
362.925	521.6
363.325	528.4
363.724	520.8
364.124	515.8
364.524	518.6
364.924	526
365.324	531.6
365.725	521.4
366.125	531.2
366.525	523.2
366.904	517
367.304	504
367.705	539.8
368.105	527.4
368.506	527.4
368.906	521.2
369.307	520.6
369.708	524
370.108	503.4
370.509	524.8
370.91	517.8
371.311	519
371.712	514
372.113	513.2
372.514	506.8
372.894	517.6
373.295	511.8
373.696	523.8
374.097	515.2
374.499	542.2
374.9	519.2
375.301	519
375.703	520
376.105	514.4
376.506	516.6
376.908	526.2
377.309	518.6
377.711	522.2
378.113	515.4
378.493	519.4
378.895	520.6
379.297	518.4
379.699	509
380.102	521.6
380.504	520.4
380.906	514.2
381.308	545
381.71	506.4
382.113	528.6
382.515	515.2
382.918	519.6
383.299	517.6
383.701	523.4
384.104	521.2
384.507	504
384.909	517
385.312	511.2
385.715	519
386.118	515.4
386.521	510.8
386.924	525.6
387.327	513.8
387.709	513
388.112	501
388.515	515.8
388.918	514
389.322	527.2
389.725	513.8
390.129	538.2
390.532	523.8
390.936	519.6
391.339	523.6
391.743	526.6
392.125	516.8
392.529	527.4
392.933	529.4
393.337	517.8
393.74	516.2
394.144	527.8
394.548	519
394.953	518.4
395.357	528.6
395.761	516.4
396.144	519.8
396.548	515.8
396.952	518.2
397.357	523.6
397.761	519.2
398.166	521.6
398.57	512
398.975	506
399.379	526.6
399.763	559.8
400.168	513.4
400.572	513.6
400.977	521.2
401.382	542.6
401.787	526.8
402.192	532.2
402.597	540.2
403.002	512.8
403.386	534.8
403.791	533.8
404.197	510.6
404.602	524.2
405.007	522.2
405.413	519.2
405.818	529.6
406.224	518.2
406.608	515.6
407.014	510.2
407.42	526.2
407.825	521.6
408.231	528.6
408.637	522.6
409.043	533.6
409.449	516
409.834	515
410.24	519.6
410.646	537
411.052	530.8
411.458	517.6
411.865	522.6
412.271	529.4
412.677	515
413.062	532.6
413.469	517
413.875	541
414.282	532.6
414.689	527.6
415.095	529.4
415.502	517.8
415.888	526.6
416.294	510.6
416.701	563.2
417.108	514.6
417.515	528
417.923	522.8
418.33	543
418.715	527.2
419.123	518
419.53	515
419.937	519.8
420.345	530.8
420.752	524.2
421.16	532.2
421.546	524.2
421.953	530.6
422.361	519.4
422.769	527.4
423.177	506.2
423.585	540.2
423.992	544.6
424.379	531
424.787	534.6
425.195	535.4
425.603	522.4
426.011	535
426.419	534.6
426.806	524
427.214	519.4
427.623	522.6
428.031	528.2
428.44	524.2
428.848	530.8
429.235	534.4
429.644	520.6
430.053	523.4
430.461	521.6
430.87	544.2
431.279	524
431.666	516.6
432.075	516.2
432.484	525.6
432.893	517.8
433.302	529
433.711	569
434.099	526.6
434.508	528.4
434.918	522.4
435.327	533.8
435.737	530.8
436.125	533.4
436.534	535.8
436.944	541
437.353	545
437.763	562.8
438.173	542.2
438.561	564.2
438.971	553.4
439.381	567.2
439.791	564
440.201	553.6
440.589	573.4
440.999	592
441.409	582.4
441.819	584.4
442.23	604.6
442.619	610.8
443.029	603.4
443.439	615.6
443.85	625.6
444.26	633
444.649	637.8
445.06	634
445.471	633.6
445.881	642
446.292	655.6
446.682	671.6
447.092	641.8
447.503	701
447.914	666.6
448.325	665.6
448.715	671.2
449.126	665.4
449.537	672.2
449.948	681.2
450.338	683.4
450.75	691.2
451.161	695.2
451.572	688.8
451.984	691.8
452.374	669.6
452.786	691.6
453.197	704.8
453.609	706.8
453.999	694.6
454.411	694
454.823	710.8
455.235	706.4
455.647	713.4
456.037	709
456.449	702.2
456.862	721.2
457.274	714
457.665	701.8
458.077	723.8
458.489	746
458.902	722.8
459.293	737.2
459.705	722.6
460.118	728.8
460.53	732.6
460.921	726.8
461.334	744.2
461.747	745.2
462.16	760.8
462.551	754.6
462.964	742.2
463.377	731
463.79	746
464.182	748.4
464.595	753
465.008	754.2
465.421	764.2
465.813	756.8
466.226	767.8
466.64	754.8
467.053	793.8
467.445	776.2
467.859	787.6
468.272	779.6
468.686	793.2
469.078	776.2
469.492	774.8
469.906	778.2
470.298	787.8
470.712	780.2
471.126	802
471.54	766.8
471.933	770.2
472.347	788.8
472.761	779.4
473.175	780.2
473.568	781
473.982	778
474.397	785.4
474.79	793.8
475.204	784
475.619	791.4
476.033	801
476.426	786.6
476.841	782.6
477.256	807.2
477.649	779
478.064	781
478.479	783.6
478.872	786.2
479.287	769.6
479.702	783
480.118	779.4
480.511	781
480.927	782.4
481.342	780.2
481.736	771.8
482.151	785.8
482.566	788.8
482.96	779.8
483.376	790.2
483.792	777
484.186	779
484.602	775.4
485.017	770.2
485.412	788.2
485.827	781
486.243	775.6
486.638	798.6
487.054	789.2
487.47	787.4
487.865	766.2
488.281	770.8
488.697	766.4
489.092	781.6
489.508	771
489.925	777.2
490.32	762.8
490.736	779.2
491.153	757.4
491.548	757.6
491.964	772
492.381	753.4
492.776	766.6
493.193	759.2
493.61	758.8
494.006	760.8
494.422	763.6
494.84	745
495.235	766.2
495.652	749.4
496.069	760.2
496.465	742.4
496.883	746.4
497.3	755.4
497.696	729
498.113	743.6
498.509	725.4
498.927	730.8
499.344	727.8
499.741	725.4
500.158	738.6
500.576	741.4
500.973	726.4
501.39	725
501.787	723.2
502.205	727.6
502.623	712.8
503.02	709
503.438	722
503.856	712
504.253	723.8
504.671	718.4
505.068	707.2
505.486	707.6
505.905	734.6
506.302	708.2
506.72	722.4
507.118	690.2
507.536	702.4
507.955	701.2
508.352	707.6
508.771	702
509.169	698.2
509.587	690.6
510.006	695.2
510.404	680.4
510.823	675.4
511.221	691.8
511.64	677.2
512.038	704.4
512.457	692.4
512.877	681.2
513.275	675.8
513.694	664.6
514.092	679
514.512	675.2
514.91	668
515.33	673.4
515.749	677.6
516.148	667.4
516.568	665.2
516.966	670.4
517.386	658.8
517.785	667
518.205	651.4
518.603	650.8
519.024	652
519.444	652.8
519.843	663
520.263	658.4
520.662	650.8
521.082	650.8
521.481	662.4
521.902	643.4
522.301	641.6
522.722	644.8
523.121	641.6
523.542	636.6
523.963	640.4
524.362	635
524.783	632.8
525.183	631.4
525.604	635.4
526.003	621.4
526.425	620.2
526.824	631.6
527.246	626.2
527.646	628.4
528.067	620.8
528.467	626.8
528.888	627.6
529.289	613.4
529.71	622
530.11	618.8
530.532	611
530.932	611.8
531.354	616
531.755	636.6
532.176	617.2
532.577	607.6
532.999	604.8
533.4	606.4
533.822	611
534.223	605.8
534.645	602.4
535.046	600.4
535.468	602.8
535.869	606.6
536.292	592.8
536.693	621.4
537.115	605.4
537.516	600.4
537.939	597.2
538.34	611.2
538.742	611.4
539.165	599.6
539.566	595.6
539.989	593.8
540.391	592.4
540.814	589.8
541.216	608.2
541.639	597.4
542.041	601.2
542.464	595
542.866	585.8
543.268	586
543.691	592.6
544.093	603.2
544.517	603.2
544.919	585.6
545.343	605.6
545.745	585
546.147	589.4
546.571	581.2
546.974	569.4
547.398	586.2
547.8	594.6
548.224	581.4
548.627	569.6
549.03	579.4
549.454	573
549.857	568.6
550.281	573.8
550.684	579.8
551.087	592.6
551.512	577.2
551.915	578
552.34	578.6
552.743	579.2
553.146	580.2
553.571	562.4
553.975	585.4
554.399	565.6
554.803	603.2
555.207	557.4
555.632	560.4
556.036	562.2
556.461	558
556.865	566.2
557.268	566.8
557.694	559.6
558.098	564
558.502	565.8
558.927	554.4
559.332	552.4
559.736	563.6
560.162	555.2
560.566	552.4
560.992	568
561.396	556.2
561.801	548.2
562.227	551.4
562.631	555.2
563.036	551.4
563.462	549.8
563.867	548.8
564.272	537.6
564.698	549.4
565.103	544.6
565.508	555.8
565.935	552.4
566.34	545
566.745	554.2
567.172	544.6
567.577	565.8
567.982	554
568.409	551.2
568.815	534.4
569.22	544.6
569.626	552.8
570.053	535
570.459	551
570.865	552.8
571.292	550.2
571.698	543.4
572.104	539.4
572.531	547
572.937	546.4
573.343	549.2
573.75	549
574.177	538.2
574.583	541.8
574.99	535.6
575.396	540.2
575.824	537.8
576.231	539.8
576.637	538.6
577.065	557.4
577.472	532.4
577.879	540.4
578.286	553.6
578.714	530.4
579.121	527.6
579.528	535.6
579.935	542.4
580.364	533.6
580.771	529
581.178	528
581.585	539.6
582.014	542.6
582.421	526.6
582.829	535.6
583.236	548.6
583.644	535.6
584.073	530.8
584.481	528
584.889	525.8
585.296	536.8
585.726	533.6
586.134	525.2
586.542	525.8
586.95	540
587.358	520.8
587.787	532
588.196	517.6
588.604	521.8
589.012	531.4
589.421	519.8
589.851	527.2
590.259	530.4
590.668	523.6
591.076	553
591.485	518
591.894	516.6
592.324	536.4
592.733	535
593.142	511.8
593.551	519.2
593.96	524.4
594.369	513.4
594.8	528.4
595.209	527.8
595.618	514
596.028	526.6
596.437	508
596.847	518.6
597.256	518
597.687	523.2
598.097	525.8
598.507	507.6
598.917	526.6
599.327	528.2
599.736	522.2
600.146	529.4
600.556	526.8
600.988	532.4
601.398	519
601.808	529.6
602.219	508
602.629	510.8
603.039	512
603.45	530.6
603.86	514.4
604.271	528.4
604.703	523.2
605.114	516.8
605.525	517.2
605.935	519.6
606.346	539.6
606.757	512.2
607.168	515
607.579	510.2
607.99	527.8
608.402	511.8
608.813	516.2
609.224	509.6
609.636	503.8
610.047	510.4
610.48	511.4
610.892	521.8
611.303	521.2
611.715	511.4
612.127	509
612.539	517.2
612.95	511.8
613.362	505.6
613.774	516.4
614.186	515.6
614.599	513.8
615.011	517.2
615.423	512.4
615.835	509.2
616.248	504
616.66	514.6
617.073	509
617.485	510.2
617.898	518
618.311	512.8
618.723	511
619.136	535.4
619.549	525.4
619.962	532.6
620.375	509.2
620.788	515.2
621.201	504.8
621.614	515.4
622.028	519.4
622.441	511.8
622.854	520.2
623.268	506.4
623.681	514.6
624.095	507.6
624.509	516.4
624.922	521.6
625.336	506
625.728	510.8
626.142	514.4
626.556	524.8
626.97	515.8
627.384	514.4
627.799	513
628.213	521.6
628.627	511.4
629.041	506.2
629.456	508
629.87	517.4
630.285	518.2
630.699	522.6
631.093	510.6
631.507	512.8
631.922	517.6
632.337	521
632.752	502.8
633.167	505
633.582	501.8
633.997	502.4
634.412	507.8
634.806	508.2
635.221	511
635.637	514
636.052	505.4
636.468	506
636.883	531.4
637.299	512.4
637.715	499.6
638.109	513.8
638.525	500.2
638.941	518
639.357	518.2
639.773	522
640.189	500
640.584	511.4
641	521
641.416	496.2
641.832	494.2
642.249	506.2
642.665	505.6
643.06	504.6
643.477	514.8
643.894	498
644.31	498.8
644.727	506.8
645.123	508.8
645.54	503.6
645.957	508.4
646.374	515.2
646.77	497.8
647.187	525.2
647.604	501.4
648.021	489.2
648.439	497.6
648.835	503.4
649.252	507.4
649.67	509
650.088	505.8
650.484	509.2
650.902	513.6
651.32	507
651.738	503
652.134	510.4
652.552	525.4
652.971	502.6
653.389	499.4
653.786	517.2
654.204	514.4
654.622	500.6
655.019	504.8
655.438	508
655.857	507.2
656.275	510.4
656.673	499
657.091	510.8
657.51	495.8
657.908	501.4
658.327	513
658.746	488.8
659.144	499.6
659.563	512
659.982	511.2
660.38	486.8
660.8	494.2
661.219	504.4
661.617	506
662.037	493.2
662.457	510
662.855	484.4
663.275	517.6
663.695	503.6
664.094	502
664.514	501.8
664.934	503
665.333	502.2
665.753	496.2
666.152	492
666.572	494.8
666.993	511.4
667.392	498
667.812	501.4
668.212	491.2
668.632	514.4
669.053	506.4
669.453	507.6
669.874	504.8
670.273	498.4
670.694	497.2
671.116	507.2
671.515	508
671.937	496.6
672.337	500
672.758	492.6
673.158	506.4
673.58	494
673.98	492.6
674.402	504.2
674.824	504.4
675.224	490.2
675.646	486.6
676.047	497.2
676.469	496.6
676.869	502.4
677.292	506.2
677.693	492.8
678.115	496.4
678.516	499.4
678.939	505.8
679.34	503
679.762	516.4
680.164	506.4
680.586	494.6
680.988	507.2
681.411	515.2
681.812	494.4
682.236	492.6
682.637	498
683.061	491.2
683.462	492.8
683.864	497.4
684.288	510.6
684.69	491.2
685.114	503.6
685.516	500.2
685.94	489.6
686.342	504.2
686.766	492.6
687.168	496.4
687.571	512
687.995	504
688.398	493
688.822	490
689.225	514.4
689.628	515
690.052	500.4
690.456	505
690.88	499.4
691.284	496.2
691.687	498.4
692.112	494.6
692.515	501.2
692.919	506.4
693.344	504.8
693.747	496.6
694.173	489
694.577	505.8
694.98	494.2
695.406	493.6
695.81	500.8
696.214	505.6
696.64	500.2
697.044	506.4
697.448	508.6
697.874	497.4
698.279	494.2
698.684	492.2
699.11	484.8
699.514	495.6
699.919	499
700.324	493.8
700.75	495.4
701.156	497.2
701.561	507.6
701.987	499.4
702.393	504.4
702.798	510.8
703.203	499.2
703.63	493
704.036	496.6
704.442	501
704.847	497.6
705.274	494.4
705.68	503
706.086	506.4
706.492	487
706.92	500
707.326	504.6
707.732	494.8
708.139	495.6
708.545	485.6
708.973	494
709.38	501.2
709.786	485
710.193	509.2
710.6	498.2
711.028	485
711.435	493.2
711.842	494
712.249	495.8
712.656	496.2
713.064	507.8
713.492	486.2
713.9	492.2
714.307	502.4
714.715	503
715.123	491.2
715.53	496
715.938	506.6
716.367	492.8
716.775	490.8
717.184	491.6
717.592	495.8
718	504.4
718.408	526
718.816	533.4
719.225	494.4
719.633	496.8
720.042	489.8
720.472	492.6
720.881	513.4
721.29	500
721.699	487.2
722.108	502.2
722.517	494.8
722.926	496.2
723.335	503.6
723.744	499.4
724.154	496.2
724.563	504
724.973	498.4
725.382	494.6
725.792	500.4
726.202	488
726.612	505.8
727.022	497.2
727.432	498.4
779.813	487
780.223	535.6
780.634	493.8
781.044	486.8
781.454	488.6
781.865	514.2
782.276	489
782.686	505.2
783.097	498.6
783.508	500.6
783.919	503.6
784.33	502.4
784.741	506.4
785.152	495
785.563	480.2
785.974	492.4
786.386	507.4
786.776	494.6
787.188	493.6
787.599	492
788.011	508.2
788.423	493
788.835	488.8
789.247	487.2
789.659	487.6
790.071	492.8
790.483	525.4
790.874	490.2
791.286	497
791.699	496.8
792.111	492.2
792.524	500.2
792.937	493.8
793.349	490
793.741	495.2
794.154	498.2
794.567	515.4
794.98	495.4
795.393	489.2
795.785	507
796.198	487.6
796.612	491.8
797.026	488.8
797.439	482.8
797.831	491.4
798.245	485.4
798.659	495.4
799.073	491.2
799.487	501.4
799.88	493.2
800.294	494.8
800.708	501.4
801.123	500.4
801.516	512.6
801.93	493
802.345	479
802.76	487
803.153	505.2
803.568	509.2
803.983	503.8
804.377	489.4
804.792	481.6
805.207	478.8
805.601	494.8
806.016	511.4
806.432	485.8
806.826	508.6
807.242	497.4
807.658	488.2
808.052	481
808.468	484.6
808.884	483.8
809.279	487.8
809.695	511.4
810.111	499.2
810.506	486.4
810.922	509
811.339	486.4
811.734	496.6
812.151	493.8
812.546	487.2
812.963	483.4
813.38	493.4
813.776	490.2
814.193	514
814.589	488.2
815.006	487.2
815.402	491
815.82	492.4
816.237	493
816.633	494.4
817.051	479.6
817.448	492.2
817.866	480.8
818.262	507.6
818.68	485.8
819.077	489.2
819.495	492
819.892	528
820.311	482
820.708	483.4
821.127	489.8
821.524	500
821.943	499.6
822.34	497.6
822.759	489.6
823.157	495.2
823.576	499.4
823.974	491.8
824.393	581.6
824.791	488
825.189	487.2
825.609	484
826.007	495
826.427	474.6
826.826	493
827.246	490.8
827.644	477.2
828.043	505.8
828.463	486.6
828.862	496
829.261	499.8
829.682	478.8
830.081	494.8
830.502	486.4
830.901	495
831.301	495.6
831.722	483.2
832.121	484.4
832.521	490.8
832.943	489
833.342	489
833.742	483.4
834.164	490
834.564	493
834.965	492.4
835.386	491.2
835.787	491
836.188	494.2
836.588	494.4
837.01	489.4
837.411	484.4
837.812	500.2
838.213	496
838.636	482.8
839.037	544.6
839.438	495.8
839.84	493.8
840.263	491.8
840.664	490.6
841.066	493
841.468	494
841.891	490.6
842.293	499
842.695	500.8
843.098	492.6
843.5	483.2
843.902	490.4
844.326	496.2
844.729	491.8
845.131	497.6
845.534	492.2
845.937	503
846.34	506.2
846.764	486.4
847.167	496.2
847.571	485
847.974	491.2
848.377	490.2
848.781	528.4
849.184	495.8
849.588	496
849.992	493
850.396	503.6
850.821	508.4
851.225	494.8
851.63	485.4
852.034	510.2
852.438	492.4
852.843	559
853.247	482.6
853.652	484.6
854.057	513.2
854.462	491.6
854.867	493
855.272	514.4
855.677	500
