#lambda/nm	C1
208.295	460
208.67	433.8
209.045	389.4
209.419	401.2
209.794	529.2
210.169	521.8
210.544	623.4
210.919	534
211.295	524.6
211.67	525.8
212.045	525.8
212.421	523.2
212.796	557.6
213.172	521.2
213.547	529.6
213.923	528.2
214.299	520.2
214.675	529
215.051	531.4
215.427	538.8
215.803	546.4
216.179	531.4
216.555	524.2
216.932	533.2
217.308	529.6
217.684	530.8
218.061	534.8
218.438	530.4
218.814	527
219.191	541.4
219.568	523.4
219.945	530.4
220.322	534
220.699	529.4
221.076	541.4
221.453	533.2
221.83	514.2
222.208	522.2
222.585	517.6
222.962	533
223.34	536
223.717	530.4
224.095	526.6
224.473	537.6
224.851	518
225.229	520.8
225.607	538
225.985	528.4
226.363	532.4
226.741	531.6
227.119	527.4
227.497	531.2
227.876	516.6
228.254	539.2
228.633	537.8
229.011	529.4
229.39	530.8
229.769	525.4
230.148	530.6
230.527	541.6
230.905	531.4
231.284	528.2
231.664	518.4
232.043	540.8
232.422	532.6
232.801	521.6
233.181	531.2
233.56	531.6
233.94	533.4
234.319	515.2
234.699	529.4
235.079	561
235.458	555.2
235.838	541.4
236.218	517.6
236.598	519.4
236.978	518
237.358	520.6
237.738	521.2
238.119	528.2
238.499	525.6
238.88	528.4
239.26	539.4
239.641	517.6
240.021	531.4
240.402	532.6
240.783	526.4
241.163	526
241.544	524
241.925	524
242.306	536
242.687	522.2
243.069	523
243.45	534.8
243.831	520
244.212	520.2
244.594	547.8
244.975	527.6
245.357	526.6
245.739	513.4
246.12	518.4
246.502	535.4
246.884	520
247.266	514.6
247.648	526.8
248.03	543.6
248.412	527
248.794	531.8
249.176	517.2
249.559	526.4
249.941	525.4
250.323	521.8
250.706	528.2
251.089	526.8
251.471	530.4
251.854	531.2
252.237	531.4
252.62	533.2
253.002	533.2
253.385	530
253.769	540.8
254.152	531.6
254.535	539.2
254.918	520.4
255.301	525.8
255.685	523.8
256.068	514
256.452	549.2
256.835	532.2
257.219	532.6
257.603	532.4
257.986	513.6
258.37	522.2
258.754	519.6
259.138	530
259.522	530.8
259.906	532.8
260.29	528.2
260.675	526.2
261.059	525.6
261.443	522
261.828	525.2
262.212	530.4
262.597	513
262.981	522.6
263.366	534
263.751	534.6
264.136	521.4
264.521	526.4
264.906	523.4
265.291	541.6
265.676	524.6
266.061	528.2
266.446	546.4
266.831	523.6
267.217	543.8
267.602	532
267.987	531.8
268.373	528.6
268.759	540.4
269.144	531.4
269.53	536.4
269.916	525.4
270.302	521.8
270.688	530.6
271.074	534.8
271.46	535.4
271.846	551.6
272.232	525.8
272.618	524.8
273.004	530.4
273.391	530
273.777	535
274.164	530.2
274.55	535.8
274.937	533.8
275.324	529.2
275.71	532.8
276.097	530.2
276.484	524
276.871	540.2
277.258	532.6
277.645	523
278.032	534
278.419	531.6
278.807	527.4
279.194	523.6
279.581	524.4
279.969	529.2
280.356	538.8
280.744	535
281.131	545.6
281.519	539.2
281.907	529.4
282.295	525.8
282.682	544.6
283.07	532.6
283.458	536.4
283.846	535.6
284.235	527.8
284.623	536.2
285.011	526.6
285.399	530
285.788	530
286.176	519.8
286.565	534.4
286.953	528.6
287.342	523.4
287.731	523.4
288.119	523.6
288.508	516
288.897	527.8
289.286	516.4
289.675	524.2
290.064	530.4
290.453	526.6
290.821	520.6
291.21	539.8
291.599	525.8
291.989	523.6
292.378	526.6
292.768	539
293.157	525.6
293.547	541
293.936	527.8
294.326	526.8
294.716	530
295.106	525.4
295.496	532.8
295.886	535
296.276	538.2
296.666	514.2
297.056	526.4
297.446	516.8
297.836	542.2
298.227	530.4
298.617	527.6
299.008	542.8
299.398	528.2
299.789	524.6
300.179	532.4
300.57	540.4
300.961	533.2
301.352	524.4
301.742	530
302.133	532.2
302.524	526
302.915	529
303.307	519.2
303.698	531
304.089	530.6
304.48	526
304.872	529.4
305.263	532.2
305.655	512.4
306.046	530
306.438	530.4
306.829	520
307.221	541.6
307.613	523.4
308.005	537.8
308.397	543.8
308.789	540
309.181	551.2
309.573	535
309.965	531.8
310.357	521.6
310.749	540
311.142	520.2
311.534	520.8
311.926	531.8
312.319	525.8
312.711	522.8
313.104	540.6
313.497	534.2
313.889	564.6
314.282	538.2
314.675	551.2
315.068	536.2
315.461	537.4
315.854	555.8
316.247	535.8
316.64	533
317.033	526.4
317.405	543.8
317.798	532
318.192	536.8
318.585	523.4
318.979	533.4
319.372	532
319.766	530.2
320.16	529.4
320.553	548.2
320.947	539.2
321.341	530.8
321.735	528.8
322.129	520.6
322.523	552.8
322.917	527
323.311	540
323.705	523.2
324.099	536
324.494	540.8
324.888	543.8
325.282	526.2
325.677	537.6
326.071	526.6
326.466	540.6
326.861	532
327.255	536.2
327.65	545
328.045	541.8
328.44	533.2
328.835	534.6
329.23	529.8
329.625	538.8
330.02	525.2
330.415	543.6
330.81	528.8
331.206	528
331.601	528
331.996	535.8
332.37	548.2
332.766	523
333.161	546
333.557	528.6
333.953	530
334.348	813.6
334.744	527.8
335.14	520
335.536	523.8
335.932	534.8
336.328	523.6
336.724	539.6
337.12	518.4
337.516	525.8
337.913	531
338.309	532.2
338.705	522.6
339.102	534.2
339.498	515.4
339.895	533.6
340.291	520.8
340.688	530.4
341.085	514.8
341.481	518.8
341.878	521.2
342.275	534
342.672	522.2
343.069	518.8
343.466	511
343.842	528.6
344.239	518.4
344.636	525
345.033	522.8
345.431	517
345.828	520.8
346.225	512.2
346.623	548
347.02	522.2
347.418	522.2
347.816	530.8
348.213	517.8
348.611	520.4
349.009	519
349.407	536.6
349.805	514
350.203	515
350.601	534
350.999	525.2
351.397	559.8
351.795	527
352.193	536
352.57	539.2
352.969	530.6
353.367	525.8
353.766	516.2
354.164	527.6
354.563	535.8
354.961	523.4
355.36	520.4
355.759	527.2
356.158	518
356.557	520.4
356.956	516.6
357.355	517.2
357.754	527.2
358.153	532.6
358.552	546
358.951	522.6
359.35	531
359.75	516.6
360.149	508
360.527	511.8
360.926	510.4
361.326	528.6
361.726	522.2
362.125	514.2
362.525	523.2
362.925	525.6
363.325	521.4
363.724	524.8
364.124	515.2
364.524	518.4
364.924	519.6
365.324	531.4
365.725	510.8
366.125	526
366.525	523
366.904	525.2
367.304	510.6
367.705	523
368.105	537.8
368.506	527.4
368.906	518.8
369.307	523.4
369.708	523.6
370.108	521.6
370.509	527.6
370.91	520.8
371.311	523.2
371.712	520.6
372.113	520.8
372.514	510.6
372.894	523.2
373.295	513.8
373.696	529.2
374.097	525
374.499	551.6
374.9	528.4
375.301	515.4
375.703	523.8
376.105	516.8
376.506	522.4
376.908	531.2
377.309	523
377.711	518.8
378.113	519.2
378.493	522.2
378.895	521.4
379.297	525.2
379.699	508.4
380.102	521.6
380.504	519.4
380.906	523.8
381.308	542.4
381.71	520.4
382.113	530
382.515	526.4
382.918	516
383.299	512
383.701	528
384.104	514.6
384.507	507.8
384.909	511.4
385.312	516.8
385.715	514.6
386.118	522.4
386.521	509.4
386.924	530.6
387.327	511
387.709	505.6
388.112	509.6
388.515	514.6
388.918	515.2
389.322	517.6
389.725	519.2
390.129	542.6
390.532	518.6
390.936	518.8
391.339	506.2
391.743	514
392.125	514
392.529	528.8
392.933	531.4
393.337	526.2
393.74	514.4
394.144	517.6
394.548	518.4
394.953	521.4
395.357	519.2
395.761	517.8
396.144	515.8
396.548	520.4
396.952	519.4
397.357	521.4
397.761	515
398.166	517.4
398.57	510.8
398.975	512
399.379	520
399.763	562.2
400.168	525.2
400.572	511.8
400.977	508.8
401.382	529.4
401.787	527.6
402.192	534
402.597	529
403.002	503.6
403.386	526.6
403.791	541.6
404.197	508
404.602	518
405.007	521.6
405.413	517.8
405.818	517.4
406.224	513.8
406.608	515.2
407.014	511
407.42	538.6
407.825	517.6
408.231	520.4
408.637	522.2
409.043	526.8
409.449	509.8
409.834	519
410.24	524.6
410.646	529.4
411.052	530.6
411.458	520.2
411.865	518.6
412.271	527.4
412.677	528
413.062	524.6
413.469	513
413.875	541.6
414.282	524.4
414.689	524
415.095	520.8
415.502	512.8
415.888	524.8
416.294	513.8
416.701	559.8
417.108	518.6
417.515	529.4
417.923	519
418.33	535.6
418.715	528.4
419.123	522.4
419.53	523.4
419.937	524.8
420.345	533.6
420.752	523.8
421.16	528
421.546	522.8
421.953	526.8
422.361	513
422.769	526
423.177	519.6
423.585	534.6
423.992	526.2
424.379	536.2
424.787	526.2
425.195	540.2
425.603	523.4
426.011	531
426.419	536.2
426.806	522.2
427.214	530.6
427.623	529.6
428.031	536.4
428.44	528.6
428.848	526.2
429.235	533.2
429.644	522.2
430.053	523.2
430.461	536.2
430.87	542
431.279	530.8
431.666	519.4
432.075	523.2
432.484	532.8
432.893	530.6
433.302	536.8
433.711	559.6
434.099	534.2
434.508	534.2
434.918	532.6
435.327	545.6
435.737	550.4
436.125	547
436.534	558.6
436.944	558.4
437.353	557.2
437.763	580.4
438.173	578.6
438.561	586.8
438.971	574.8
439.381	591.2
439.791	590.8
440.201	588.8
440.589	610.4
440.999	615.4
441.409	627.8
441.819	616.8
442.23	640
442.619	646.6
443.029	635.2
443.439	647
443.85	660.8
444.26	678
444.649	660.8
445.06	663.2
445.471	670.4
445.881	676.2
446.292	694.2
446.682	696.8
447.092	683.4
447.503	737
447.914	698.4
448.325	693
448.715	698.2
449.126	701.4
449.537	702.8
449.948	705.8
450.338	712.8
450.75	724.6
451.161	730.2
451.572	728.6
451.984	716.2
452.374	709.2
452.786	720
453.197	735.4
453.609	730.4
453.999	725.2
454.411	728.6
454.823	750.8
455.235	742.6
455.647	740
456.037	756.4
456.449	734.4
456.862	743.8
457.274	746
457.665	741.4
458.077	755.4
458.489	779.6
458.902	745.2
459.293	758.2
459.705	760.4
460.118	747.4
460.53	746.6
460.921	761.6
461.334	766.6
461.747	763
462.16	783.8
462.551	771
462.964	775.8
463.377	751.2
463.79	771.2
464.182	774.6
464.595	774.8
465.008	767.8
465.421	786.2
465.813	776.8
466.226	797
466.64	774.6
467.053	818
467.445	799.6
467.859	796.2
468.272	782
468.686	803
469.078	798.8
469.492	799
469.906	802.6
470.298	789.4
470.712	783
471.126	817.8
471.54	785.4
471.933	794.8
472.347	802
472.761	800.4
473.175	779.4
473.568	793.2
473.982	784.6
474.397	789
474.79	801.4
475.204	798.4
475.619	791.4
476.033	801.4
476.426	790.4
476.841	784.4
477.256	812.8
477.649	786.2
478.064	785.8
478.479	786.4
478.872	791.6
479.287	775.4
479.702	780.6
480.118	776.4
480.511	787.8
480.927	793.4
481.342	784.8
481.736	787.8
482.151	786.4
482.566	784.6
482.96	780.2
483.376	790.6
483.792	782.4
484.186	790.2
484.602	776
485.017	777.4
485.412	772.2
485.827	778.2
486.243	774
486.638	789.4
487.054	771.2
487.47	783.4
487.865	764.2
488.281	769.2
488.697	763.8
489.092	763.6
489.508	760.6
489.925	779.4
490.32	760.6
490.736	763
491.153	764.6
491.548	756
491.964	768
492.381	743.8
492.776	752.6
493.193	753.8
493.61	758.4
494.006	746
494.422	759.8
494.84	737.4
495.235	752.4
495.652	744
496.069	753.6
496.465	731.8
496.883	743
497.3	753.2
497.696	735
498.113	737.2
498.509	724.6
498.927	714
499.344	720
499.741	711.8
500.158	724.6
500.576	727.4
500.973	726.4
501.39	709.8
501.787	706.2
502.205	724.8
502.623	714.2
503.02	701.4
503.438	705.4
503.856	711.6
504.253	709
504.671	708.4
505.068	703.2
505.486	704.8
505.905	716.4
506.302	711.4
506.72	707.4
507.118	691.6
507.536	695.4
507.955	692.6
508.352	698.6
508.771	695.2
509.169	695.6
509.587	675.6
510.006	685.2
510.404	667.2
510.823	675.4
511.221	680.2
511.64	679.8
512.038	687.6
512.457	685.4
512.877	682.6
513.275	671.2
513.694	668.8
514.092	661.6
514.512	673.8
514.91	670.8
515.33	660.4
515.749	663.2
516.148	664.2
516.568	665.6
516.966	654
517.386	658.4
517.785	653
518.205	647.6
518.603	649
519.024	638.2
519.444	645
519.843	659.8
520.263	650.4
520.662	651
521.082	642
521.481	649.2
521.902	638
522.301	645.6
522.722	637.2
523.121	638.4
523.542	625.8
523.963	636.8
524.362	631.4
524.783	642
525.183	629.2
525.604	633.4
526.003	630.4
526.425	624.6
526.824	630.4
527.246	632.2
527.646	622.6
528.067	621.6
528.467	619.4
528.888	622.4
529.289	633.8
529.71	616.8
530.11	604.8
530.532	616.4
530.932	609.4
531.354	599
531.755	636.6
532.176	606.4
532.577	602
532.999	608.2
533.4	606.6
533.822	602.6
534.223	592.8
534.645	586.6
535.046	592.4
535.468	593.4
535.869	606.4
536.292	588
536.693	628.4
537.115	593.8
537.516	585.6
537.939	591
538.34	612.4
538.742	602.8
539.165	592.2
539.566	584.8
539.989	581
540.391	585
540.814	584
541.216	600
541.639	596.6
542.041	598.8
542.464	583.8
542.866	596.4
543.268	574.4
543.691	596.6
544.093	589.2
544.517	599
544.919	581.4
545.343	600.2
545.745	579.2
546.147	585.2
546.571	579.4
546.974	575.2
547.398	585.4
547.8	589.2
548.224	579.2
548.627	569.2
549.03	585.2
549.454	572
549.857	561.4
550.281	569
550.684	576.2
551.087	577.8
551.512	574.6
551.915	572.8
552.34	562.2
552.743	566.6
553.146	563
553.571	566.8
553.975	586.4
554.399	563.4
554.803	593
555.207	561.6
555.632	558.8
556.036	569
556.461	557.8
556.865	559
557.268	555
557.694	557.6
558.098	565.2
558.502	568.2
558.927	559.2
559.332	557.6
559.736	556
560.162	562
560.566	553.6
560.992	565.2
561.396	556.2
561.801	552
562.227	545.4
562.631	553.8
563.036	552
563.462	562.6
563.867	556.4
564.272	543.2
564.698	553.6
565.103	549.6
565.508	564.4
565.935	553
566.34	550.4
566.745	562
567.172	549.8
567.577	563.4
567.982	555.6
568.409	547.2
568.815	535.8
569.22	547.2
569.626	547.2
570.053	533.8
570.459	546.4
570.865	542.8
571.292	542.4
571.698	550.6
572.104	530.2
572.531	536.6
572.937	543
573.343	539.2
573.75	543.2
574.177	540.6
574.583	539.4
574.99	538.8
575.396	543.6
575.824	523.4
576.231	547
576.637	533.6
577.065	555
577.472	533.6
577.879	532.8
578.286	547.4
578.714	531.2
579.121	535.8
579.528	535.6
579.935	547.6
580.364	532
580.771	519.2
581.178	531.8
581.585	536.6
582.014	537.4
582.421	523.6
582.829	518.6
583.236	534
583.644	525.4
584.073	526
584.481	526.8
584.889	527.8
585.296	537.8
585.726	526.8
586.134	521.4
586.542	517.4
586.95	544.6
587.358	520.6
587.787	526.2
588.196	512.4
588.604	519.4
589.012	525
589.421	513
589.851	520.4
590.259	526.4
590.668	524
591.076	555.6
591.485	521.8
591.894	528.2
592.324	527.2
592.733	528.8
593.142	509.2
593.551	525.4
593.96	519
594.369	519.6
594.8	511.8
595.209	517.2
595.618	509.8
596.028	516.6
596.437	508.6
596.847	519
597.256	520.6
597.687	521
598.097	517.6
598.507	510
598.917	521.6
599.327	521.2
599.736	521.2
600.146	524.4
600.556	519.4
600.988	526.8
601.398	518.6
601.808	527.2
602.219	503
602.629	518.8
603.039	512.6
603.45	540
603.86	513.8
604.271	529.6
604.703	516.2
605.114	516.6
605.525	524.4
605.935	508.4
606.346	529.4
606.757	512.6
607.168	506.4
607.579	512.8
607.99	520.4
608.402	519.4
608.813	512.8
609.224	508.2
609.636	498.2
610.047	503.8
610.48	510.2
610.892	525.4
611.303	522.2
611.715	512.6
612.127	511.4
612.539	507.2
612.95	519.4
613.362	508.4
613.774	503.8
614.186	502.6
614.599	507.8
615.011	516.8
615.423	522.4
615.835	519
616.248	505
616.66	514.2
617.073	504.2
617.485	517.2
617.898	520.8
618.311	516.4
618.723	518.8
619.136	539.8
619.549	529.4
619.962	526
620.375	511.4
620.788	510.6
621.201	514.2
621.614	514.6
622.028	512.8
622.441	512.8
622.854	526
623.268	505.6
623.681	512.6
624.095	516.4
624.509	521.2
624.922	518.6
625.336	507
625.728	508.4
626.142	517.2
626.556	527.8
626.97	517.4
627.384	509.2
627.799	511.4
628.213	529.2
628.627	513
629.041	508.8
629.456	501.6
629.87	501.2
630.285	511.6
630.699	518.6
631.093	504.8
631.507	518
631.922	509.2
632.337	521.6
632.752	501.8
633.167	507.6
633.582	511.2
633.997	513.6
634.412	499.4
634.806	509.8
635.221	505.6
635.637	518
636.052	499
636.468	509.4
636.883	525.8
637.299	505.6
637.715	498.4
638.109	509
638.525	498
638.941	519.8
639.357	516
639.773	521.4
640.189	507.4
640.584	510.4
641	516.8
641.416	502.2
641.832	512
642.249	499.8
642.665	505.6
643.06	507.2
643.477	530
643.894	496.8
644.31	508.6
644.727	513.4
645.123	502.6
645.54	496.4
645.957	502.8
646.374	518
646.77	513.4
647.187	531.8
647.604	505.2
648.021	499.6
648.439	498.8
648.835	509.6
649.252	501.2
649.67	511.8
650.088	506.8
650.484	515.2
650.902	511.4
651.32	515.2
651.738	499
652.134	507.6
652.552	520.4
652.971	506.4
653.389	507.4
653.786	517.4
654.204	510.8
654.622	502
655.019	509.8
655.438	513.6
655.857	504.6
656.275	504
656.673	498.6
657.091	513.2
657.51	503.8
657.908	515.6
658.327	514.4
658.746	494.2
659.144	504.2
659.563	510.8
659.982	509
660.38	500.4
660.8	510
661.219	516
661.617	508.4
662.037	497.2
662.457	512.6
662.855	495.2
663.275	524.2
663.695	494.2
664.094	502.6
664.514	503.4
664.934	506.2
665.333	509.4
665.753	501.6
666.152	493.2
666.572	500.4
666.993	512.8
667.392	502.8
667.812	498
668.212	500.6
668.632	506.8
669.053	498.4
669.453	508.6
669.874	508.8
670.273	506.2
670.694	500.2
671.116	511.8
671.515	507.6
671.937	500.6
672.337	501.8
672.758	500.8
673.158	512
673.58	493
673.98	504.6
674.402	506.8
674.824	506.4
675.224	498
675.646	495.8
676.047	496.8
676.469	502
676.869	506.2
677.292	508.6
677.693	500.8
678.115	498.4
678.516	499.4
678.939	510.2
679.34	496.6
679.762	512
680.164	502.6
680.586	499.6
680.988	504.2
681.411	516.8
681.812	499.6
682.236	491.6
682.637	489.6
683.061	492.6
683.462	495.6
683.864	491.4
684.288	503.4
684.69	488
685.114	500.8
685.516	503.6
685.94	490.4
686.342	504.6
686.766	494.2
687.168	493.6
687.571	508.6
687.995	498.6
688.398	484.4
688.822	496.6
689.225	508.4
689.628	509.4
690.052	497.8
690.456	494
690.88	498.6
691.284	492.8
691.687	503.8
692.112	488
692.515	496.8
692.919	494
693.344	497.6
693.747	494.6
694.173	491.6
694.577	510
694.98	496.8
695.406	495
695.81	498.2
696.214	497.2
696.64	505.6
697.044	491.8
697.448	504.6
697.874	494.4
698.279	494.6
698.684	488.4
699.11	491.4
699.514	494.2
699.919	497.6
700.324	488
700.75	501.2
701.156	501.2
701.561	502.8
701.987	498.4
702.393	506.6
702.798	503.2
703.203	496.8
703.63	498.6
704.036	489.8
704.442	500
704.847	496.2
705.274	494
705.68	503.4
706.086	504.2
706.492	493.6
706.92	490.4
707.326	496.4
707.732	497.8
708.139	482.6
708.545	481.4
708.973	493.6
709.38	499
709.786	488
710.193	518.2
710.6	499.4
711.028	493.4
711.435	496.8
711.842	494.8
712.249	483.8
712.656	494.2
713.064	504.2
713.492	490
713.9	493.8
714.307	499
714.715	493.4
715.123	501
715.53	501.6
715.938	505
716.367	500.2
716.775	500.6
717.184	494.4
717.592	494.2
718	501.2
718.408	523
718.816	529.2
719.225	503.8
719.633	492.2
720.042	494.8
720.472	496
720.881	511.4
721.29	494.4
721.699	494
722.108	497.4
722.517	493.8
722.926	487.8
723.335	507.6
723.744	494.8
724.154	485.8
724.563	491.8
724.973	507.2
725.382	500
725.792	498.6
726.202	481
726.612	500
727.022	491.8
727.432	497
779.813	496.6
780.223	525.2
780.634	482
781.044	485.4
781.454	488.8
781.865	502.6
782.276	486
782.686	497.4
783.097	492
783.508	492.4
783.919	502.6
784.33	502.6
784.741	498.6
785.152	489.2
785.563	479.8
785.974	482.6
786.386	498.4
786.776	489.6
787.188	495.4
787.599	491.6
788.011	501.6
788.423	499.4
788.835	486.2
789.247	485.6
789.659	494.4
790.071	489
790.483	529.8
790.874	486.6
791.286	500
791.699	488.6
792.111	493.4
792.524	500.4
792.937	499.4
793.349	486.2
793.741	495.6
794.154	494.8
794.567	511.8
794.98	485.6
795.393	485.2
795.785	507.6
796.198	497
796.612	501.4
797.026	497.6
797.439	485.8
797.831	487.6
798.245	484.8
798.659	493.4
799.073	495.8
799.487	486.4
799.88	502.6
800.294	489.4
800.708	500
801.123	492.8
801.516	512
801.93	487.4
802.345	489
802.76	498
803.153	499.2
803.568	504.6
803.983	504.4
804.377	495.8
804.792	480
805.207	484
805.601	492.8
806.016	514.8
806.432	495.8
806.826	518.4
807.242	499
807.658	497
808.052	491.6
808.468	495.6
808.884	483.4
809.279	490.6
809.695	499
810.111	509.2
810.506	498.2
810.922	516.2
811.339	488.8
811.734	503
812.151	493.8
812.546	492.6
812.963	494
813.38	505.4
813.776	488.8
814.193	507.2
814.589	494.8
815.006	497.4
815.402	483.6
815.82	489.2
816.237	491.4
816.633	499.4
817.051	488
817.448	494.2
817.866	482.8
818.262	511.4
818.68	489.6
819.077	493
819.495	482.8
819.892	532.2
820.311	496.6
820.708	489.4
821.127	488.6
821.524	503.2
821.943	494.6
822.34	497.8
822.759	486.4
823.157	491.4
823.576	505
823.974	500.8
824.393	548.2
824.791	486.6
825.189	481.6
825.609	491.6
826.007	497.6
826.427	483.8
826.826	493.2
827.246	494.2
827.644	481.6
828.043	502.4
828.463	481.8
828.862	499
829.261	497.6
829.682	483
830.081	490.4
830.502	486.4
830.901	494.8
831.301	479
831.722	474.6
832.121	484.6
832.521	483
832.943	485.6
833.342	484
833.742	484.8
834.164	485.8
834.564	483.4
834.965	488.2
835.386	481
835.787	494
836.188	491.6
836.588	491.8
837.01	489.4
837.411	483
837.812	486.8
838.213	487.2
838.636	483.2
839.037	539.6
839.438	488.2
839.84	491.2
840.263	502.2
840.664	494.4
841.066	489.2
841.468	491.2
841.891	490.4
842.293	495.6
842.695	490.6
843.098	503.6
843.5	492.8
843.902	492.8
844.326	494.2
844.729	492.2
845.131	497.6
845.534	492.4
845.937	499
846.34	508.6
846.764	488.8
847.167	491
847.571	489.4
847.974	494.4
848.377	484.4
848.781	528.8
849.184	502.8
849.588	484.4
849.992	490.8
850.396	494.2
850.821	510.4
851.225	489
851.63	487.2
852.034	499.6
852.438	491.2
852.843	550.4
853.247	485.2
853.652	489.8
854.057	508
854.462	497.4
854.867	491.8
