#lambda/nm	C1
208.295	464.8
208.67	433.4
209.045	390.8
209.419	401.8
209.794	534.6
210.169	518
210.544	621
210.919	532
211.295	520.4
211.67	533.4
212.045	523.6
212.421	523.4
212.796	557.8
213.172	521.6
213.547	519.6
213.923	521.6
214.299	522.2
214.675	534.2
215.051	537.6
215.427	542.8
215.803	542.2
216.179	531.2
216.555	510.8
216.932	525.4
217.308	531.8
217.684	527
218.061	532.8
218.438	533.2
218.814	525.4
219.191	539.8
219.568	523.8
219.945	521.2
220.322	532.8
220.699	529.4
221.076	531.8
221.453	541.8
221.83	523.2
222.208	527.8
222.585	524.6
222.962	528.2
223.34	533.8
223.717	535.4
224.095	531.6
224.473	526.4
224.851	525
225.229	519.6
225.607	536.8
225.985	520.2
226.363	530.8
226.741	535.4
227.119	526.6
227.497	542.4
227.876	513
228.254	535.2
228.633	533.2
229.011	536.6
229.39	528.8
229.769	532.4
230.148	533.8
230.527	549.6
230.905	528.6
231.284	538.4
231.664	528.8
232.043	540
232.422	535.4
232.801	532.2
233.181	536.8
233.56	530.2
233.94	527.6
234.319	522.4
234.699	536.4
235.079	554.8
235.458	559.6
235.838	544.4
236.218	530.6
236.598	513.2
236.978	525.4
237.358	530
237.738	527.4
238.119	529.8
238.499	520.6
238.88	523.8
239.26	539
239.641	518.8
240.021	528.4
240.402	529.6
240.783	525.8
241.163	535
241.544	530.8
241.925	533
242.306	537.6
242.687	526.4
243.069	526.8
243.45	536.2
243.831	536.4
244.212	525.4
244.594	551.2
244.975	532
245.357	537.4
245.739	518
246.12	528.2
246.502	541.2
246.884	531.6
247.266	522.8
247.648	534.8
248.03	545.6
248.412	536.4
248.794	531.2
249.176	533.2
249.559	528.4
249.941	512.8
250.323	517.6
250.706	526.2
251.089	522.8
251.471	521.8
251.854	530.4
252.237	533.2
252.62	530.4
253.002	525
253.385	533.8
253.769	540
254.152	527
254.535	532
254.918	519.2
255.301	527.4
255.685	532
256.068	518.8
256.452	551
256.835	533.2
257.219	532.6
257.603	538.2
257.986	528.2
258.37	534.6
258.754	518.6
259.138	527
259.522	536.6
259.906	529.8
260.29	532.4
260.675	526.6
261.059	526
261.443	513.6
261.828	523.4
262.212	523.2
262.597	520.6
262.981	524
263.366	539
263.751	531.2
264.136	522.6
264.521	527.4
264.906	523.4
265.291	539.2
265.676	532
266.061	529.8
266.446	538.4
266.831	531.4
267.217	533.2
267.602	530.4
267.987	537.6
268.373	527
268.759	531.8
269.144	535.6
269.53	529
269.916	525.4
270.302	526.2
270.688	528.4
271.074	527.4
271.46	542.2
271.846	554.2
272.232	526.2
272.618	524.8
273.004	532.4
273.391	533.2
273.777	535.4
274.164	532
274.55	544.2
274.937	527.8
275.324	529.2
275.71	532.4
276.097	539
276.484	522.8
276.871	534.8
277.258	533.8
277.645	522.6
278.032	529.6
278.419	525.6
278.807	531.6
279.194	527.2
279.581	523.2
279.969	533.2
280.356	527
280.744	521.6
281.131	558
281.519	538
281.907	531.4
282.295	529
282.682	538.4
283.07	531.8
283.458	528.4
283.846	540.8
284.235	532.6
284.623	534.4
285.011	519.2
285.399	540.2
285.788	523.6
286.176	516.4
286.565	536.4
286.953	522
287.342	519.8
287.731	516
288.119	530.6
288.508	523.4
288.897	526
289.286	517
289.675	526.8
290.064	532.8
290.453	525.2
290.821	528
291.21	542
291.599	522
291.989	525.8
292.378	532.8
292.768	539.6
293.157	528.8
293.547	534.4
293.936	523.2
294.326	520.4
294.716	535.4
295.106	530.2
295.496	535.2
295.886	531.6
296.276	523.6
296.666	524.8
297.056	530.4
297.446	519.8
297.836	542.6
298.227	527.8
298.617	529
299.008	531.4
299.398	528.6
299.789	528
300.179	525
300.57	547.4
300.961	528.2
301.352	523.8
301.742	533.8
302.133	523.8
302.524	530.4
302.915	533
303.307	527.6
303.698	536.4
304.089	536.8
304.48	528.8
304.872	528.2
305.263	537.6
305.655	526.6
306.046	539.4
306.438	529.6
306.829	524.6
307.221	534.4
307.613	534
308.005	532.4
308.397	534.2
308.789	549.8
309.181	539.6
309.573	545
309.965	542.2
310.357	524.8
310.749	544.4
311.142	521.8
311.534	521.6
311.926	534.4
312.319	529.4
312.711	526.8
313.104	536.2
313.497	527
313.889	561.4
314.282	538.8
314.675	547
315.068	532.4
315.461	538.4
315.854	561.8
316.247	533.8
316.64	528.8
317.033	533.4
317.405	533.4
317.798	529
318.192	532.2
318.585	531
318.979	524.8
319.372	525.4
319.766	528
320.16	544.2
320.553	538.2
320.947	547
321.341	528.6
321.735	535.2
322.129	516.6
322.523	550.4
322.917	526
323.311	542.6
323.705	528.2
324.099	525.4
324.494	538.6
324.888	538
325.282	524.8
325.677	536.8
326.071	530.6
326.466	533
326.861	530
327.255	543.2
327.65	541.6
328.045	539
328.44	530.2
328.835	535.8
329.23	512.8
329.625	547
330.02	533.4
330.415	547.6
330.81	533.8
331.206	535.6
331.601	530.2
331.996	534.6
332.37	546
332.766	523
333.161	546
333.557	524.8
333.953	528.6
334.348	807.2
334.744	527.2
335.14	525
335.536	520.8
335.932	538.2
336.328	530.2
336.724	541
337.12	527.6
337.516	535.2
337.913	524.6
338.309	544
338.705	529.6
339.102	537.4
339.498	526.2
339.895	539
340.291	524.8
340.688	529.4
341.085	519.8
341.481	528
341.878	532.8
342.275	540
342.672	531.2
343.069	527.4
343.466	522.2
343.842	537
344.239	522.8
344.636	524.4
345.033	519.8
345.431	521.6
345.828	525.6
346.225	529.4
346.623	552
347.02	513.2
347.418	534.6
347.816	538
348.213	519.6
348.611	532
349.009	522.2
349.407	539.6
349.805	521.8
350.203	514.6
350.601	541
350.999	516.2
351.397	562
351.795	527.6
352.193	532.2
352.57	529.6
352.969	525.2
353.367	517.6
353.766	522.2
354.164	532.6
354.563	529.8
354.961	529.8
355.36	519
355.759	522.6
356.158	519
356.557	516.6
356.956	512.2
357.355	520
357.754	525.4
358.153	520.8
358.552	530.6
358.951	519
359.35	527.2
359.75	514.2
360.149	524
360.527	508.8
360.926	520.4
361.326	522.6
361.726	520.4
362.125	518.4
362.525	523.4
362.925	519.8
363.325	519.6
363.724	528.4
364.124	520.4
364.524	522.2
364.924	525.6
365.324	532.2
365.725	518.4
366.125	529
366.525	526
366.904	511
367.304	507.6
367.705	537.4
368.105	534.4
368.506	527.6
368.906	517.2
369.307	520.8
369.708	528.4
370.108	515
370.509	531.6
370.91	518.8
371.311	526.2
371.712	524.2
372.113	521.2
372.514	511.4
372.894	510.2
373.295	515.4
373.696	528.2
374.097	525
374.499	545.6
374.9	516.4
375.301	515
375.703	519
376.105	523.6
376.506	520.8
376.908	522
377.309	517.2
377.711	522.8
378.113	518
378.493	528.6
378.895	526.2
379.297	528
379.699	508.6
380.102	522
380.504	527.6
380.906	513
381.308	544.4
381.71	512.2
382.113	529.8
382.515	517.4
382.918	520.2
383.299	518.4
383.701	525.2
384.104	524
384.507	501.6
384.909	521.2
385.312	509.6
385.715	511.8
386.118	517
386.521	508
386.924	521.6
387.327	514
387.709	516.6
388.112	497.6
388.515	514.6
388.918	517.6
389.322	518
389.725	517.4
390.129	532.8
390.532	523
390.936	514
391.339	514.4
391.743	521.4
392.125	512.2
392.529	534.8
392.933	532.6
393.337	518.2
393.74	520.2
394.144	523
394.548	510.4
394.953	521.8
395.357	529.4
395.761	517.4
396.144	519
396.548	520.2
396.952	520.2
397.357	519.8
397.761	518.2
398.166	515.8
398.57	521.8
398.975	508.4
399.379	521.8
399.763	548.4
400.168	520
400.572	516
400.977	514.2
401.382	536.8
401.787	532.8
402.192	536.2
402.597	532.8
403.002	511.2
403.386	525.2
403.791	533.2
404.197	517.6
404.602	520.6
405.007	529.8
405.413	525
405.818	526.2
406.224	524.6
406.608	520.6
407.014	517.8
407.42	532.6
407.825	518.2
408.231	525.8
408.637	529.2
409.043	526.8
409.449	517.8
409.834	514
410.24	527.4
410.646	529.8
411.052	529
411.458	523.8
411.865	521.4
412.271	521.8
412.677	528.4
413.062	514
413.469	511.4
413.875	537.8
414.282	529.6
414.689	522
415.095	528
415.502	514.8
415.888	527.8
416.294	504.8
416.701	553.4
417.108	516.6
417.515	518.8
417.923	524.6
418.33	540
418.715	527
419.123	516.8
419.53	508.6
419.937	518
420.345	532.8
420.752	516
421.16	533.8
421.546	517
421.953	526.6
422.361	509.4
422.769	528.8
423.177	521.6
423.585	541.8
423.992	532.2
424.379	538.6
424.787	532
425.195	541.2
425.603	526
426.011	532.4
426.419	533.2
426.806	526.6
427.214	526.6
427.623	540.2
428.031	542.8
428.44	531
428.848	540.8
429.235	543.2
429.644	534.8
430.053	542
430.461	555
430.87	566.8
431.279	565.8
431.666	564.8
432.075	580
432.484	595.4
432.893	598.8
433.302	621.4
433.711	657.8
434.099	657.4
434.508	664.4
434.918	677.6
435.327	709.4
435.737	731
436.125	749.6
436.534	771.8
436.944	796
437.353	827.2
437.763	854.8
438.173	870.6
438.561	898
438.971	907
439.381	934
439.791	964.2
440.201	965.6
440.589	995.6
440.999	1033.2
441.409	1039.4
441.819	1052.8
442.23	1093.8
442.619	1102.8
443.029	1130.4
443.439	1145.2
443.85	1151.8
444.26	1172
444.649	1176.4
445.06	1179.6
445.471	1201
445.881	1222.8
446.292	1238.2
446.682	1242.2
447.092	1233.8
447.503	1287.4
447.914	1257
448.325	1264.6
448.715	1286.2
449.126	1268.4
449.537	1282.8
449.948	1276.6
450.338	1292.4
450.75	1291
451.161	1300.8
451.572	1322.4
451.984	1309.6
452.374	1299.2
452.786	1319.6
453.197	1350
453.609	1361.6
453.999	1325.2
454.411	1322
454.823	1348
455.235	1335.2
455.647	1341
456.037	1361
456.449	1335.8
456.862	1344.8
457.274	1355
457.665	1358.6
458.077	1366.4
458.489	1369.6
458.902	1362
459.293	1367.6
459.705	1371.8
460.118	1358
460.53	1366.6
460.921	1381.8
461.334	1371.8
461.747	1380.4
462.16	1393
462.551	1395
462.964	1385.2
463.377	1385.4
463.79	1385
464.182	1406.8
464.595	1385.6
465.008	1394.6
465.421	1395.4
465.813	1397.6
466.226	1380.6
466.64	1376.8
467.053	1423.8
467.445	1392.6
467.859	1404
468.272	1399.4
468.686	1407.2
469.078	1397.4
469.492	1381.6
469.906	1399
470.298	1411.4
470.712	1388.8
471.126	1407.4
471.54	1357.6
471.933	1390.6
472.347	1380.8
472.761	1382.2
473.175	1374
473.568	1375.2
473.982	1365.4
474.397	1345
474.79	1364.4
475.204	1372.8
475.619	1353.4
476.033	1370.6
476.426	1360.2
476.841	1350.6
477.256	1354.2
477.649	1329.2
478.064	1329
478.479	1334.6
478.872	1326.4
479.287	1308.2
479.702	1314.8
480.118	1311
480.511	1308.2
480.927	1302
481.342	1294.4
481.736	1306
482.151	1282
482.566	1289.8
482.96	1281.6
483.376	1280.2
483.792	1270.8
484.186	1286.8
484.602	1270.2
485.017	1256.8
485.412	1260.2
485.827	1254.4
486.243	1256.4
486.638	1274.6
487.054	1249.8
487.47	1256.8
487.865	1241.6
488.281	1225.2
488.697	1212.2
489.092	1217.6
489.508	1211.2
489.925	1209.8
490.32	1183.6
490.736	1211.8
491.153	1182.2
491.548	1199.4
491.964	1187.4
492.381	1164.6
492.776	1173
493.193	1163
493.61	1154.2
494.006	1162.2
494.422	1138
494.84	1125.2
495.235	1151.2
495.652	1129.8
496.069	1138.8
496.465	1116.6
496.883	1130.4
497.3	1142.6
497.696	1100.6
498.113	1108.2
498.509	1091.6
498.927	1085.6
499.344	1090.4
499.741	1084.4
500.158	1091.4
500.576	1064.2
500.973	1061
501.39	1067.6
501.787	1041.4
502.205	1043.6
502.623	1037
503.02	1031.2
503.438	1021.4
503.856	1028
504.253	1009.6
504.671	1019
505.068	1005.2
505.486	1005.4
505.905	1022.4
506.302	1005
506.72	1007.4
507.118	967.6
507.536	989.4
507.955	982.4
508.352	972
508.771	970.2
509.169	970
509.587	945.8
510.006	954
510.404	942.6
510.823	945.2
511.221	945.6
511.64	937.8
512.038	936
512.457	914.8
512.877	914.8
513.275	899.2
513.694	909.6
514.092	903
514.512	896.6
514.91	901.4
515.33	888.6
515.749	901.4
516.148	885.4
516.568	890.2
516.966	879
517.386	882.4
517.785	862.4
518.205	865
518.603	851.8
519.024	863.4
519.444	855.6
519.843	859.8
520.263	850.6
520.662	846
521.082	855.8
521.481	854.6
521.902	838.8
522.301	823.8
522.722	838.4
523.121	816.8
523.542	823.4
523.963	803.8
524.362	808.8
524.783	808.8
525.183	802.4
525.604	802.2
526.003	800.8
526.425	791.8
526.824	789.8
527.246	802.6
527.646	787
528.067	781.6
528.467	776.6
528.888	776
529.289	770.4
529.71	774.2
530.11	754.6
530.532	754.2
530.932	756.6
531.354	756.4
531.755	772.2
532.176	750.4
532.577	741.6
532.999	749.8
533.4	744.2
533.822	745.8
534.223	745
534.645	736.4
535.046	738
535.468	736.4
535.869	752
536.292	726.4
536.693	748.4
537.115	723.2
537.516	712.8
537.939	724.8
538.34	735.4
538.742	724.8
539.165	710
539.566	721.8
539.989	710.8
540.391	711.4
540.814	697
541.216	693.8
541.639	705.8
542.041	711.2
542.464	696.2
542.866	686.6
543.268	683.2
543.691	691.6
544.093	693.4
544.517	701
544.919	684.8
545.343	704.8
545.745	674.2
546.147	673
546.571	673.2
546.974	670
547.398	673.6
547.8	672.2
548.224	671.8
548.627	662.4
549.03	659.8
549.454	641.2
549.857	645
550.281	650
550.684	646.8
551.087	659
551.512	651.8
551.915	654
552.34	647.2
552.743	638.8
553.146	647.4
553.571	646.4
553.975	656.4
554.399	624.6
554.803	673.4
555.207	629
555.632	629
556.036	635.8
556.461	623.6
556.865	627.4
557.268	627.8
557.694	626.8
558.098	630.2
558.502	620.6
558.927	618.2
559.332	619.8
559.736	617
560.162	620.6
560.566	613.8
560.992	619
561.396	621.2
561.801	617.4
562.227	613.8
562.631	605
563.036	612.2
563.462	614
563.867	609.2
564.272	594
564.698	604
565.103	596.4
565.508	615
565.935	602
566.34	603
566.745	611.8
567.172	588.2
567.577	613
567.982	605.6
568.409	592.4
568.815	589.6
569.22	589.8
569.626	598.4
570.053	576
570.459	594.4
570.865	589.4
571.292	588.2
571.698	592.8
572.104	578.4
572.531	577
572.937	590.6
573.343	579.4
573.75	577.4
574.177	576.6
574.583	587.6
574.99	572.4
575.396	578.4
575.824	568.6
576.231	582.2
576.637	575.4
577.065	591.6
577.472	570.8
577.879	568.4
578.286	586.2
578.714	560.6
579.121	563
579.528	574.4
579.935	573.2
580.364	567.2
580.771	558.4
581.178	557.4
581.585	564
582.014	564.8
582.421	551.2
582.829	559.4
583.236	571.4
583.644	552.8
584.073	559.6
584.481	558.4
584.889	548.4
585.296	555.4
585.726	551.6
586.134	552.2
586.542	546.8
586.95	565.2
587.358	545.8
587.787	559
588.196	549
588.604	549.6
589.012	545.4
589.421	543.8
589.851	538
590.259	549.4
590.668	545.6
591.076	575.8
591.485	538.2
591.894	550.8
592.324	555.8
592.733	553.6
593.142	541.6
593.551	546.6
593.96	573
594.369	533.8
594.8	530.6
595.209	545
595.618	525.8
596.028	538.2
596.437	535.8
596.847	531.4
597.256	535.8
597.687	548
598.097	540.2
598.507	524.8
598.917	537.8
599.327	544
599.736	535.4
600.146	544.4
600.556	536.8
600.988	545.4
601.398	529.8
601.808	532.8
602.219	525.2
602.629	538.8
603.039	527.8
603.45	552
603.86	529
604.271	546.2
604.703	530.4
605.114	528
605.525	523
605.935	526.8
606.346	539.6
606.757	525.4
607.168	521.4
607.579	522
607.99	525.4
608.402	522
608.813	529.4
609.224	524.2
609.636	518.8
610.047	513.2
610.48	530.2
610.892	523
611.303	528.8
611.715	518.2
612.127	521.6
612.539	525
612.95	523.8
613.362	511.2
613.774	515.6
614.186	520.6
614.599	514.4
615.011	527
615.423	526.6
615.835	526.2
616.248	522
616.66	520.4
617.073	519.6
617.485	517.8
617.898	523.2
618.311	526.8
618.723	525.8
619.136	548.6
619.549	536
619.962	532.4
620.375	522.8
620.788	528
621.201	510.6
621.614	528.8
622.028	511.6
622.441	529.8
622.854	525.2
623.268	507.6
623.681	514.8
624.095	525
624.509	522.6
624.922	526.6
625.336	507.6
625.728	524
626.142	524.6
626.556	532.2
626.97	516
627.384	514.8
627.799	515.2
628.213	533.6
628.627	512.4
629.041	520.2
629.456	520.6
629.87	520.2
630.285	527.4
630.699	525
631.093	515.4
631.507	522.4
631.922	522.2
632.337	520
632.752	513.2
633.167	516.8
633.582	518.2
633.997	514
634.412	509.2
634.806	519.8
635.221	501
635.637	519.8
636.052	506.6
636.468	515.8
636.883	523.8
637.299	501.8
637.715	501.8
638.109	509.6
638.525	505.2
638.941	524.4
639.357	514.4
639.773	515.6
640.189	512.8
640.584	510.4
641	516
641.416	499.6
641.832	506
642.249	505.2
642.665	515.6
643.06	521
643.477	520
643.894	502.8
644.31	504.4
644.727	499
645.123	509.4
645.54	500.4
645.957	509.2
646.374	520
646.77	506.4
647.187	529
647.604	507.8
648.021	499.8
648.439	502.6
648.835	508.4
649.252	519.6
649.67	499.6
650.088	512.4
650.484	511.4
650.902	508.6
651.32	514.8
651.738	498
652.134	507
652.552	528.6
652.971	514.2
653.389	502.4
653.786	519
654.204	515
654.622	498.8
655.019	506.8
655.438	515.2
655.857	515.2
656.275	508.8
656.673	501.8
657.091	510.6
657.51	497.6
657.908	512.8
658.327	507.2
658.746	499
659.144	510.4
659.563	520.2
659.982	501
660.38	505
660.8	506.4
661.219	519.6
661.617	505.8
662.037	503.8
662.457	520.8
662.855	499
663.275	532.2
663.695	502
664.094	512.2
664.514	508.8
664.934	498.8
665.333	511.8
665.753	501.6
666.152	504.6
666.572	500.6
666.993	516
667.392	500.8
667.812	505.4
668.212	499.8
668.632	514.4
669.053	501.6
669.453	507
669.874	517.2
670.273	508.8
670.694	499.8
671.116	521.2
671.515	514
671.937	505
672.337	494.4
672.758	500.8
673.158	514.8
673.58	488
673.98	501.6
674.402	516.8
674.824	500.6
675.224	501.2
675.646	493.8
676.047	507.2
676.469	500.6
676.869	511.8
677.292	502.2
677.693	490.2
678.115	496.4
678.516	506.6
678.939	504
679.34	498.8
679.762	513.2
680.164	502.4
680.586	492.2
680.988	498.8
681.411	515.6
681.812	497.4
682.236	495.6
682.637	493
683.061	490.8
683.462	498.8
683.864	498
684.288	505.2
684.69	496.2
685.114	508
685.516	509.6
685.94	497.4
686.342	505
686.766	497
687.168	492.8
687.571	518
687.995	502.8
688.398	495
688.822	497.8
689.225	513.2
689.628	518.4
690.052	495.8
690.456	513.6
690.88	502.8
691.284	492.6
691.687	507
692.112	496.2
692.515	496.4
692.919	500.4
693.344	507
693.747	493.8
694.173	501.8
694.577	510.4
694.98	499.4
695.406	493.8
695.81	499
696.214	503.6
696.64	502
697.044	505
697.448	502.4
697.874	499.2
698.279	500.8
698.684	486.8
699.11	489.8
699.514	491.8
699.919	491.4
700.324	494.2
700.75	495.2
701.156	490.6
701.561	505.6
701.987	502.4
702.393	504.6
702.798	504.4
703.203	495.6
703.63	489.6
704.036	492.4
704.442	502
704.847	492.4
705.274	492.8
705.68	499
706.086	499.2
706.492	493.4
706.92	502.4
707.326	509.8
707.732	499
708.139	494
708.545	493.6
708.973	498
709.38	498
709.786	485.6
710.193	511.6
710.6	506.8
711.028	496.6
711.435	502.2
711.842	503.8
712.249	491.4
712.656	496.4
713.064	506
713.492	490.6
713.9	490
714.307	498.8
714.715	497.8
715.123	497
715.53	499.6
715.938	511.6
716.367	500
716.775	503.2
717.184	493.2
717.592	495.8
718	500.8
718.408	520.8
718.816	530.4
719.225	508.2
719.633	498.2
720.042	495.4
720.472	495.8
720.881	507.8
721.29	501.2
721.699	492
722.108	494.8
722.517	494.6
722.926	497.2
723.335	508.2
723.744	498.6
724.154	494.6
724.563	497.8
724.973	508.4
725.382	498
725.792	497.4
726.202	488.6
726.612	509.4
727.022	495.8
727.432	498
779.813	491
780.223	538.6
780.634	499.2
781.044	488.6
781.454	489
781.865	508.6
782.276	496.4
782.686	500.4
783.097	495.8
783.508	490.4
783.919	497.2
784.33	512
784.741	507.4
785.152	492.4
785.563	483.8
785.974	488
786.386	513.4
786.776	490.4
787.188	504
787.599	486
788.011	507.6
788.423	490.6
788.835	495
789.247	488.2
789.659	488.6
790.071	490.4
790.483	532.6
790.874	501.8
791.286	502.2
791.699	496.2
792.111	486.6
792.524	499.2
792.937	489.4
793.349	493.8
793.741	490
794.154	493.8
794.567	506.8
794.98	496
795.393	484.2
795.785	501.2
796.198	490.4
796.612	493.2
797.026	490.6
797.439	487.8
797.831	500.2
798.245	488.2
798.659	485.4
799.073	489
799.487	490
799.88	492.2
800.294	480
800.708	495.6
801.123	495.4
801.516	510.4
801.93	491.6
802.345	492.6
802.76	488.6
803.153	503
803.568	505.8
803.983	505.2
804.377	495.2
804.792	487.2
805.207	486.6
805.601	499
806.016	527.8
806.432	488.2
806.826	521.6
807.242	504.2
807.658	494.6
808.052	499.4
808.468	492
808.884	489.2
809.279	497.8
809.695	499.6
810.111	513.6
810.506	497.6
810.922	510.4
811.339	490.2
811.734	495
812.151	489
812.546	488
812.963	487.8
813.38	498
813.776	492.8
814.193	507.4
814.589	490.6
815.006	490
815.402	488
815.82	494.6
816.237	494.8
816.633	496.2
817.051	493.4
817.448	493.6
817.866	490.2
818.262	510.6
818.68	491.4
819.077	489.2
819.495	487.6
819.892	529.4
820.311	492.2
820.708	495.6
821.127	489.2
821.524	494.8
821.943	497
822.34	504.4
822.759	493.6
823.157	492.8
823.576	501.2
823.974	500
824.393	584.8
824.791	486.8
825.189	487.8
825.609	485.8
826.007	492.4
826.427	472
826.826	477
827.246	494
827.644	483.2
828.043	503.8
828.463	497.6
828.862	490.8
829.261	498.8
829.682	486.6
830.081	496.8
830.502	490.4
830.901	490.6
831.301	491.6
831.722	490.4
832.121	493.4
832.521	488.2
832.943	487.2
833.342	487
833.742	490
834.164	489
834.564	478.8
834.965	490.6
835.386	496.6
835.787	491.8
836.188	495.4
836.588	489.6
837.01	495.4
837.411	488.2
837.812	496
838.213	485
838.636	492
839.037	543.8
839.438	491.6
839.84	487.4
840.263	502.4
840.664	498
841.066	490.6
841.468	495
841.891	487.2
842.293	505.8
842.695	497.8
843.098	506.4
843.5	485.6
843.902	496.4
844.326	490.2
844.729	494.2
845.131	505.2
845.534	489.4
845.937	499.4
846.34	504.6
846.764	493.4
847.167	493.8
847.571	484.4
847.974	489
848.377	493.6
848.781	528.8
849.184	507.4
849.588	486
849.992	488.8
850.396	497.6
850.821	502
851.225	499.4
851.63	490
852.034	504
852.438	481.8
