#lambda/nm	C1
208.295	467.8
208.67	432
209.045	387.6
209.419	397.2
209.794	527.2
210.169	514
210.544	616.4
210.919	530.8
211.295	519
211.67	526.2
212.045	523.8
212.421	524.4
212.796	557.8
213.172	521.4
213.547	527.6
213.923	532
214.299	518
214.675	530.4
215.051	532.6
215.427	536.6
215.803	543.8
216.179	534.4
216.555	525.4
216.932	535.6
217.308	531.6
217.684	528.2
218.061	539.6
218.438	537.8
218.814	527
219.191	535.6
219.568	524.6
219.945	527.8
220.322	539.8
220.699	535
221.076	541.4
221.453	531.8
221.83	522.2
222.208	531.8
222.585	523
222.962	532
223.34	523.2
223.717	526
224.095	524
224.473	518.2
224.851	514.6
225.229	527.2
225.607	537.6
225.985	524.6
226.363	533
226.741	531.2
227.119	531.8
227.497	535.6
227.876	514.6
228.254	531
228.633	530.8
229.011	532.6
229.39	536.2
229.769	527.6
230.148	533.2
230.527	544.8
230.905	535.6
231.284	532
231.664	528
232.043	541.8
232.422	537.2
232.801	523.8
233.181	529
233.56	537.2
233.94	539
234.319	517.2
234.699	522
235.079	562.2
235.458	566.6
235.838	540
236.218	523.4
236.598	514
236.978	523.4
237.358	530
237.738	526.2
238.119	533.4
238.499	521.2
238.88	531
239.26	536.8
239.641	523
240.021	528.8
240.402	527.2
240.783	525.2
241.163	533.6
241.544	529.4
241.925	524
242.306	530.6
242.687	524.6
243.069	530.8
243.45	533.2
243.831	523.4
244.212	523.4
244.594	558.8
244.975	534.6
245.357	529
245.739	528.8
246.12	525.2
246.502	535
246.884	522.6
247.266	525
247.648	529.8
248.03	543
248.412	528.2
248.794	533.8
249.176	522.2
249.559	530.2
249.941	520
250.323	518.2
250.706	515.2
251.089	532
251.471	531.4
251.854	518.4
252.237	527
252.62	534.8
253.002	526.8
253.385	529
253.769	539.2
254.152	533.8
254.535	536.6
254.918	518.2
255.301	525.2
255.685	529.2
256.068	520.8
256.452	548.8
256.835	530.8
257.219	527.2
257.603	539.8
257.986	519.4
258.37	538
258.754	515.6
259.138	530.4
259.522	539.8
259.906	531.2
260.29	528.2
260.675	529
261.059	532
261.443	524
261.828	527.2
262.212	536.6
262.597	517.8
262.981	524
263.366	531.2
263.751	532.8
264.136	527.6
264.521	532.6
264.906	522
265.291	531.6
265.676	530.6
266.061	533.4
266.446	540.8
266.831	526.6
267.217	545.4
267.602	530.6
267.987	527.2
268.373	526.2
268.759	528.6
269.144	532.2
269.53	524.4
269.916	528.6
270.302	522.4
270.688	529.6
271.074	524
271.46	538.2
271.846	548.4
272.232	522
272.618	523.8
273.004	523.6
273.391	539.2
273.777	535.6
274.164	520.6
274.55	542.8
274.937	533
275.324	522.2
275.71	531.6
276.097	534.6
276.484	523.4
276.871	531.6
277.258	528.6
277.645	520.2
278.032	526.6
278.419	517.2
278.807	528.4
279.194	523.2
279.581	526.8
279.969	535.6
280.356	526.4
280.744	530.2
281.131	547.4
281.519	530.4
281.907	530
282.295	523.8
282.682	539.2
283.07	531.6
283.458	531.4
283.846	535.8
284.235	533.4
284.623	533.8
285.011	515.6
285.399	527
285.788	515.2
286.176	516.4
286.565	530.8
286.953	518.6
287.342	521
287.731	523.2
288.119	524.8
288.508	527.2
288.897	528
289.286	522
289.675	528.6
290.064	527.8
290.453	520.6
290.821	523.4
291.21	541.4
291.599	523.4
291.989	524.8
292.378	527.2
292.768	535.8
293.157	529.4
293.547	534.8
293.936	529.2
294.326	528.4
294.716	532.2
295.106	528.8
295.496	535.2
295.886	533.6
296.276	528.4
296.666	521
297.056	529.2
297.446	516.4
297.836	541.8
298.227	527
298.617	537.2
299.008	536
299.398	529.2
299.789	521
300.179	536.8
300.57	532.8
300.961	525.8
301.352	528.4
301.742	541.6
302.133	537
302.524	530.2
302.915	527.4
303.307	521
303.698	532.6
304.089	533.6
304.48	538
304.872	524.4
305.263	532.6
305.655	524.4
306.046	535
306.438	535
306.829	521.6
307.221	536.6
307.613	536
308.005	531.6
308.397	538
308.789	539.6
309.181	543.4
309.573	543.2
309.965	537.8
310.357	528.6
310.749	540.2
311.142	516.6
311.534	525.8
311.926	536
312.319	532.4
312.711	524.8
313.104	539.8
313.497	521.2
313.889	557.8
314.282	546.8
314.675	543
315.068	531.2
315.461	538.8
315.854	545.2
316.247	534
316.64	530.6
317.033	530
317.405	536
317.798	531.2
318.192	535.6
318.585	521.8
318.979	524
319.372	528.4
319.766	524.8
320.16	533
320.553	544.6
320.947	541.6
321.341	523.2
321.735	527.6
322.129	521
322.523	543
322.917	524.2
323.311	542.2
323.705	523
324.099	529
324.494	539.8
324.888	540.6
325.282	530
325.677	538.4
326.071	535.6
326.466	543.8
326.861	536.4
327.255	541.8
327.65	538.4
328.045	542.2
328.44	529.6
328.835	533
329.23	527.8
329.625	544
330.02	525
330.415	537.8
330.81	525.4
331.206	532.2
331.601	524.8
331.996	535
332.37	549.2
332.766	520.6
333.161	543.6
333.557	524
333.953	535
334.348	815.6
334.744	534.6
335.14	528.6
335.536	522
335.932	549
336.328	532
336.724	535.8
337.12	525
337.516	533
337.913	530.2
338.309	537.6
338.705	526
339.102	537.6
339.498	524.6
339.895	535.4
340.291	522
340.688	537.4
341.085	519.6
341.481	521.4
341.878	522.8
342.275	543.2
342.672	515.8
343.069	515.8
343.466	513.8
343.842	535
344.239	521.8
344.636	526.6
345.033	520.6
345.431	515.6
345.828	522.2
346.225	521.8
346.623	547.2
347.02	525.2
347.418	523.8
347.816	537
348.213	521.8
348.611	533.2
349.009	522.6
349.407	534.2
349.805	513.6
350.203	513.2
350.601	533.4
350.999	521
351.397	581
351.795	529
352.193	529.2
352.57	528.6
352.969	532.4
353.367	521.6
353.766	517.6
354.164	532.6
354.563	531.8
354.961	526.4
355.36	519.6
355.759	530.4
356.158	515
356.557	518.6
356.956	515.4
357.355	517.6
357.754	530.2
358.153	526.4
358.552	546
358.951	519.6
359.35	537.2
359.75	516.4
360.149	518.8
360.527	513
360.926	513.6
361.326	522.4
361.726	523.2
362.125	518
362.525	526
362.925	515.2
363.325	522.6
363.724	525.6
364.124	507.6
364.524	513.2
364.924	517.2
365.324	524.4
365.725	510.2
366.125	528.4
366.525	522.2
366.904	518.4
367.304	506
367.705	527.6
368.105	531.4
368.506	524
368.906	524.8
369.307	520.2
369.708	525
370.108	511.8
370.509	523.6
370.91	516.2
371.311	518.6
371.712	529
372.113	518
372.514	511
372.894	519.2
373.295	525.8
373.696	528.4
374.097	522.8
374.499	544
374.9	517.8
375.301	509.4
375.703	516.6
376.105	509.6
376.506	512.4
376.908	519.6
377.309	522.6
377.711	515.8
378.113	509.2
378.493	515.2
378.895	525.2
379.297	528
379.699	507.8
380.102	520
380.504	516.2
380.906	509.6
381.308	536.6
381.71	514
382.113	526.6
382.515	514.6
382.918	526.8
383.299	514.6
383.701	524.6
384.104	511.8
384.507	506.2
384.909	524.8
385.312	518
385.715	515.6
386.118	521.6
386.521	506.6
386.924	531
387.327	514.6
387.709	511.8
388.112	509.8
388.515	519.6
388.918	526.4
389.322	518.6
389.725	514.8
390.129	539.8
390.532	535.2
390.936	516.2
391.339	511.2
391.743	519.4
392.125	506.2
392.529	530.8
392.933	531
393.337	513.8
393.74	521.6
394.144	519.2
394.548	519.4
394.953	518.4
395.357	524.4
395.761	515.6
396.144	523.8
396.548	526.4
396.952	513.6
397.357	521.2
397.761	510.8
398.166	515.4
398.57	521.4
398.975	509.8
399.379	528
399.763	561.4
400.168	521.8
400.572	515.8
400.977	519
401.382	529.4
401.787	523.6
402.192	534.6
402.597	527.2
403.002	507.2
403.386	529.8
403.791	531.2
404.197	512.6
404.602	518
405.007	514.4
405.413	523.6
405.818	525
406.224	514.6
406.608	519.4
407.014	511
407.42	527.4
407.825	520.4
408.231	525.8
408.637	516.8
409.043	532.8
409.449	516.6
409.834	518
410.24	524
410.646	533.4
411.052	526.2
411.458	520.6
411.865	529.4
412.271	526.2
412.677	520.2
413.062	521.2
413.469	510
413.875	533.8
414.282	526
414.689	522.6
415.095	529
415.502	511.6
415.888	528
416.294	512.6
416.701	551.4
417.108	515
417.515	527
417.923	523.2
418.33	532.2
418.715	529.6
419.123	511.6
419.53	519
419.937	518.2
420.345	524.4
420.752	521
421.16	525.2
421.546	523.2
421.953	525.6
422.361	516.6
422.769	522.6
423.177	512.2
423.585	536
423.992	533
424.379	532.8
424.787	536.6
425.195	543.6
425.603	518.2
426.011	529.4
426.419	530.4
426.806	527.2
427.214	529
427.623	533.8
428.031	537.4
428.44	527
428.848	548.4
429.235	552.6
429.644	544.6
430.053	547.4
430.461	563
430.87	578
431.279	574
431.666	573.6
432.075	594.6
432.484	603
432.893	619.2
433.302	638
433.711	676.4
434.099	674.6
434.508	666.8
434.918	688.6
435.327	717.6
435.737	740.8
436.125	761.2
436.534	775.4
436.944	796.6
437.353	811.2
437.763	847.8
438.173	832.2
438.561	863.4
438.971	854.6
439.381	904.8
439.791	912
440.201	926.2
440.589	962.2
440.999	979.6
441.409	993.4
441.819	990.4
442.23	1026.2
442.619	1036
443.029	1043.6
443.439	1054.6
443.85	1079.8
444.26	1085
444.649	1088
445.06	1101
445.471	1104.8
445.881	1114.4
446.292	1140.4
446.682	1151
447.092	1143
447.503	1190.6
447.914	1154.8
448.325	1154.6
448.715	1169.8
449.126	1170.6
449.537	1185.8
449.948	1183.6
450.338	1197.4
450.75	1208
451.161	1211.2
451.572	1213.2
451.984	1213.8
452.374	1206.8
452.786	1221.6
453.197	1235.6
453.609	1231
453.999	1209.6
454.411	1230.8
454.823	1235.2
455.235	1232
455.647	1227.4
456.037	1229.8
456.449	1230
456.862	1233.8
457.274	1234.8
457.665	1229.2
458.077	1235
458.489	1276.2
458.902	1253.8
459.293	1245.4
459.705	1233.2
460.118	1236
460.53	1223.2
460.921	1252.8
461.334	1256.2
461.747	1261
462.16	1274
462.551	1253.6
462.964	1265.8
463.377	1252.6
463.79	1251.6
464.182	1254.8
464.595	1265.8
465.008	1253.8
465.421	1263.6
465.813	1242.8
466.226	1259
466.64	1251.2
467.053	1279.8
467.445	1279.8
467.859	1272.6
468.272	1271
468.686	1273.8
469.078	1253
469.492	1255.4
469.906	1256
470.298	1262.2
470.712	1254.2
471.126	1272.8
471.54	1243
471.933	1228.6
472.347	1251.6
472.761	1253.6
473.175	1236.6
473.568	1238
473.982	1229.2
474.397	1238.8
474.79	1230.2
475.204	1235.6
475.619	1222.6
476.033	1229.2
476.426	1211.2
476.841	1204.2
477.256	1225.8
477.649	1192.4
478.064	1199.8
478.479	1215
478.872	1193.6
479.287	1193.4
479.702	1188.8
480.118	1197.6
480.511	1177.2
480.927	1172.6
481.342	1176.6
481.736	1179
482.151	1165.6
482.566	1171.6
482.96	1159.8
483.376	1165.2
483.792	1152.6
484.186	1161.2
484.602	1130
485.017	1132.8
485.412	1146.2
485.827	1145.8
486.243	1121.6
486.638	1146.4
487.054	1149.2
487.47	1136.6
487.865	1130.8
488.281	1110.2
488.697	1097
489.092	1096.6
489.508	1089
489.925	1097.2
490.32	1084.2
490.736	1093.4
491.153	1081.4
491.548	1074
491.964	1077.4
492.381	1063.4
492.776	1078.6
493.193	1087.6
493.61	1063
494.006	1046.8
494.422	1059.6
494.84	1039.2
495.235	1043
495.652	1045.6
496.069	1037.8
496.465	1022
496.883	1015.2
497.3	1032.8
497.696	1016.2
498.113	992
498.509	1004.6
498.927	987
499.344	990
499.741	972.8
500.158	977.4
500.576	993.2
500.973	971.4
501.39	962.6
501.787	954
502.205	955.4
502.623	956
503.02	946
503.438	944
503.856	941
504.253	945.8
504.671	935.6
505.068	938.2
505.486	936.2
505.905	945
506.302	920.8
506.72	938
507.118	918
507.536	904.8
507.955	911.4
508.352	913
508.771	900
509.169	897.8
509.587	884.8
510.006	884.4
510.404	888.8
510.823	870.8
511.221	869
511.64	858.2
512.038	876.2
512.457	868.8
512.877	856.6
513.275	853.4
513.694	847.2
514.092	852.2
514.512	861.2
514.91	842.2
515.33	837.4
515.749	838.2
516.148	839.2
516.568	831
516.966	825.6
517.386	802.6
517.785	812.4
518.205	813.4
518.603	803.2
519.024	814.4
519.444	823.4
519.843	800.2
520.263	808
520.662	807.2
521.082	792.2
521.481	790
521.902	785.2
522.301	778
522.722	785.4
523.121	780.4
523.542	774.2
523.963	763.2
524.362	772.8
524.783	768.4
525.183	755
525.604	763.4
526.003	749.4
526.425	742.2
526.824	754
527.246	760
527.646	753.8
528.067	738.6
528.467	744
528.888	733.6
529.289	737.6
529.71	730.4
530.11	730.2
530.532	720.8
530.932	717.2
531.354	713.4
531.755	739
532.176	716
532.577	717.2
532.999	711.6
533.4	699
533.822	714.4
534.223	711.4
534.645	706.2
535.046	705
535.468	695.2
535.869	705.8
536.292	699.8
536.693	714.6
537.115	692.4
537.516	693
537.939	676.2
538.34	693
538.742	704.8
539.165	689.8
539.566	680.4
539.989	663
540.391	674.6
540.814	671
541.216	687.8
541.639	669
542.041	679.2
542.464	668.6
542.866	665
543.268	654.4
543.691	669.2
544.093	666.2
544.517	676
544.919	657.8
545.343	678.8
545.745	656.8
546.147	658.8
546.571	653.8
546.974	635.4
547.398	653.6
547.8	657.6
548.224	641.6
548.627	638.2
549.03	645.2
549.454	645
549.857	630.6
550.281	629.6
550.684	640.2
551.087	643.6
551.512	637.6
551.915	635.8
552.34	633.4
552.743	630.2
553.146	628.6
553.571	614
553.975	639.2
554.399	613.2
554.803	651.2
555.207	619.6
555.632	614.4
556.036	618
556.461	609.2
556.865	607.8
557.268	605.8
557.694	608.4
558.098	611.4
558.502	616.6
558.927	600.8
559.332	597.6
559.736	613.6
560.162	611
560.566	603.6
560.992	610.6
561.396	611.4
561.801	597.6
562.227	601
562.631	606
563.036	593.2
563.462	602.8
563.867	594.6
564.272	591.6
564.698	593.4
565.103	579
565.508	609.8
565.935	582.8
566.34	587.4
566.745	592
567.172	582
567.577	610.2
567.982	603.6
568.409	582.8
568.815	578.6
569.22	586.6
569.626	595.4
570.053	566.6
570.459	575.6
570.865	578.4
571.292	577.2
571.698	578.2
572.104	563.4
572.531	568.6
572.937	581.2
573.343	569
573.75	562.4
574.177	570.4
574.583	571
574.99	567.6
575.396	574.6
575.824	562.6
576.231	577
576.637	562
577.065	582.8
577.472	567
577.879	564
578.286	576
578.714	557.2
579.121	560.6
579.528	569
579.935	571.2
580.364	556.6
580.771	557.4
581.178	551
581.585	560.2
582.014	560.8
582.421	554.4
582.829	550.8
583.236	559.2
583.644	545
584.073	546
584.481	545.4
584.889	551.8
585.296	553.2
585.726	547.8
586.134	550.4
586.542	543.4
586.95	555.2
587.358	536.4
587.787	543.6
588.196	536.2
588.604	541.6
589.012	543.6
589.421	537
589.851	540.2
590.259	547.2
590.668	539.6
591.076	578.8
591.485	530.4
591.894	542
592.324	542.6
592.733	546.6
593.142	531
593.551	535.8
593.96	534.4
594.369	528.8
594.8	528
595.209	539.4
595.618	522.2
596.028	530
596.437	525.4
596.847	532.2
597.256	532.8
597.687	529.8
598.097	532.2
598.507	519
598.917	531.8
599.327	535.2
599.736	535
600.146	537.4
600.556	532.4
600.988	535.8
601.398	529.2
601.808	540
602.219	517
602.629	534.8
603.039	535.8
603.45	560
603.86	529
604.271	529
604.703	528
605.114	527.2
605.525	522.4
605.935	529.4
606.346	542.6
606.757	527
607.168	527.2
607.579	516.6
607.99	532.8
608.402	525.8
608.813	526.6
609.224	508
609.636	518.6
610.047	515.2
610.48	531.4
610.892	520.8
611.303	526.6
611.715	521.6
612.127	509.4
612.539	518.6
612.95	518.2
613.362	515.6
613.774	514.4
614.186	521
614.599	521.2
615.011	534.6
615.423	520.2
615.835	516.6
616.248	510
616.66	517.8
617.073	506
617.485	521.8
617.898	525
618.311	523.6
618.723	515
619.136	544.2
619.549	532
619.962	533.8
620.375	520.6
620.788	520.4
621.201	512.6
621.614	525
622.028	517.6
622.441	524.2
622.854	526.4
623.268	512.4
623.681	523.6
624.095	512.4
624.509	522.8
624.922	529.4
625.336	509.8
625.728	521
626.142	528.2
626.556	536.6
626.97	519
627.384	513.6
627.799	512
628.213	514.4
628.627	510.2
629.041	519.8
629.456	515.8
629.87	513.4
630.285	520.2
630.699	522.4
631.093	518.8
631.507	508.8
631.922	521.8
632.337	528.4
632.752	511.4
633.167	518
633.582	518.2
633.997	520.4
634.412	511
634.806	511.2
635.221	505.8
635.637	515.4
636.052	507.2
636.468	505.2
636.883	523.2
637.299	501.4
637.715	506.8
638.109	507.8
638.525	500
638.941	521.4
639.357	514.2
639.773	513.8
640.189	507.4
640.584	512
641	512.4
641.416	501
641.832	504.2
642.249	505.4
642.665	509.8
643.06	506.2
643.477	525.2
643.894	504
644.31	508.8
644.727	513.4
645.123	504.2
645.54	503.4
645.957	506
646.374	516.2
646.77	510.8
647.187	532.6
647.604	509.8
648.021	505.4
648.439	509.2
648.835	513
649.252	506.6
649.67	504
650.088	501.8
650.484	501.6
650.902	517.4
651.32	509.2
651.738	506.8
652.134	506.4
652.552	517.4
652.971	508.6
653.389	503.4
653.786	513.4
654.204	502
654.622	498.6
655.019	505.6
655.438	513
655.857	511
656.275	511
656.673	502.8
657.091	510
657.51	497.8
657.908	515.4
658.327	508
658.746	495
659.144	500.2
659.563	512
659.982	511.8
660.38	499.2
660.8	501.6
661.219	514.8
661.617	512.6
662.037	504.6
662.457	516.6
662.855	495.8
663.275	530.8
663.695	504.2
664.094	501.4
664.514	502.6
664.934	505.8
665.333	500
665.753	498
666.152	494.4
666.572	494.8
666.993	515.6
667.392	499.4
667.812	500.6
668.212	501.8
668.632	507.6
669.053	502.4
669.453	504
669.874	502
670.273	501.2
670.694	495.4
671.116	510.8
671.515	503
671.937	498.4
672.337	497.8
672.758	498
673.158	506.6
673.58	493.2
673.98	503.8
674.402	507
674.824	499.2
675.224	500.6
675.646	493.2
676.047	497.2
676.469	496.6
676.869	508.6
677.292	501.8
677.693	494.8
678.115	501.2
678.516	506.6
678.939	503.4
679.34	501.8
679.762	511
680.164	509.4
680.586	501.6
680.988	506
681.411	526.4
681.812	501.6
682.236	499
682.637	499.6
683.061	492.6
683.462	502.2
683.864	496.2
684.288	508.8
684.69	488.2
685.114	505.6
685.516	507
685.94	489.8
686.342	507.4
686.766	492.2
687.168	501
687.571	513
687.995	501.6
688.398	493
688.822	499.2
689.225	507.8
689.628	510.8
690.052	494.4
690.456	505.2
690.88	493.6
691.284	496.6
691.687	504.4
692.112	491
692.515	484.6
692.919	495.6
693.344	496
693.747	493.6
694.173	492.8
694.577	503.2
694.98	497
695.406	491.8
695.81	500.6
696.214	504.6
696.64	497.4
697.044	495.8
697.448	511.4
697.874	498.8
698.279	502
698.684	491
699.11	494
699.514	496.8
699.919	491.8
700.324	493
700.75	500
701.156	498.8
701.561	508.6
701.987	506.6
702.393	500.4
702.798	508.2
703.203	500.2
703.63	498.2
704.036	496
704.442	499.6
704.847	491.8
705.274	495
705.68	504.2
706.086	502.4
706.492	485.4
706.92	501.2
707.326	502.2
707.732	493.4
708.139	498
708.545	496.8
708.973	490.4
709.38	496.2
709.786	489.4
710.193	512.8
710.6	489.2
711.028	502.4
711.435	504.2
711.842	499.8
712.249	493.6
712.656	495
713.064	502.6
713.492	491.4
713.9	493.6
714.307	501.8
714.715	491.4
715.123	502
715.53	502.2
715.938	498
716.367	501.6
716.775	498.2
717.184	494.6
717.592	502
718	506.2
718.408	524.2
718.816	528.2
719.225	507.4
719.633	497.6
720.042	489.8
720.472	491.8
720.881	515
721.29	502
721.699	487
722.108	499.8
722.517	499.2
722.926	492
723.335	511
723.744	497.6
724.154	493.4
724.563	497
724.973	498.8
725.382	493.2
725.792	501
726.202	496.2
726.612	503
727.022	498
727.432	493.6
779.813	496.2
780.223	534
780.634	485.6
781.044	484.2
781.454	494.8
781.865	500.6
782.276	494
782.686	501.6
783.097	488.4
783.508	489.6
783.919	499.8
784.33	498.2
784.741	507.4
785.152	487.8
785.563	490.4
785.974	484.2
786.386	503.2
786.776	494.2
787.188	496
787.599	487.4
788.011	500.6
788.423	493.2
788.835	490.6
789.247	486.2
789.659	487
790.071	493.8
790.483	530
790.874	498
791.286	494.4
791.699	493.2
792.111	493.2
792.524	498.2
792.937	494.6
793.349	490.6
793.741	491.6
794.154	493
794.567	509.6
794.98	493.8
795.393	491.8
795.785	507.2
796.198	498.2
796.612	496.4
797.026	488
797.439	488.2
797.831	489.2
798.245	489.2
798.659	500.8
799.073	490.8
799.487	490.2
799.88	492.4
800.294	494.8
800.708	495.4
801.123	500.2
801.516	514.2
801.93	481
802.345	489.4
802.76	499.6
803.153	502.4
803.568	504
803.983	500
804.377	493.8
804.792	486.2
805.207	485.6
805.601	495
806.016	520.4
806.432	489.6
806.826	513
807.242	499.8
807.658	498.2
808.052	487.6
808.468	490.2
808.884	487.8
809.279	489.6
809.695	496.4
810.111	516
810.506	493.2
810.922	508.8
811.339	491.8
811.734	500
812.151	485.2
812.546	486
812.963	481.4
813.38	490
813.776	498.4
814.193	506.8
814.589	484.8
815.006	491.4
815.402	491.2
815.82	492
816.237	491.8
816.633	496.8
817.051	486.4
817.448	488.8
817.866	479.8
818.262	501.8
818.68	482.6
819.077	481.6
819.495	496.8
819.892	521
820.311	480
820.708	484.4
821.127	478.4
821.524	497.4
821.943	489.6
822.34	512
822.759	494.6
823.157	489.8
823.576	501
823.974	496
824.393	574.8
824.791	485.4
825.189	481.6
825.609	492.4
826.007	488.2
826.427	479.6
826.826	488
827.246	491
827.644	481.4
828.043	510.2
828.463	485.8
828.862	504.2
829.261	498.6
829.682	481.6
830.081	492
830.502	486
830.901	500.8
831.301	486.6
831.722	483
832.121	492.4
832.521	484.8
832.943	488.2
833.342	488.8
833.742	483.4
834.164	482.8
834.564	482.8
834.965	491
835.386	491.4
835.787	489.2
836.188	488.4
836.588	486.8
837.01	494.8
837.411	485
837.812	494.6
838.213	494.4
838.636	488.2
839.037	540.8
839.438	491.6
839.84	491.2
840.263	492.6
840.664	494.8
841.066	472.6
841.468	488
841.891	483
842.293	497.4
842.695	489
843.098	493.4
843.5	489.8
843.902	489.6
844.326	489.6
844.729	493.2
845.131	497.4
845.534	485.6
845.937	498.8
846.34	499
846.764	483.8
847.167	499.4
847.571	485.6
847.974	492.8
848.377	488.6
848.781	530
849.184	501.6
849.588	485.8
849.992	493.4
850.396	494.4
850.821	505.8
851.225	499.8
851.63	490.2
852.034	502.6
852.438	489.8
852.843	510.4
853.247	484.2
853.652	487.2
854.057	504.2
854.462	495
