#lambda/nm	C1
208.295	465.8
208.67	430.2
209.045	394.2
209.419	402.8
209.794	528.8
210.169	522.4
210.544	617.6
210.919	521.2
211.295	518.4
211.67	525.4
212.045	524.8
212.421	526.2
212.796	548.8
213.172	518.4
213.547	520.4
213.923	517.8
214.299	528.8
214.675	525.4
215.051	527.4
215.427	537.4
215.803	544
216.179	533.2
216.555	511.4
216.932	528.8
217.308	532.4
217.684	522
218.061	530
218.438	535.8
218.814	519
219.191	534.4
219.568	519
219.945	524.8
220.322	535.6
220.699	534
221.076	532.4
221.453	531.8
221.83	521.4
222.208	525.6
222.585	529.8
222.962	533.4
223.34	535.4
223.717	523
224.095	524
224.473	525.8
224.851	520.6
225.229	530
225.607	539.6
225.985	518.8
226.363	530.4
226.741	526.4
227.119	527.4
227.497	536.6
227.876	511.4
228.254	526.6
228.633	530.4
229.011	525.8
229.39	527
229.769	533.2
230.148	522.4
230.527	547.6
230.905	530.8
231.284	531.8
231.664	521.8
232.043	535.6
232.422	540.4
232.801	524.2
233.181	537.6
233.56	521.8
233.94	523.4
234.319	516.4
234.699	531.2
235.079	565.2
235.458	557.8
235.838	535.2
236.218	516.6
236.598	521.4
236.978	522.2
237.358	518.6
237.738	528.8
238.119	534
238.499	520.4
238.88	528.6
239.26	538.2
239.641	523.8
240.021	526.8
240.402	527
240.783	521.2
241.163	532.2
241.544	529.8
241.925	534
242.306	538.4
242.687	525
243.069	534
243.45	531.8
243.831	526.2
244.212	527
244.594	558
244.975	542
245.357	532.4
245.739	525.8
246.12	529.8
246.502	543.8
246.884	528
247.266	528.2
247.648	533.4
248.03	545
248.412	531.2
248.794	531
249.176	520
249.559	535.2
249.941	520.6
250.323	521.6
250.706	525.8
251.089	522
251.471	527.4
251.854	534.6
252.237	527.6
252.62	532.6
253.002	531.6
253.385	525.8
253.769	541.2
254.152	526.4
254.535	536.4
254.918	521.8
255.301	530.2
255.685	525.2
256.068	518.4
256.452	549.8
256.835	531.8
257.219	537.8
257.603	539.8
257.986	525
258.37	535.8
258.754	521.2
259.138	532.4
259.522	539.2
259.906	525.8
260.29	527
260.675	527.4
261.059	525.8
261.443	517.8
261.828	535.4
262.212	532.2
262.597	519.4
262.981	525.6
263.366	532.4
263.751	525.4
264.136	524.2
264.521	524.8
264.906	522.6
265.291	535.6
265.676	523.8
266.061	527.8
266.446	542
266.831	526.2
267.217	549.8
267.602	529.6
267.987	529
268.373	523.2
268.759	533.8
269.144	539.8
269.53	525
269.916	525
270.302	525
270.688	530.4
271.074	535.4
271.46	535.4
271.846	551.4
272.232	530.4
272.618	528
273.004	521.6
273.391	542.2
273.777	528.6
274.164	529.8
274.55	540.4
274.937	535.4
275.324	520.6
275.71	532.6
276.097	527.4
276.484	519.4
276.871	529.8
277.258	534.8
277.645	514.6
278.032	524
278.419	522
278.807	529.4
279.194	514.4
279.581	516.2
279.969	526
280.356	534.2
280.744	524.4
281.131	549.4
281.519	533.4
281.907	526.4
282.295	531.2
282.682	533
283.07	527
283.458	539.2
283.846	540.8
284.235	533.4
284.623	531.8
285.011	522.2
285.399	526
285.788	529
286.176	519.2
286.565	535
286.953	525
287.342	523.6
287.731	521
288.119	527.4
288.508	524
288.897	531.4
289.286	521
289.675	525
290.064	537.8
290.453	518
290.821	525.4
291.21	536.6
291.599	527.8
291.989	521.8
292.378	532.4
292.768	547
293.157	530.8
293.547	527.4
293.936	521.4
294.326	524.4
294.716	528.4
295.106	520
295.496	533.2
295.886	543.8
296.276	532.8
296.666	521.8
297.056	527.2
297.446	523
297.836	546.2
298.227	521
298.617	526.8
299.008	538.4
299.398	525.2
299.789	517.4
300.179	531
300.57	538.2
300.961	524.6
301.352	526
301.742	535.4
302.133	529.8
302.524	536
302.915	531.2
303.307	519.8
303.698	534.2
304.089	528.6
304.48	532.6
304.872	529.4
305.263	534
305.655	528.8
306.046	537.8
306.438	532.2
306.829	522.2
307.221	536.4
307.613	529.6
308.005	535.4
308.397	542
308.789	545.8
309.181	549.2
309.573	546.4
309.965	539.6
310.357	530.8
310.749	538.8
311.142	524.4
311.534	522.8
311.926	531.2
312.319	527
312.711	524.2
313.104	539
313.497	532.4
313.889	556.4
314.282	537.2
314.675	538.4
315.068	529.8
315.461	533.8
315.854	554.4
316.247	533.4
316.64	526.4
317.033	529
317.405	540.6
317.798	525
318.192	530.2
318.585	523.6
318.979	530.2
319.372	519.2
319.766	529.2
320.16	535.6
320.553	541.2
320.947	543.4
321.341	527.8
321.735	530.8
322.129	519.2
322.523	541.2
322.917	529.8
323.311	535.4
323.705	527.6
324.099	538
324.494	534.6
324.888	533.8
325.282	514.2
325.677	542.2
326.071	532.6
326.466	532
326.861	524.4
327.255	532
327.65	540.8
328.045	540.4
328.44	526.8
328.835	521.8
329.23	520.8
329.625	538.2
330.02	521.8
330.415	541
330.81	536.2
331.206	532.2
331.601	523.4
331.996	538.8
332.37	538
332.766	521.2
333.161	544.2
333.557	525.2
333.953	527.4
334.348	699.2
334.744	527.4
335.14	525.2
335.536	522.2
335.932	542
336.328	525.8
336.724	536
337.12	530
337.516	534.4
337.913	525.6
338.309	537.8
338.705	530.8
339.102	534.6
339.498	524
339.895	532.4
340.291	525
340.688	534.2
341.085	521.4
341.481	518.8
341.878	531.6
342.275	546
342.672	516.2
343.069	531.8
343.466	514
343.842	528.8
344.239	523.4
344.636	528
345.033	515.4
345.431	518
345.828	529.8
346.225	518.2
346.623	555
347.02	525
347.418	531.8
347.816	545
348.213	518.8
348.611	522.2
349.009	518
349.407	535.8
349.805	520.6
350.203	520.8
350.601	536.4
350.999	521.6
351.397	563.8
351.795	527.2
352.193	539.8
352.57	529.4
352.969	539.6
353.367	519.2
353.766	511.6
354.164	528.2
354.563	532.4
354.961	521
355.36	522.4
355.759	527.6
356.158	521.4
356.557	523.6
356.956	517.6
357.355	512.4
357.754	521.4
358.153	527
358.552	537
358.951	519
359.35	527
359.75	515.4
360.149	516.2
360.527	506.6
360.926	519.8
361.326	529.2
361.726	525.6
362.125	511.2
362.525	528.2
362.925	521
363.325	524.6
363.724	519.8
364.124	521.8
364.524	512.8
364.924	520.6
365.324	519.6
365.725	510.2
366.125	529
366.525	518
366.904	524
367.304	507.2
367.705	542.2
368.105	526
368.506	522.6
368.906	518.2
369.307	524
369.708	524.2
370.108	513.8
370.509	530.6
370.91	515.2
371.311	516.2
371.712	523.8
372.113	519.2
372.514	515.4
372.894	520.8
373.295	511.6
373.696	524.4
374.097	530.8
374.499	546.8
374.9	513.8
375.301	512.8
375.703	521
376.105	511
376.506	523.8
376.908	527.8
377.309	520.4
377.711	521
378.113	519.8
378.493	519
378.895	515
379.297	524.8
379.699	506.4
380.102	516.2
380.504	516.4
380.906	514.4
381.308	534.2
381.71	510
382.113	530.8
382.515	517.8
382.918	526
383.299	514
383.701	524.4
384.104	521.2
384.507	506
384.909	520.8
385.312	507.2
385.715	509.8
386.118	510.2
386.521	517.4
386.924	526.6
387.327	516.2
387.709	507
388.112	505.2
388.515	513.6
388.918	523.4
389.322	518.6
389.725	513.4
390.129	535.8
390.532	522.8
390.936	514.2
391.339	513.2
391.743	523
392.125	517
392.529	527
392.933	519.6
393.337	518.6
393.74	513.4
394.144	520
394.548	509.6
394.953	516.4
395.357	524.8
395.761	511.4
396.144	519.4
396.548	517.2
396.952	522.8
397.357	518
397.761	516.2
398.166	508
398.57	522.8
398.975	507.2
399.379	518.2
399.763	558.6
400.168	522.4
400.572	518.4
400.977	510.8
401.382	530.4
401.787	531.2
402.192	533.4
402.597	531.8
403.002	513.4
403.386	528.2
403.791	533
404.197	513
404.602	517.6
405.007	519
405.413	511.4
405.818	517
406.224	517.4
406.608	513.4
407.014	516.2
407.42	530.8
407.825	517
408.231	526.8
408.637	520.6
409.043	528
409.449	515
409.834	518.2
410.24	517.8
410.646	526.4
411.052	522.4
411.458	519.4
411.865	527.2
412.271	521
412.677	515.6
413.062	521.4
413.469	507.8
413.875	544.2
414.282	529
414.689	528
415.095	534.4
415.502	517.2
415.888	524.2
416.294	508.4
416.701	547.6
417.108	516.6
417.515	522.4
417.923	520
418.33	538.8
418.715	525.2
419.123	517.6
419.53	516.2
419.937	519
420.345	530.6
420.752	518.8
421.16	524.8
421.546	517.8
421.953	529.2
422.361	513.4
422.769	513.8
423.177	513.6
423.585	542.2
423.992	540.4
424.379	529
424.787	533.4
425.195	534
425.603	519.6
426.011	529.2
426.419	535.2
426.806	522.8
427.214	516.6
427.623	522.8
428.031	530.4
428.44	527
428.848	531
429.235	539.8
429.644	534.6
430.053	537.4
430.461	543.2
430.87	567.4
431.279	552
431.666	550.4
432.075	558.8
432.484	568.6
432.893	572.8
433.302	591.4
433.711	632
434.099	618.2
434.508	628
434.918	638
435.327	658
435.737	673
436.125	692.2
436.534	715.6
436.944	739.2
437.353	753.6
437.763	778.2
438.173	775.2
438.561	811
438.971	812
439.381	834.8
439.791	858.4
440.201	873
440.589	903.2
440.999	912.6
441.409	929.4
441.819	933.8
442.23	980.2
442.619	974
443.029	979
443.439	1003.2
443.85	1013
444.26	1021.2
444.649	1040.6
445.06	1038
445.471	1065.4
445.881	1064.2
446.292	1081.4
446.682	1106.8
447.092	1090.4
447.503	1149.6
447.914	1107.8
448.325	1120
448.715	1114
449.126	1117.2
449.537	1134
449.948	1127.6
450.338	1135.8
450.75	1153.6
451.161	1159
451.572	1163.8
451.984	1171
452.374	1157.4
452.786	1175.4
453.197	1186.2
453.609	1175.2
453.999	1158.2
454.411	1162.6
454.823	1187.2
455.235	1177.6
455.647	1179.8
456.037	1189.2
456.449	1183.4
456.862	1178.8
457.274	1193.4
457.665	1193
458.077	1199.4
458.489	1212.2
458.902	1203.2
459.293	1186.2
459.705	1192.8
460.118	1185.6
460.53	1194.8
460.921	1205.2
461.334	1225
461.747	1198.8
462.16	1213.6
462.551	1229.2
462.964	1214.6
463.377	1220.2
463.79	1211.4
464.182	1220.2
464.595	1202.2
465.008	1220.8
465.421	1218
465.813	1209.8
466.226	1214.6
466.64	1211.4
467.053	1245.8
467.445	1228.4
467.859	1224.4
468.272	1209.8
468.686	1226
469.078	1212.2
469.492	1194.8
469.906	1221
470.298	1211.2
470.712	1216
471.126	1234.4
471.54	1209.4
471.933	1196.6
472.347	1203.6
472.761	1212
473.175	1191.4
473.568	1200.2
473.982	1193.8
474.397	1209.6
474.79	1196.8
475.204	1185
475.619	1185.4
476.033	1182.8
476.426	1176.8
476.841	1177.8
477.256	1207
477.649	1167.6
478.064	1179.4
478.479	1162.8
478.872	1153.4
479.287	1130.4
479.702	1146
480.118	1158.6
480.511	1137.4
480.927	1153.4
481.342	1142.6
481.736	1148.2
482.151	1137
482.566	1143
482.96	1128.8
483.376	1134.8
483.792	1111.6
484.186	1125.2
484.602	1115
485.017	1121.2
485.412	1118.4
485.827	1124
486.243	1103.2
486.638	1122.2
487.054	1103.8
487.47	1109.4
487.865	1088.6
488.281	1080.8
488.697	1081.2
489.092	1077.2
489.508	1067.4
489.925	1069.6
490.32	1058.4
490.736	1058.2
491.153	1057.2
491.548	1068.4
491.964	1058.8
492.381	1023.8
492.776	1034.8
493.193	1031.6
493.61	1054
494.006	1037.4
494.422	1036.8
494.84	1028.8
495.235	1034.8
495.652	1021.2
496.069	1014
496.465	1003
496.883	1000.2
497.3	1027.6
497.696	983
498.113	993.6
498.509	977
498.927	965.6
499.344	970.6
499.741	964
500.158	974.4
500.576	974
500.973	964.4
501.39	937
501.787	942.4
502.205	941.6
502.623	935.2
503.02	935.4
503.438	936.6
503.856	917.2
504.253	926.4
504.671	934
505.068	911.2
505.486	909.6
505.905	928
506.302	907.4
506.72	913.4
507.118	901.6
507.536	888.4
507.955	887.6
508.352	882
508.771	873.8
509.169	892.4
509.587	861.2
510.006	871.6
510.404	862.8
510.823	864
511.221	853.4
511.64	860.6
512.038	855
512.457	848.8
512.877	855
513.275	838.4
513.694	837
514.092	829.2
514.512	836.8
514.91	831.6
515.33	824.6
515.749	820.2
516.148	823.2
516.568	812.2
516.966	801.2
517.386	799.4
517.785	796.8
518.205	789.6
518.603	787.6
519.024	789.8
519.444	805.4
519.843	796
520.263	792.6
520.662	781.6
521.082	777.6
521.481	789
521.902	776.6
522.301	773.6
522.722	777
523.121	759.8
523.542	757.4
523.963	758.2
524.362	756
524.783	747.8
525.183	746.8
525.604	747.8
526.003	753.2
526.425	742.2
526.824	750.4
527.246	753
527.646	740.4
528.067	730.8
528.467	722.8
528.888	729.4
529.289	732.6
529.71	731.2
530.11	712
530.532	721.2
530.932	709.8
531.354	699
531.755	735.8
532.176	716.2
532.577	713.4
532.999	711.4
533.4	690.2
533.822	701.4
534.223	697
534.645	699
535.046	694
535.468	695.6
535.869	694.2
536.292	685.8
536.693	720
537.115	681.8
537.516	678.4
537.939	679.2
538.34	698.4
538.742	684.6
539.165	690.2
539.566	676.6
539.989	663.4
540.391	667
540.814	668.2
541.216	681.8
541.639	668.2
542.041	678
542.464	655.8
542.866	665.2
543.268	664.2
543.691	670.8
544.093	669.6
544.517	671.6
544.919	653
545.343	669.2
545.745	638
546.147	650.8
546.571	644.2
546.974	636.4
547.398	646.2
547.8	652
548.224	640.6
548.627	631.8
549.03	639.6
549.454	624
549.857	620
550.281	633
550.684	628.2
551.087	640.8
551.512	627.6
551.915	627.4
552.34	625
552.743	623.8
553.146	625.8
553.571	620.4
553.975	634.4
554.399	618.4
554.803	654.8
555.207	607.2
555.632	603.8
556.036	622.4
556.461	607.2
556.865	611
557.268	611.8
557.694	606
558.098	613
558.502	613.4
558.927	606
559.332	593
559.736	595.2
560.162	603
560.566	592.4
560.992	608.4
561.396	601
561.801	591.6
562.227	603.2
562.631	592
563.036	594.8
563.462	601.6
563.867	590
564.272	577
564.698	588.2
565.103	583.4
565.508	601.4
565.935	581.4
566.34	581
566.745	594.8
567.172	576.2
567.577	601.4
567.982	589.4
568.409	582.6
568.815	580
569.22	569.2
569.626	575.8
570.053	569.4
570.459	579.8
570.865	578
571.292	582.8
571.698	585.8
572.104	567.6
572.531	570.4
572.937	570.2
573.343	564.6
573.75	560.4
574.177	562.4
574.583	569.4
574.99	563.2
575.396	566.4
575.824	557.8
576.231	565.4
576.637	560.2
577.065	590
577.472	560.6
577.879	557.4
578.286	565.2
578.714	558
579.121	551
579.528	562
579.935	564.8
580.364	553.2
580.771	547.6
581.178	557
581.585	554.2
582.014	555.6
582.421	553.2
582.829	544.8
583.236	564
583.644	547.4
584.073	559.2
584.481	555.2
584.889	540.8
585.296	552.8
585.726	554
586.134	539.6
586.542	548.8
586.95	551.6
587.358	537
587.787	552
588.196	540.4
588.604	542.4
589.012	544.2
589.421	543
589.851	536.4
590.259	547.8
590.668	545.8
591.076	563.8
591.485	531.6
591.894	535.6
592.324	548.2
592.733	542.8
593.142	528.2
593.551	537
593.96	566.4
594.369	532
594.8	521.2
595.209	534
595.618	525.2
596.028	527.8
596.437	521.4
596.847	539
597.256	539.8
597.687	539.2
598.097	536.8
598.507	527.8
598.917	528.8
599.327	534.2
599.736	535.4
600.146	540.2
600.556	523
600.988	530.2
601.398	522
601.808	530.2
602.219	514.8
602.629	520.8
603.039	525.4
603.45	544.6
603.86	519.8
604.271	534.6
604.703	518.2
605.114	526
605.525	525.4
605.935	518.2
606.346	545.8
606.757	535.4
607.168	525
607.579	513.2
607.99	529.8
608.402	516.2
608.813	520.4
609.224	514.6
609.636	514.8
610.047	523.4
610.48	528.6
610.892	525.6
611.303	527.6
611.715	518.6
612.127	515.8
612.539	516.6
612.95	526
613.362	519.6
613.774	509.8
614.186	518.4
614.599	513.8
615.011	535.6
615.423	521
615.835	510.6
616.248	508.4
616.66	523.6
617.073	514.2
617.485	515.8
617.898	521.8
618.311	520.8
618.723	518.4
619.136	541.8
619.549	518.8
619.962	535.6
620.375	518.8
620.788	517.6
621.201	515.8
621.614	519
622.028	517.4
622.441	515.4
622.854	533.2
623.268	521.4
623.681	522.6
624.095	509.2
624.509	525.4
624.922	515.4
625.336	512.4
625.728	518.2
626.142	523.4
626.556	525.4
626.97	524.2
627.384	514.6
627.799	518.2
628.213	527.6
628.627	514.6
629.041	508.6
629.456	516
629.87	518.2
630.285	522.2
630.699	521.4
631.093	512.2
631.507	516.2
631.922	517.2
632.337	526.2
632.752	505.2
633.167	511.2
633.582	511.6
633.997	508.6
634.412	519
634.806	506.4
635.221	509.2
635.637	524
636.052	501.4
636.468	510
636.883	524.2
637.299	508.4
637.715	498
638.109	505.8
638.525	503.8
638.941	518.2
639.357	507.6
639.773	514
640.189	506.2
640.584	510.8
641	509
641.416	494.8
641.832	509.4
642.249	506.6
642.665	508.8
643.06	512
643.477	517
643.894	502.8
644.31	514
644.727	509.6
645.123	508.8
645.54	502.6
645.957	508.4
646.374	518.8
646.77	509.4
647.187	535.2
647.604	503.8
648.021	498
648.439	500.6
648.835	503.4
649.252	502.8
649.67	501
650.088	501.6
650.484	509.2
650.902	509.2
651.32	508
651.738	497.6
652.134	517.4
652.552	521.4
652.971	513.4
653.389	502.2
653.786	519.2
654.204	507.8
654.622	505.8
655.019	502.8
655.438	506.4
655.857	512.4
656.275	510.4
656.673	498.6
657.091	511
657.51	508.2
657.908	510.8
658.327	519.4
658.746	497.4
659.144	502.6
659.563	510.4
659.982	504.2
660.38	497.6
660.8	501.6
661.219	506.2
661.617	508.6
662.037	507.2
662.457	517.8
662.855	495
663.275	524.2
663.695	500.6
664.094	503.4
664.514	516.4
664.934	497.6
665.333	510
665.753	500.4
666.152	500
666.572	498
666.993	515.2
667.392	497.6
667.812	506.8
668.212	502.6
668.632	512.4
669.053	499
669.453	503.8
669.874	499.6
670.273	503.2
670.694	497
671.116	508.8
671.515	507
671.937	498.2
672.337	496.4
672.758	491.6
673.158	506.6
673.58	499.6
673.98	500.2
674.402	508
674.824	501.8
675.224	495
675.646	492.6
676.047	491.6
676.469	499.2
676.869	503.2
677.292	500.6
677.693	492
678.115	495
678.516	500.4
678.939	504.4
679.34	494.4
679.762	509.4
680.164	501.6
680.586	506
680.988	505.2
681.411	521.6
681.812	502.8
682.236	493.4
682.637	496.2
683.061	489.6
683.462	502.6
683.864	499.2
684.288	499.8
684.69	499.2
685.114	504.4
685.516	507.6
685.94	496.4
686.342	512.6
686.766	500.6
687.168	504.6
687.571	502.8
687.995	503
688.398	494.8
688.822	503.4
689.225	513.2
689.628	509.8
690.052	492.8
690.456	508.2
690.88	500.6
691.284	492.2
691.687	504.6
692.112	489.4
692.515	489
692.919	503.4
693.344	503.2
693.747	495.2
694.173	491.6
694.577	513
694.98	497.6
695.406	489.4
695.81	503.8
696.214	499.8
696.64	502
697.044	501.2
697.448	502.6
697.874	496.4
698.279	496.4
698.684	494.8
699.11	492.6
699.514	506.2
699.919	490.8
700.324	493.6
700.75	501.6
701.156	495.8
701.561	506
701.987	494.2
702.393	502.4
702.798	508
703.203	499.2
703.63	491.8
704.036	489.8
704.442	498.2
704.847	496.6
705.274	494
705.68	503.8
706.086	508
706.492	488.6
706.92	492.2
707.326	498
707.732	491.8
708.139	496.6
708.545	493.6
708.973	493.4
709.38	492.8
709.786	486.6
710.193	506
710.6	504
711.028	492.6
711.435	501
711.842	495
712.249	493.8
712.656	492.2
713.064	500.4
713.492	493.6
713.9	495.4
714.307	496.4
714.715	492.6
715.123	498.4
715.53	488.8
715.938	503.8
716.367	493
716.775	496
717.184	488.2
717.592	491.6
718	506.8
718.408	524
718.816	536
719.225	499.6
719.633	492.8
720.042	492.2
720.472	501.6
720.881	516.6
721.29	503
721.699	493
722.108	500.6
722.517	503
722.926	495.2
723.335	500.8
723.744	495.6
724.154	495.2
724.563	499.8
724.973	499.2
725.382	497.6
725.792	499
726.202	482.2
726.612	505.2
727.022	492
727.432	489.8
779.813	497.6
780.223	529.2
780.634	494
781.044	491.8
781.454	493.8
781.865	504.8
782.276	480
782.686	501.2
783.097	492.6
783.508	495
783.919	499.8
784.33	502.2
784.741	505.4
785.152	490.2
785.563	486.2
785.974	493.4
786.386	497.4
786.776	490.6
787.188	496
787.599	490.4
788.011	499.8
788.423	503.2
788.835	485.8
789.247	486
789.659	485.8
790.071	494
790.483	524.4
790.874	487.4
791.286	490.6
791.699	496.8
792.111	493.8
792.524	499
792.937	496
793.349	485.4
793.741	488
794.154	485.4
794.567	510.4
794.98	490.8
795.393	485
795.785	504.6
796.198	490.8
796.612	496.4
797.026	492.2
797.439	484.4
797.831	487.8
798.245	481.6
798.659	489.2
799.073	493.8
799.487	486.8
799.88	498.4
800.294	492.2
800.708	503.6
801.123	483.2
801.516	504.8
801.93	488.2
802.345	487.8
802.76	486.4
803.153	505.8
803.568	505.2
803.983	500.2
804.377	497.6
804.792	484.2
805.207	481.2
805.601	495.4
806.016	528.6
806.432	491.4
806.826	515.4
807.242	495.4
807.658	500.2
808.052	492
808.468	491.2
808.884	494.2
809.279	493.4
809.695	503.6
810.111	507.8
810.506	495.4
810.922	510.6
811.339	490.6
811.734	490.6
812.151	489.6
812.546	488.2
812.963	485
813.38	500.4
813.776	494.4
814.193	507.6
814.589	483.4
815.006	489.2
815.402	492.2
815.82	493
816.237	498.8
816.633	492.4
817.051	481.6
817.448	480.2
817.866	481.2
818.262	503.8
818.68	484
819.077	493.6
819.495	491
819.892	523.6
820.311	482.6
820.708	488
821.127	490.2
821.524	498.4
821.943	482.8
822.34	507.4
822.759	500.4
823.157	490.4
823.576	511.2
823.974	490
824.393	578.8
824.791	486
825.189	488.4
825.609	489.6
826.007	490.8
826.427	479.4
826.826	485.6
827.246	494.4
827.644	480.4
828.043	499.2
828.463	491.2
828.862	505.2
829.261	498.4
829.682	486
830.081	498.6
830.502	480.8
830.901	493
831.301	483
831.722	486
832.121	492
832.521	491.8
832.943	492.2
833.342	487
833.742	487.6
834.164	488.4
834.564	482
834.965	493.6
835.386	491.2
835.787	490.4
836.188	489.8
836.588	488.8
837.01	487.6
837.411	484.8
837.812	495.2
838.213	500
838.636	487
839.037	543.2
839.438	487.2
839.84	494
840.263	489
840.664	494.4
841.066	487
841.468	495.6
841.891	492.6
842.293	495.6
842.695	494
843.098	500
843.5	492.4
843.902	501.2
844.326	489.6
844.729	490.6
845.131	499.8
845.534	485
845.937	486.2
846.34	506.4
846.764	482.8
847.167	494.4
847.571	488.2
847.974	486.8
848.377	490.8
848.781	527.8
849.184	502.6
849.588	481
849.992	486
850.396	488.8
850.821	503.6
851.225	490.4
851.63	489.6
852.034	497.2
852.438	489.8
852.843	514
853.247	477.8
