#lambda/nm	C1
208.295	463.4
208.67	426
209.045	399
209.419	400.4
209.794	532
210.169	519.8
210.544	614
210.919	534.6
211.295	521.2
211.67	528.8
212.045	522.2
212.421	525
212.796	556.6
213.172	521.4
213.547	520
213.923	529.6
214.299	524.2
214.675	533.8
215.051	533.4
215.427	529.8
215.803	539.2
216.179	537
216.555	520.2
216.932	530.6
217.308	536.2
217.684	525.6
218.061	539.2
218.438	535.4
218.814	524
219.191	534.8
219.568	525
219.945	525.2
220.322	528
220.699	528.4
221.076	539.6
221.453	521.6
221.83	521.4
222.208	522.2
222.585	526
222.962	527
223.34	530.4
223.717	527.8
224.095	522.6
224.473	526
224.851	526
225.229	520
225.607	537.6
225.985	519.4
226.363	527.2
226.741	521.6
227.119	524
227.497	538.4
227.876	522.2
228.254	532.2
228.633	532
229.011	531.6
229.39	530.4
229.769	532.8
230.148	530.8
230.527	549.4
230.905	526.6
231.284	529.6
231.664	530.4
232.043	535
232.422	538.2
232.801	522.8
233.181	529.8
233.56	525.2
233.94	527.6
234.319	516.4
234.699	525.8
235.079	561.4
235.458	552.2
235.838	530.4
236.218	527.8
236.598	509.8
236.978	512.8
237.358	511
237.738	520.6
238.119	529.8
238.499	521.4
238.88	531
239.26	537.4
239.641	515
240.021	522.8
240.402	522.4
240.783	525.4
241.163	524.2
241.544	524.8
241.925	526.6
242.306	539.6
242.687	526.6
243.069	527.4
243.45	530.6
243.831	521.4
244.212	524
244.594	557.4
244.975	531
245.357	533.8
245.739	530.8
246.12	532.2
246.502	544.4
246.884	522.6
247.266	523.8
247.648	536
248.03	550.2
248.412	534.4
248.794	536.8
249.176	528.8
249.559	540.2
249.941	524.6
250.323	517.2
250.706	523.6
251.089	523.6
251.471	530.6
251.854	530
252.237	531.6
252.62	533
253.002	524
253.385	524.8
253.769	540.2
254.152	533.6
254.535	529.6
254.918	527.4
255.301	524.6
255.685	521.4
256.068	524.8
256.452	550.8
256.835	528.2
257.219	538.2
257.603	535
257.986	524.8
258.37	536.6
258.754	518.2
259.138	528.4
259.522	544
259.906	524
260.29	531.2
260.675	527.6
261.059	523.4
261.443	518.6
261.828	538.2
262.212	528.8
262.597	520.4
262.981	534.4
263.366	535.2
263.751	523.6
264.136	522
264.521	525.2
264.906	524
265.291	539.8
265.676	527.8
266.061	536
266.446	541.6
266.831	527.2
267.217	549
267.602	538
267.987	527.8
268.373	532.6
268.759	535.4
269.144	532
269.53	522
269.916	524.2
270.302	534
270.688	533.2
271.074	525.8
271.46	533
271.846	550.6
272.232	527.2
272.618	517.8
273.004	532.6
273.391	540.8
273.777	541.4
274.164	528.6
274.55	535.6
274.937	529.6
275.324	526
275.71	536.2
276.097	533.4
276.484	514.8
276.871	526.4
277.258	531.4
277.645	523.2
278.032	529
278.419	524
278.807	529.4
279.194	519
279.581	531
279.969	531.6
280.356	520.6
280.744	529.6
281.131	547.4
281.519	536.4
281.907	528
282.295	526.8
282.682	532.8
283.07	530
283.458	533
283.846	535
284.235	543.2
284.623	535.8
285.011	530
285.399	538
285.788	528.4
286.176	521
286.565	539.2
286.953	525.4
287.342	530.4
287.731	518.4
288.119	518.8
288.508	532.8
288.897	526.8
289.286	518
289.675	533.2
290.064	538
290.453	522.2
290.821	521.6
291.21	543.8
291.599	525.4
291.989	529.4
292.378	533.4
292.768	546
293.157	531
293.547	539.6
293.936	530.6
294.326	518.8
294.716	525.8
295.106	528
295.496	535.6
295.886	536.6
296.276	529
296.666	513.6
297.056	529.2
297.446	525.2
297.836	538.2
298.227	522
298.617	527
299.008	535.4
299.398	523.4
299.789	526.2
300.179	531.2
300.57	545.2
300.961	523.6
301.352	525.6
301.742	535.8
302.133	526.8
302.524	524.8
302.915	527.4
303.307	523.2
303.698	538
304.089	538
304.48	526.4
304.872	535.8
305.263	532
305.655	522.6
306.046	540.4
306.438	531.2
306.829	526.6
307.221	543.8
307.613	531.6
308.005	542.2
308.397	538
308.789	549.8
309.181	553
309.573	536.2
309.965	532
310.357	524.6
310.749	537
311.142	521.4
311.534	525.4
311.926	533.4
312.319	524.6
312.711	525.4
313.104	540
313.497	528.4
313.889	566.6
314.282	541
314.675	546.8
315.068	528.8
315.461	541.2
315.854	550
316.247	531.8
316.64	523.4
317.033	520.8
317.405	535
317.798	530
318.192	528.2
318.585	526
318.979	527.8
319.372	521.8
319.766	531.2
320.16	542.2
320.553	534.8
320.947	542.8
321.341	520.6
321.735	529.2
322.129	514.8
322.523	546.6
322.917	516
323.311	541.6
323.705	532.4
324.099	537.4
324.494	544
324.888	535
325.282	528.2
325.677	538.8
326.071	536.6
326.466	529.8
326.861	524.2
327.255	538.6
327.65	540
328.045	542
328.44	528
328.835	521.4
329.23	526.4
329.625	551.8
330.02	527.4
330.415	541.4
330.81	528.8
331.206	531
331.601	524
331.996	532.2
332.37	540
332.766	522.2
333.161	540.2
333.557	517.4
333.953	518.8
334.348	810.8
334.744	521.6
335.14	523.2
335.536	516.2
335.932	531
336.328	519.2
336.724	529.8
337.12	526
337.516	529
337.913	520.6
338.309	534.2
338.705	518.4
339.102	538
339.498	526
339.895	542
340.291	518
340.688	535
341.085	514.6
341.481	523.4
341.878	523
342.275	546.6
342.672	521.4
343.069	519.8
343.466	513
343.842	529.4
344.239	524.8
344.636	520.8
345.033	513.8
345.431	518.2
345.828	523.6
346.225	522.4
346.623	558
347.02	528.2
347.418	539
347.816	534.2
348.213	523.8
348.611	526.6
349.009	524
349.407	537.2
349.805	519
350.203	516.4
350.601	533
350.999	519.6
351.397	570.4
351.795	527.2
352.193	537
352.57	534.8
352.969	532.6
353.367	520
353.766	522.8
354.164	531.6
354.563	530.8
354.961	526
355.36	528.6
355.759	520.8
356.158	515.2
356.557	511.6
356.956	512.2
357.355	521
357.754	520.8
358.153	524.6
358.552	541.8
358.951	524.6
359.35	534.2
359.75	516
360.149	517.6
360.527	509.4
360.926	515.4
361.326	528.4
361.726	526.6
362.125	514
362.525	526.8
362.925	519.2
363.325	522.4
363.724	521
364.124	516.6
364.524	520.8
364.924	524.6
365.324	532.4
365.725	510.8
366.125	531
366.525	519.6
366.904	519.2
367.304	507.6
367.705	533
368.105	526.8
368.506	520.2
368.906	525.6
369.307	522.4
369.708	526.6
370.108	512.4
370.509	527.8
370.91	513.2
371.311	520.6
371.712	517.4
372.113	515.2
372.514	514.4
372.894	517.8
373.295	521.8
373.696	526
374.097	530.4
374.499	544.8
374.9	527.8
375.301	514.6
375.703	525.6
376.105	513.2
376.506	524.8
376.908	523.6
377.309	521.8
377.711	525.2
378.113	522.4
378.493	516
378.895	520
379.297	525.6
379.699	509.6
380.102	526.8
380.504	524.8
380.906	518.2
381.308	542
381.71	521.4
382.113	526.6
382.515	521.8
382.918	524.8
383.299	516.8
383.701	524.8
384.104	518.4
384.507	498
384.909	518.4
385.312	512.8
385.715	513.2
386.118	518.6
386.521	511.4
386.924	527.8
387.327	522.2
387.709	507
388.112	500.8
388.515	516.4
388.918	519.2
389.322	523.2
389.725	514.2
390.129	532.6
390.532	526.4
390.936	516.2
391.339	519.4
391.743	524.8
392.125	519
392.529	518.6
392.933	533.4
393.337	518.8
393.74	518
394.144	517.6
394.548	524
394.953	518
395.357	522.8
395.761	514.4
396.144	514.4
396.548	515
396.952	520.2
397.357	515.8
397.761	520.4
398.166	514.8
398.57	518
398.975	508.6
399.379	527
399.763	566
400.168	522.8
400.572	514.6
400.977	519
401.382	531.2
401.787	523.8
402.192	533.2
402.597	536.6
403.002	512.8
403.386	528.2
403.791	532.6
404.197	514.8
404.602	522.6
405.007	519
405.413	510.4
405.818	519.6
406.224	518
406.608	520.2
407.014	513.2
407.42	534.2
407.825	511
408.231	529.6
408.637	527
409.043	535.4
409.449	515.4
409.834	511.8
410.24	521.6
410.646	527
411.052	530.8
411.458	525.4
411.865	524.4
412.271	520.6
412.677	519.4
413.062	526.8
413.469	502.8
413.875	536.2
414.282	528.2
414.689	516.2
415.095	525.2
415.502	512.4
415.888	520.8
416.294	506
416.701	551.2
417.108	515.6
417.515	522.6
417.923	522.8
418.33	534
418.715	521.4
419.123	521.8
419.53	523.4
419.937	520.6
420.345	530.6
420.752	517
421.16	529.6
421.546	529.8
421.953	530.2
422.361	516.4
422.769	518.6
423.177	519
423.585	539
423.992	537.2
424.379	530
424.787	529.8
425.195	536.2
425.603	524.6
426.011	528.6
426.419	527.2
426.806	527.8
427.214	523.2
427.623	531.6
428.031	536
428.44	526
428.848	530.6
429.235	537.2
429.644	523.2
430.053	514
430.461	529.2
430.87	540.2
431.279	532.2
431.666	511
432.075	515
432.484	521.8
432.893	511
433.302	532.6
433.711	554.4
434.099	527.4
434.508	523
434.918	519.2
435.327	535
435.737	533.6
436.125	541.6
436.534	544
436.944	546.6
437.353	552.6
437.763	569.8
438.173	547.2
438.561	573
438.971	559
439.381	569
439.791	588.8
440.201	571.4
440.589	587.6
440.999	594
441.409	599.4
441.819	597.4
442.23	608
442.619	615.6
443.029	622.6
443.439	628.2
443.85	644.4
444.26	646.4
444.649	646.8
445.06	647.2
445.471	651.8
445.881	660
446.292	666.6
446.682	678.8
447.092	651.4
447.503	706
447.914	677.4
448.325	682.2
448.715	690.8
449.126	685
449.537	690.4
449.948	697.2
450.338	698.8
450.75	708
451.161	706.6
451.572	709.8
451.984	700.4
452.374	699.4
452.786	717.4
453.197	720.6
453.609	732.6
453.999	704.8
454.411	707.8
454.823	724.2
455.235	727.4
455.647	721.8
456.037	727.8
456.449	724.2
456.862	720.6
457.274	730
457.665	731.4
458.077	736.2
458.489	755
458.902	732.4
459.293	736.2
459.705	749.6
460.118	731.4
460.53	756.8
460.921	745.4
461.334	747.2
461.747	753.6
462.16	757.6
462.551	766.4
462.964	773
463.377	756.6
463.79	769
464.182	767.8
464.595	754.6
465.008	770
465.421	777.6
465.813	765.8
466.226	778
466.64	773.4
467.053	810.6
467.445	794.8
467.859	790.6
468.272	794.6
468.686	799.6
469.078	789.6
469.492	785.4
469.906	789.4
470.298	808.8
470.712	788.6
471.126	815.8
471.54	787.6
471.933	782.8
472.347	795
472.761	790.6
473.175	787.8
473.568	803.6
473.982	785.8
474.397	796
474.79	791.4
475.204	804
475.619	793.8
476.033	807.6
476.426	792.4
476.841	787.2
477.256	811.8
477.649	797.2
478.064	793.2
478.479	793
478.872	796.4
479.287	786.4
479.702	787.4
480.118	789.8
480.511	784.8
480.927	804.4
481.342	792.2
481.736	799.2
482.151	789.2
482.566	790.6
482.96	788.8
483.376	794.2
483.792	786.4
484.186	777.2
484.602	789.6
485.017	789.4
485.412	784.8
485.827	781
486.243	779
486.638	806.8
487.054	800.6
487.47	803.4
487.865	771
488.281	779.8
488.697	775.2
489.092	773.8
489.508	773
489.925	780.8
490.32	768
490.736	771.6
491.153	770.2
491.548	780.4
491.964	768.8
492.381	761.6
492.776	768.4
493.193	761.8
493.61	762.4
494.006	756.2
494.422	759.2
494.84	753.8
495.235	753.6
495.652	746.6
496.069	747.2
496.465	736.4
496.883	740
497.3	762
497.696	743.6
498.113	747.4
498.509	738.4
498.927	725.6
499.344	723.4
499.741	738.8
500.158	739.6
500.576	739
500.973	740
501.39	725.6
501.787	728
502.205	739.2
502.623	714.4
503.02	710
503.438	721.4
503.856	724.8
504.253	723.4
504.671	714
505.068	710.2
505.486	707.4
505.905	729.4
506.302	707.6
506.72	712.6
507.118	697.8
507.536	693
507.955	704.4
508.352	695
508.771	698.6
509.169	696.4
509.587	686.6
510.006	694.6
510.404	683.8
510.823	678.6
511.221	683.8
511.64	679.4
512.038	697.2
512.457	687.4
512.877	679
513.275	672.2
513.694	665.6
514.092	678.2
514.512	679.2
514.91	682.2
515.33	668.2
515.749	666.6
516.148	677.2
516.568	671.4
516.966	659.2
517.386	665.6
517.785	662.8
518.205	655
518.603	648.2
519.024	648.6
519.444	664.6
519.843	651
520.263	666.6
520.662	656.2
521.082	651.4
521.481	643.2
521.902	639.4
522.301	645
522.722	649
523.121	650.2
523.542	649.2
523.963	645.4
524.362	633.4
524.783	646
525.183	636.6
525.604	631.6
526.003	624.6
526.425	625.4
526.824	632.8
527.246	629.4
527.646	630
528.067	625.2
528.467	621.2
528.888	612.8
529.289	614
529.71	614.8
530.11	619.8
530.532	606.2
530.932	608
531.354	602.2
531.755	644.2
532.176	618.4
532.577	600.2
532.999	605
533.4	601
533.822	618.2
534.223	609.4
534.645	606.8
535.046	601.4
535.468	604.6
535.869	609.6
536.292	594
536.693	631.2
537.115	600.2
537.516	594.4
537.939	597.6
538.34	614
538.742	608
539.165	603.6
539.566	599.8
539.989	599
540.391	594.6
540.814	596
541.216	599.8
541.639	591.8
542.041	609.8
542.464	596.6
542.866	594.4
543.268	577.4
543.691	593
544.093	600.8
544.517	610.8
544.919	580.4
545.343	613.2
545.745	582.4
546.147	588
546.571	582.8
546.974	578.6
547.398	583.6
547.8	602.6
548.224	583.6
548.627	576.2
549.03	585.4
549.454	574.4
549.857	571.8
550.281	573.4
550.684	571.8
551.087	588.8
551.512	576
551.915	582.4
552.34	573.4
552.743	571.4
553.146	569.6
553.571	576.2
553.975	587
554.399	564.4
554.803	608
555.207	557.4
555.632	556.4
556.036	566.8
556.461	559.2
556.865	561.6
557.268	555.8
557.694	573.6
558.098	569.4
558.502	572.8
558.927	563.8
559.332	570.8
559.736	565
560.162	559
560.566	556
560.992	558.8
561.396	557.4
561.801	548.2
562.227	549.8
562.631	553
563.036	553
563.462	558.6
563.867	554.8
564.272	543.2
564.698	558.2
565.103	549.4
565.508	565
565.935	554.4
566.34	548
566.745	553.4
567.172	549
567.577	556.2
567.982	560.8
568.409	550.8
568.815	541.2
569.22	551
569.626	553.4
570.053	537
570.459	553
570.865	552.4
571.292	549.2
571.698	543.4
572.104	536.6
572.531	538.4
572.937	549.4
573.343	542
573.75	544.4
574.177	543.2
574.583	552.6
574.99	541.6
575.396	544.2
575.824	536.6
576.231	549.2
576.637	535.8
577.065	563.8
577.472	530.8
577.879	538.2
578.286	553.4
578.714	529.8
579.121	541.4
579.528	537.8
579.935	545
580.364	537.2
580.771	522.4
581.178	522.8
581.585	536.4
582.014	540.2
582.421	524
582.829	524
583.236	537.2
583.644	528.4
584.073	527.8
584.481	528.4
584.889	525.2
585.296	537.4
585.726	521.6
586.134	516.8
586.542	529.4
586.95	545.6
587.358	520
587.787	534.4
588.196	518
588.604	523.6
589.012	527.4
589.421	516.4
589.851	525
590.259	525.8
590.668	519.2
591.076	553.2
591.485	513.2
591.894	520
592.324	534
592.733	530.6
593.142	516.4
593.551	530
593.96	527.8
594.369	519.2
594.8	517.8
595.209	522.4
595.618	508.4
596.028	514.4
596.437	513
596.847	518.6
597.256	511.2
597.687	522.6
598.097	520.2
598.507	501
598.917	518.2
599.327	522.2
599.736	519.6
600.146	527.6
600.556	515.8
600.988	531.2
601.398	517.2
601.808	524.2
602.219	502.4
602.629	520.2
603.039	522
603.45	532.8
603.86	513
604.271	521.6
604.703	514.2
605.114	515.8
605.525	515.8
605.935	512.4
606.346	528.6
606.757	515.8
607.168	513.4
607.579	508.2
607.99	523.6
608.402	511.2
608.813	513.8
609.224	511.8
609.636	505.6
610.047	509.2
610.48	514
610.892	519.8
611.303	516.2
611.715	511.4
612.127	511
612.539	510.6
612.95	518
613.362	499.8
613.774	501.8
614.186	507.4
614.599	509.4
615.011	514.4
615.423	514.6
615.835	512.4
616.248	508.8
616.66	508.6
617.073	506.2
617.485	507.2
617.898	518.6
618.311	513.4
618.723	519.8
619.136	532.6
619.549	524.8
619.962	533.6
620.375	512.2
620.788	509.8
621.201	515.6
621.614	519.4
622.028	518.4
622.441	515.6
622.854	522
623.268	501
623.681	516.6
624.095	514.8
624.509	510.8
624.922	513
625.336	506.2
625.728	508.4
626.142	511.2
626.556	527
626.97	508
627.384	513.4
627.799	508.2
628.213	519.6
628.627	505.4
629.041	503
629.456	513.6
629.87	508.2
630.285	515
630.699	519.2
631.093	501
631.507	509.2
631.922	510.6
632.337	531.6
632.752	503
633.167	512
633.582	509.6
633.997	507.8
634.412	509.8
634.806	512.2
635.221	503.2
635.637	518.4
636.052	499.6
636.468	506.2
636.883	513.4
637.299	499.2
637.715	506
638.109	504.6
638.525	501.8
638.941	524.6
639.357	512.4
639.773	522
640.189	506.8
640.584	505
641	515.8
641.416	493.4
641.832	503.4
642.249	508.8
642.665	507.8
643.06	513.6
643.477	514.4
643.894	499
644.31	510.4
644.727	502.2
645.123	510.2
645.54	505.2
645.957	506.2
646.374	515.4
646.77	505.6
647.187	524.4
647.604	511.6
648.021	493
648.439	503
648.835	505.2
649.252	503.6
649.67	508.4
650.088	511.6
650.484	509.2
650.902	506.8
651.32	508.8
651.738	502
652.134	506.8
652.552	521.4
652.971	511.2
653.389	505.4
653.786	521.2
654.204	507.8
654.622	504
655.019	508
655.438	504.6
655.857	503.6
656.275	507.4
656.673	499.8
657.091	505.2
657.51	501.8
657.908	510.4
658.327	520.2
658.746	492
659.144	504.4
659.563	509
659.982	497.2
660.38	499.4
660.8	501.4
661.219	511.8
661.617	507.2
662.037	499.2
662.457	514.6
662.855	491.2
663.275	523.2
663.695	498.6
664.094	497.8
664.514	505
664.934	496.8
665.333	510.8
665.753	501
666.152	503
666.572	495.2
666.993	505.4
667.392	504.4
667.812	504.8
668.212	502.8
668.632	509.2
669.053	504
669.453	502.6
669.874	504.8
670.273	507.8
670.694	492.4
671.116	509.8
671.515	508.2
671.937	498.2
672.337	499.4
672.758	497
673.158	507.2
673.58	499.2
673.98	503
674.402	511.8
674.824	500.4
675.224	503.2
675.646	497.8
676.047	498.8
676.469	506.2
676.869	512.6
677.292	501.4
677.693	502.2
678.115	496.4
678.516	510.6
678.939	503.8
679.34	499.2
679.762	509
680.164	505.4
680.586	501.4
680.988	504.2
681.411	516.4
681.812	499.8
682.236	498.2
682.637	495.8
683.061	496.4
683.462	501.2
683.864	496.8
684.288	503.2
684.69	492.2
685.114	503.8
685.516	510.8
685.94	492.4
686.342	507.6
686.766	491.6
687.168	498.2
687.571	513
687.995	504.6
688.398	494
688.822	487.6
689.225	511
689.628	517.8
690.052	498.4
690.456	503.2
690.88	499
691.284	490.6
691.687	511.8
692.112	489.2
692.515	493.4
692.919	495.6
693.344	496.4
693.747	493
694.173	489
694.577	507
694.98	501.8
695.406	498.6
695.81	501.2
696.214	501
696.64	502.4
697.044	498.4
697.448	509.2
697.874	503.6
698.279	495.2
698.684	490.6
699.11	497.4
699.514	503.8
699.919	501.2
700.324	499
700.75	507.2
701.156	497.8
701.561	498.6
701.987	503
702.393	508.4
702.798	510.2
703.203	499.2
703.63	495.6
704.036	489.6
704.442	499.6
704.847	493.2
705.274	494.4
705.68	502.8
706.086	505.8
706.492	490
706.92	502.6
707.326	509.2
707.732	495.6
708.139	494.8
708.545	492.6
708.973	490.4
709.38	501
709.786	494.4
710.193	505.4
710.6	488
711.028	493
711.435	501
711.842	494
712.249	491
712.656	498.4
713.064	512
713.492	495.8
713.9	492.2
714.307	505
714.715	494
715.123	504.4
715.53	503.4
715.938	502.4
716.367	500
716.775	496.4
717.184	494.2
717.592	492.8
718	503.2
718.408	519.8
718.816	524
719.225	501.4
719.633	496.6
720.042	489
720.472	493
720.881	506.8
721.29	492
721.699	485.8
722.108	491.6
722.517	492.6
722.926	484.6
723.335	497.4
723.744	494.2
724.154	487
724.563	492
724.973	499.4
725.382	493
725.792	497.2
726.202	487.2
726.612	504.2
727.022	491.2
727.432	487.8
779.813	497
780.223	528.6
780.634	492.8
781.044	485.4
781.454	496.8
781.865	508
782.276	492.4
782.686	501.4
783.097	496.8
783.508	494.2
783.919	498.2
784.33	505.6
784.741	506.4
785.152	490.4
785.563	487
785.974	493.8
786.386	505.2
786.776	489.4
787.188	496.2
787.599	489.2
788.011	506
788.423	507.6
788.835	493.8
789.247	479.2
789.659	492
790.071	490.6
790.483	525.6
790.874	492.8
791.286	493.6
791.699	493
792.111	488.6
792.524	500.2
792.937	496
793.349	487.2
793.741	491
794.154	486.6
794.567	510.8
794.98	497.4
795.393	490.2
795.785	508.4
796.198	495.2
796.612	493.2
797.026	494.4
797.439	482.8
797.831	491.4
798.245	487
798.659	486.8
799.073	489.6
799.487	486.4
799.88	499.6
800.294	495.6
800.708	493
801.123	508.8
801.516	514.4
801.93	486.8
802.345	487
802.76	501.6
803.153	504
803.568	503.4
803.983	501.2
804.377	493.6
804.792	481
805.207	479.2
805.601	490
806.016	522.4
806.432	490
806.826	522.6
807.242	501
807.658	500.4
808.052	494.6
808.468	486.6
808.884	494.4
809.279	494
809.695	499
810.111	504.2
810.506	493.4
810.922	508
811.339	486.8
811.734	495.4
812.151	494.6
812.546	492.4
812.963	495.2
813.38	491.2
813.776	490
814.193	506.4
814.589	497.4
815.006	496.4
815.402	494.2
815.82	484.6
816.237	489
816.633	494.2
817.051	486
817.448	491.6
817.866	481.2
818.262	510.8
818.68	484.4
819.077	492.2
819.495	498.6
819.892	521.4
820.311	488.4
820.708	499.2
821.127	488.8
821.524	499.8
821.943	491.4
822.34	511.2
822.759	490.8
823.157	500.4
823.576	511.2
823.974	496.6
824.393	582.4
824.791	495.8
825.189	488.8
825.609	493.6
826.007	490.4
826.427	477
826.826	487
827.246	494.8
827.644	482.4
828.043	499
828.463	484.2
828.862	497.6
829.261	488.6
829.682	479.6
830.081	499.2
830.502	487.2
830.901	498.6
831.301	487
831.722	480.8
832.121	495.6
832.521	477
832.943	486.8
833.342	482.8
833.742	485.8
834.164	481.6
834.564	486.4
834.965	495.4
835.386	496.8
835.787	482.6
836.188	484.2
836.588	489.8
837.01	483.4
837.411	484.2
837.812	503
838.213	497.2
838.636	493
839.037	539
839.438	492
839.84	491.4
840.263	496.8
840.664	494.8
841.066	486
841.468	493.6
841.891	494
842.293	508.8
842.695	488.8
843.098	500
843.5	492.4
843.902	498.2
844.326	495.8
844.729	492.8
845.131	495.6
845.534	494.8
845.937	503.2
846.34	502.8
846.764	483.4
847.167	490.8
847.571	492.2
847.974	492.6
848.377	483.2
848.781	534
849.184	506.4
849.588	486.2
849.992	487.8
850.396	493.2
850.821	506.6
851.225	489.4
851.63	485
852.034	501.2
852.438	487.4
852.843	550.8
853.247	485.6
853.652	481.6
854.057	501.8
854.462	490.8
854.867	494.6
855.272	511.8
855.677	490.6
856.082	477.8
856.487	485.8
856.893	496.2
857.298	489
857.704	481.8
