#lambda/nm	C1
208.295	466
208.67	430.4
209.045	392
209.419	400.8
209.794	533.2
210.169	513.6
210.544	620.6
210.919	536.4
211.295	518.4
211.67	528.6
212.045	523.8
212.421	527
212.796	550.2
213.172	520.8
213.547	520.8
213.923	522.2
214.299	527.2
214.675	539.4
215.051	535.4
215.427	530.4
215.803	543.8
216.179	531.8
216.555	519.8
216.932	532.2
217.308	533
217.684	532
218.061	532.2
218.438	535
218.814	523
219.191	543
219.568	520.2
219.945	524.2
220.322	535
220.699	524.2
221.076	531.6
221.453	530.6
221.83	515.4
222.208	526
222.585	524.6
222.962	532.8
223.34	524.4
223.717	523.6
224.095	525.6
224.473	533.6
224.851	525
225.229	523.4
225.607	536.8
225.985	517.6
226.363	532
226.741	534.6
227.119	532
227.497	540
227.876	521.4
228.254	532.2
228.633	531
229.011	523.6
229.39	526.8
229.769	533.4
230.148	533.8
230.527	548.2
230.905	529.4
231.284	533.8
231.664	524.4
232.043	533.4
232.422	536.8
232.801	526.6
233.181	525.8
233.56	524
233.94	523.6
234.319	515.2
234.699	524
235.079	556
235.458	557
235.838	536.4
236.218	519.6
236.598	512
236.978	521.8
237.358	521
237.738	524.4
238.119	534.2
238.499	513
238.88	526
239.26	543.6
239.641	523.2
240.021	518.6
240.402	518.8
240.783	520
241.163	523
241.544	526.4
241.925	526
242.306	533.4
242.687	515.2
243.069	522.4
243.45	532.2
243.831	523.4
244.212	524.4
244.594	556.8
244.975	538.2
245.357	528.8
245.739	522
246.12	523
246.502	533.4
246.884	521.6
247.266	522.4
247.648	532
248.03	539.8
248.412	531.6
248.794	524.6
249.176	516.6
249.559	538
249.941	524.2
250.323	518.6
250.706	523.6
251.089	530.2
251.471	527.4
251.854	531.2
252.237	528.8
252.62	533.8
253.002	526
253.385	524.8
253.769	544.4
254.152	529
254.535	535.2
254.918	520.8
255.301	523.2
255.685	527.4
256.068	526.2
256.452	544.2
256.835	538.8
257.219	531.2
257.603	539.4
257.986	531.4
258.37	532.2
258.754	516
259.138	532.2
259.522	531.8
259.906	519.6
260.29	539.4
260.675	528.2
261.059	530.8
261.443	526.8
261.828	532.6
262.212	532.4
262.597	513
262.981	523.8
263.366	532.6
263.751	526.8
264.136	526
264.521	529
264.906	523.2
265.291	540.6
265.676	526.6
266.061	530.2
266.446	543
266.831	523.4
267.217	548.6
267.602	533.6
267.987	532.4
268.373	521.2
268.759	526.8
269.144	533.4
269.53	526.6
269.916	522.4
270.302	517.4
270.688	530.2
271.074	524
271.46	536.6
271.846	552
272.232	525.8
272.618	516.4
273.004	520.8
273.391	533
273.777	538.2
274.164	529.6
274.55	531.8
274.937	529
275.324	517.8
275.71	530.6
276.097	535.8
276.484	511.6
276.871	534.2
277.258	528.6
277.645	523
278.032	527.6
278.419	525.2
278.807	530
279.194	517.2
279.581	525.8
279.969	533.8
280.356	532
280.744	537
281.131	548.2
281.519	543.6
281.907	529.4
282.295	521.8
282.682	535.8
283.07	530.8
283.458	530.4
283.846	536.8
284.235	539.2
284.623	538
285.011	520.8
285.399	535.2
285.788	527.4
286.176	518.8
286.565	533.4
286.953	519.4
287.342	528.6
287.731	523
288.119	511
288.508	514
288.897	523.4
289.286	509.6
289.675	526
290.064	529.8
290.453	521
290.821	516.2
291.21	533.8
291.599	530.6
291.989	517.2
292.378	523.2
292.768	535.8
293.157	534.4
293.547	526.4
293.936	522.6
294.326	522.2
294.716	527.8
295.106	518.8
295.496	534.4
295.886	532.6
296.276	531.2
296.666	524.6
297.056	526.4
297.446	519.6
297.836	539.4
298.227	535.2
298.617	533
299.008	534.2
299.398	528.8
299.789	519
300.179	532.2
300.57	538.4
300.961	532.2
301.352	526.8
301.742	538
302.133	526.2
302.524	526.6
302.915	528.2
303.307	528.6
303.698	534.2
304.089	528
304.48	527.4
304.872	533
305.263	520.4
305.655	525
306.046	532
306.438	529.6
306.829	528.2
307.221	541.6
307.613	538.6
308.005	542.6
308.397	546.4
308.789	548.4
309.181	551.4
309.573	534.8
309.965	537.2
310.357	528.8
310.749	538.4
311.142	524.4
311.534	522.6
311.926	534.8
312.319	534
312.711	524.6
313.104	540.4
313.497	532.2
313.889	563.6
314.282	545.4
314.675	547.4
315.068	527.8
315.461	542.4
315.854	542.6
316.247	540
316.64	527.2
317.033	524.8
317.405	531
317.798	526.2
318.192	533.4
318.585	519.2
318.979	533.4
319.372	526.2
319.766	527.2
320.16	537
320.553	543
320.947	547.8
321.341	521.6
321.735	523.6
322.129	519
322.523	552.8
322.917	516.6
323.311	536.6
323.705	531.4
324.099	540
324.494	547.6
324.888	535.4
325.282	528.4
325.677	537.2
326.071	544.2
326.466	526
326.861	532.4
327.255	542.2
327.65	537.6
328.045	543.2
328.44	534.4
328.835	528.6
329.23	521.8
329.625	549
330.02	530.2
330.415	543.4
330.81	529.6
331.206	533.2
331.601	526.6
331.996	538.2
332.37	542.4
332.766	514.4
333.161	541.8
333.557	526
333.953	527.6
334.348	787.6
334.744	531.8
335.14	530.8
335.536	525.2
335.932	536.2
336.328	521.8
336.724	525.8
337.12	521.2
337.516	523.6
337.913	530.2
338.309	534.6
338.705	527
339.102	540.2
339.498	520.4
339.895	535.8
340.291	521.4
340.688	537.4
341.085	521.8
341.481	523
341.878	527.6
342.275	541.8
342.672	524.2
343.069	526.8
343.466	518
343.842	534.4
344.239	513
344.636	528.6
345.033	521.2
345.431	517.8
345.828	522.6
346.225	523.6
346.623	553
347.02	525.8
347.418	528.8
347.816	530.8
348.213	518.8
348.611	532.8
349.009	522.4
349.407	539.4
349.805	515
350.203	512
350.601	535
350.999	524.6
351.397	567.2
351.795	521.6
352.193	531.6
352.57	533
352.969	535.4
353.367	512
353.766	521
354.164	523.8
354.563	531.2
354.961	531.4
355.36	523
355.759	525.4
356.158	521.4
356.557	520
356.956	519.6
357.355	521.6
357.754	526.4
358.153	531
358.552	548.6
358.951	525
359.35	528.4
359.75	519
360.149	513.8
360.527	509.4
360.926	513
361.326	524.8
361.726	520.6
362.125	518.6
362.525	532.6
362.925	523.8
363.325	532.6
363.724	528.2
364.124	516
364.524	513.6
364.924	524.6
365.324	528.8
365.725	512.8
366.125	522.6
366.525	520.6
366.904	514
367.304	501.4
367.705	534.4
368.105	526
368.506	519.6
368.906	516.8
369.307	528.6
369.708	522
370.108	499
370.509	520
370.91	517.4
371.311	516.8
371.712	524.8
372.113	513.6
372.514	515.4
372.894	511.4
373.295	515.4
373.696	519
374.097	527.2
374.499	547
374.9	522
375.301	511
375.703	524.6
376.105	508.8
376.506	523.8
376.908	524.2
377.309	517.4
377.711	525.4
378.113	509.4
378.493	519.4
378.895	518.2
379.297	525.6
379.699	516.2
380.102	516.6
380.504	520.4
380.906	511
381.308	539.8
381.71	522.8
382.113	531.8
382.515	512
382.918	525.6
383.299	514.2
383.701	520.8
384.104	518.8
384.507	499.4
384.909	515.8
385.312	505.6
385.715	511.2
386.118	518.2
386.521	506.2
386.924	524.2
387.327	516.4
387.709	513.6
388.112	503.2
388.515	516.6
388.918	514.4
389.322	525.6
389.725	515.6
390.129	535
390.532	520.2
390.936	512.2
391.339	508.6
391.743	518.4
392.125	504.4
392.529	524.4
392.933	529.6
393.337	517.8
393.74	510.4
394.144	517.8
394.548	510.2
394.953	516
395.357	529.2
395.761	521.2
396.144	523
396.548	517.2
396.952	517.2
397.357	521.4
397.761	514.2
398.166	518.8
398.57	517.2
398.975	513.4
399.379	525.6
399.763	556.2
400.168	516.8
400.572	522.6
400.977	521.4
401.382	537.2
401.787	525
402.192	531
402.597	533.2
403.002	504.6
403.386	532.2
403.791	534.8
404.197	517.2
404.602	528.4
405.007	514.6
405.413	518.6
405.818	519.8
406.224	514.2
406.608	521
407.014	515.8
407.42	531
407.825	510.6
408.231	525.8
408.637	527.6
409.043	529
409.449	515.2
409.834	515
410.24	515.2
410.646	528
411.052	525.2
411.458	523.4
411.865	525.6
412.271	533.8
412.677	527.2
413.062	523.2
413.469	520.6
413.875	537.2
414.282	522.8
414.689	528.8
415.095	533.2
415.502	523.2
415.888	519.6
416.294	501.6
416.701	539.2
417.108	508.6
417.515	526.6
417.923	516.6
418.33	529.2
418.715	533.2
419.123	512.8
419.53	518.8
419.937	525.4
420.345	531.6
420.752	518.2
421.16	525
421.546	523
421.953	528.6
422.361	518.2
422.769	511.8
423.177	512
423.585	546.2
423.992	536
424.379	528.8
424.787	529.4
425.195	539.8
425.603	522.4
426.011	526.4
426.419	528.6
426.806	524.2
427.214	520.6
427.623	532
428.031	535
428.44	518.6
428.848	531
429.235	531.4
429.644	527
430.053	525.4
430.461	532
430.87	536.2
431.279	529.4
431.666	520
432.075	519.6
432.484	526.2
432.893	520.2
433.302	524.8
433.711	564.2
434.099	522.2
434.508	519
434.918	516
435.327	525
435.737	532
436.125	531.8
436.534	533.8
436.944	532
437.353	535.8
437.763	549
438.173	527.4
438.561	545.4
438.971	536.8
439.381	542.8
439.791	550.8
440.201	528.8
440.589	564.6
440.999	570.4
441.409	570.8
441.819	562.6
442.23	579
442.619	578.4
443.029	577.8
443.439	577
443.85	589
444.26	596.4
444.649	602.2
445.06	604.8
445.471	596.8
445.881	602.6
446.292	618
446.682	620.8
447.092	597.4
447.503	652
447.914	617
448.325	619.2
448.715	621.6
449.126	610.8
449.537	624.6
449.948	629.2
450.338	630
450.75	640
451.161	634.4
451.572	636.4
451.984	630.8
452.374	623.8
452.786	634
453.197	646
453.609	648
453.999	641
454.411	636.2
454.823	661.2
455.235	647.8
455.647	646.2
456.037	653.8
456.449	638.8
456.862	649.6
457.274	658
457.665	651.2
458.077	659.8
458.489	665
458.902	651.4
459.293	654
459.705	663.4
460.118	655.8
460.53	664.4
460.921	653.6
461.334	668.4
461.747	663.6
462.16	679.6
462.551	683
462.964	683.4
463.377	657.8
463.79	662.4
464.182	674.6
464.595	668.8
465.008	676.4
465.421	679.4
465.813	678.8
466.226	682.8
466.64	672.2
467.053	721
467.445	692.8
467.859	703
468.272	696.8
468.686	696
469.078	676.8
469.492	682.4
469.906	693.4
470.298	686
470.712	684.8
471.126	709.8
471.54	680.2
471.933	680.6
472.347	689.2
472.761	692.6
473.175	689
473.568	690.8
473.982	686.2
474.397	699.4
474.79	698.8
475.204	697.6
475.619	687.8
476.033	700.4
476.426	697.2
476.841	685.8
477.256	710.6
477.649	685.6
478.064	683.4
478.479	694.6
478.872	697.6
479.287	685.2
479.702	689.8
480.118	699.4
480.511	695.2
480.927	697.2
481.342	684.6
481.736	694.2
482.151	682.2
482.566	698.6
482.96	686.8
483.376	690.4
483.792	686.8
484.186	682.2
484.602	682.2
485.017	687.8
485.412	687.2
485.827	690.6
486.243	692.8
486.638	710.2
487.054	691
487.47	701.6
487.865	687.2
488.281	683.2
488.697	682.4
489.092	674.4
489.508	678.6
489.925	692
490.32	674
490.736	693
491.153	681.8
491.548	688.6
491.964	681.8
492.381	676.2
492.776	679.6
493.193	672.6
493.61	682.4
494.006	666.6
494.422	681
494.84	671.2
495.235	686.6
495.652	669.4
496.069	684.8
496.465	660.8
496.883	676
497.3	687
497.696	665.6
498.113	675.2
498.509	656.4
498.927	649.4
499.344	655.4
499.741	657.6
500.158	660.2
500.576	671.6
500.973	659.4
501.39	656.4
501.787	646
502.205	660.6
502.623	644
503.02	648
503.438	655
503.856	650.8
504.253	648.6
504.671	650.6
505.068	644.4
505.486	645.4
505.905	663.2
506.302	651.4
506.72	651.4
507.118	632.4
507.536	637.8
507.955	639.4
508.352	632.4
508.771	645
509.169	646.6
509.587	641.6
510.006	638.6
510.404	625.6
510.823	620.2
511.221	630
511.64	621.6
512.038	644.6
512.457	622.2
512.877	621
513.275	622.4
513.694	623.4
514.092	618.6
514.512	631.8
514.91	624.8
515.33	624.6
515.749	620.2
516.148	620
516.568	622.4
516.966	619.4
517.386	609.6
517.785	621.4
518.205	607.8
518.603	611.4
519.024	607.8
519.444	619.2
519.843	614
520.263	622
520.662	607.4
521.082	609.2
521.481	604.4
521.902	607
522.301	606.6
522.722	603.4
523.121	612.2
523.542	597.2
523.963	612.4
524.362	595.2
524.783	593
525.183	597.2
525.604	602.6
526.003	588.4
526.425	588.2
526.824	595.4
527.246	599
527.646	595.2
528.067	595.2
528.467	591.2
528.888	589.2
529.289	581.8
529.71	583.8
530.11	582.2
530.532	583
530.932	584
531.354	577
531.755	610.4
532.176	594
532.577	588.6
532.999	585.6
533.4	572.6
533.822	586.4
534.223	577.4
534.645	572.2
535.046	568
535.468	576.8
535.869	582.2
536.292	568.4
536.693	596
537.115	570
537.516	579
537.939	574.4
538.34	583.8
538.742	589.2
539.165	580.4
539.566	568.2
539.989	567
540.391	573.4
540.814	576.4
541.216	574.2
541.639	574.4
542.041	578.8
542.464	575
542.866	566.8
543.268	565.6
543.691	576.2
544.093	574.2
544.517	587.4
544.919	560
545.343	592.2
545.745	566.2
546.147	569.8
546.571	569.4
546.974	557.8
547.398	566.6
547.8	574.8
548.224	554.4
548.627	562.8
549.03	565
549.454	558
549.857	550.8
550.281	552.8
550.684	567
551.087	568.6
551.512	571.6
551.915	563
552.34	564.6
552.743	554.4
553.146	559.2
553.571	552.6
553.975	571
554.399	553.2
554.803	588
555.207	543.8
555.632	543.4
556.036	559.8
556.461	540.2
556.865	556.2
557.268	544.2
557.694	544.8
558.098	549.2
558.502	545.4
558.927	542.6
559.332	548
559.736	543.6
560.162	548
560.566	549.8
560.992	550.6
561.396	546
561.801	547.2
562.227	536.2
562.631	541.4
563.036	539.8
563.462	555.6
563.867	544.8
564.272	530.8
564.698	549.4
565.103	531.2
565.508	555.2
565.935	536.4
566.34	541.2
566.745	547.4
567.172	534
567.577	553.6
567.982	544.8
568.409	529.8
568.815	524.2
569.22	540
569.626	548
570.053	528.4
570.459	537.6
570.865	533.6
571.292	543.4
571.698	538.8
572.104	525.2
572.531	529
572.937	542.6
573.343	529
573.75	523
574.177	535
574.583	544
574.99	528.6
575.396	533.2
575.824	535
576.231	527.4
576.637	528
577.065	545.4
577.472	522.4
577.879	528.2
578.286	531.6
578.714	527
579.121	523.4
579.528	520.6
579.935	536.6
580.364	519.8
580.771	513.2
581.178	516.2
581.585	523.8
582.014	532
582.421	523.4
582.829	519
583.236	528.6
583.644	516.6
584.073	514.4
584.481	528.2
584.889	525.6
585.296	532
585.726	530.6
586.134	508.2
586.542	516.2
586.95	531.2
587.358	518
587.787	520.6
588.196	515.8
588.604	519
589.012	521.6
589.421	514.2
589.851	520.6
590.259	525.2
590.668	519.2
591.076	556.6
591.485	508.8
591.894	525.8
592.324	527
592.733	526.8
593.142	515
593.551	518.2
593.96	549.2
594.369	508.6
594.8	515.4
595.209	521
595.618	508.6
596.028	509.4
596.437	508.8
596.847	518.6
597.256	511.8
597.687	523.6
598.097	517.6
598.507	512.6
598.917	507.6
599.327	514.2
599.736	518.8
600.146	522
600.556	518.2
600.988	519.2
601.398	506.8
601.808	523.6
602.219	499.8
602.629	513.6
603.039	518.8
603.45	537.4
603.86	515.6
604.271	530.2
604.703	515.2
605.114	503.2
605.525	507
605.935	514.6
606.346	525.6
606.757	516
607.168	511
607.579	502.2
607.99	518.8
608.402	512.6
608.813	512
609.224	514.4
609.636	502.6
610.047	504
610.48	507
610.892	516.6
611.303	520.2
611.715	515.2
612.127	504.6
612.539	515.2
612.95	513.2
613.362	502.8
613.774	507
614.186	508.6
614.599	507.4
615.011	510.8
615.423	519.2
615.835	506
616.248	502.6
616.66	516.6
617.073	502.4
617.485	507.8
617.898	517
618.311	507.4
618.723	512.8
619.136	532
619.549	520.8
619.962	532.4
620.375	508.6
620.788	513
621.201	508.6
621.614	515.6
622.028	501.2
622.441	508
622.854	523
623.268	501.6
623.681	508.4
624.095	511.4
624.509	522.2
624.922	514.8
625.336	503
625.728	513.8
626.142	518.8
626.556	524.4
626.97	511.4
627.384	510.2
627.799	501.8
628.213	515
628.627	502.8
629.041	502.4
629.456	503
629.87	511.2
630.285	517.4
630.699	510.6
631.093	504.2
631.507	506.4
631.922	505.4
632.337	516.4
632.752	499.2
633.167	497.2
633.582	502.6
633.997	501.4
634.412	500.8
634.806	506.4
635.221	497
635.637	507.6
636.052	505.4
636.468	505
636.883	524.4
637.299	507
637.715	501
638.109	502.4
638.525	499.8
638.941	515.8
639.357	507.2
639.773	511.6
640.189	506
640.584	500.8
641	505
641.416	494.4
641.832	500.4
642.249	507.6
642.665	501
643.06	502.8
643.477	516.6
643.894	495.8
644.31	505.2
644.727	510.4
645.123	496
645.54	498
645.957	503.2
646.374	517.2
646.77	507.6
647.187	525.8
647.604	507.6
648.021	496.4
648.439	505.8
648.835	507
649.252	508
649.67	498.6
650.088	506
650.484	511.2
650.902	508.8
651.32	507.4
651.738	503
652.134	505.8
652.552	523.4
652.971	510.2
653.389	505.4
653.786	517.4
654.204	519.4
654.622	492
655.019	499.8
655.438	511
655.857	503.2
656.275	499.8
656.673	494.2
657.091	511
657.51	499.6
657.908	504.2
658.327	513.6
658.746	485
659.144	499.4
659.563	506.4
659.982	504.2
660.38	500.2
660.8	495.8
661.219	511.2
661.617	506.8
662.037	504
662.457	509.2
662.855	501.4
663.275	532.6
663.695	503.2
664.094	496.6
664.514	496.2
664.934	491.6
665.333	511.2
665.753	497.2
666.152	487.6
666.572	497
666.993	508.6
667.392	499
667.812	501.4
668.212	501.4
668.632	514.4
669.053	490
669.453	508.2
669.874	502.6
670.273	506.8
670.694	490.6
671.116	510.4
671.515	509.6
671.937	495.8
672.337	502.2
672.758	491.8
673.158	506
673.58	491.4
673.98	497.2
674.402	506.4
674.824	489.8
675.224	491.6
675.646	490.6
676.047	489.4
676.469	498.6
676.869	503.8
677.292	498.6
677.693	494.4
678.115	495.2
678.516	500.2
678.939	502
679.34	498.6
679.762	509
680.164	492.6
680.586	486.6
680.988	501.2
681.411	513.4
681.812	494.2
682.236	498.2
682.637	491.8
683.061	489.6
683.462	497.2
683.864	498.6
684.288	507.2
684.69	488.2
685.114	502.8
685.516	500.8
685.94	494
686.342	502.4
686.766	491.8
687.168	493.4
687.571	516.6
687.995	497.8
688.398	499.4
688.822	498.8
689.225	506.8
689.628	508
690.052	502.2
690.456	508
690.88	504
691.284	489.4
691.687	503
692.112	494.8
692.515	492.8
692.919	489.8
693.344	503.6
693.747	499.6
694.173	492.6
694.577	505.6
694.98	501
695.406	496
695.81	499.4
696.214	501.4
696.64	501.8
697.044	495.6
697.448	504.2
697.874	492.2
698.279	500.8
698.684	495
699.11	493.4
699.514	495.2
699.919	493
700.324	490.8
700.75	495
701.156	503.4
701.561	504.6
701.987	508.2
702.393	503.2
702.798	508.8
703.203	501.2
703.63	491.4
704.036	496.4
704.442	497.8
704.847	496.4
705.274	501.2
705.68	503.2
706.086	504.8
706.492	487.8
706.92	494.6
707.326	509.6
707.732	496.4
708.139	493.2
708.545	485
708.973	495
709.38	499.4
709.786	491.4
710.193	502
710.6	498.2
711.028	495.2
711.435	497.6
711.842	493.6
712.249	488.4
712.656	494.8
713.064	503.2
713.492	493.4
713.9	492
714.307	499
714.715	500.6
715.123	500.4
715.53	499.2
715.938	501.4
716.367	498.4
716.775	488
717.184	484.6
717.592	499
718	500.8
718.408	519.2
718.816	529.2
719.225	496.2
719.633	491.4
720.042	482.4
720.472	489.4
720.881	511.6
721.29	498.8
721.699	489.2
722.108	492.4
722.517	497
722.926	495.2
723.335	499.6
723.744	494.2
724.154	493.8
724.563	498.4
724.973	498
725.382	496.6
725.792	493.2
726.202	498.8
726.612	505.2
727.022	492.8
727.432	488
779.813	494.4
780.223	532
780.634	496.6
781.044	483
781.454	492
781.865	497.6
782.276	488.8
782.686	504.6
783.097	496.8
783.508	492.4
783.919	488.2
784.33	501.4
784.741	502.8
785.152	485.4
785.563	485
785.974	486.2
786.386	492.8
786.776	491
787.188	488.4
787.599	477.8
788.011	499.8
788.423	494.2
788.835	493.6
789.247	490
789.659	498.8
790.071	496
790.483	525.4
790.874	487.6
791.286	498.8
791.699	487
792.111	499.8
792.524	493.8
792.937	498.8
793.349	488.2
793.741	488
794.154	493
794.567	507
794.98	493
795.393	482.4
795.785	507
796.198	494.2
796.612	502.6
797.026	496.4
797.439	484
797.831	492.6
798.245	483.6
798.659	490
799.073	492
799.487	492.4
799.88	490.8
800.294	487.8
800.708	499.8
801.123	493.2
801.516	510.8
801.93	482.8
802.345	480.2
802.76	488
803.153	504
803.568	501.6
803.983	496.8
804.377	494.2
804.792	489.8
805.207	479
805.601	492.8
806.016	519.4
806.432	482
806.826	518
807.242	493.6
807.658	497.4
808.052	488
808.468	489.4
808.884	484.2
809.279	490
809.695	497.2
810.111	514
810.506	493.8
810.922	510
811.339	485.4
811.734	497.2
812.151	486.4
812.546	484
812.963	477.6
813.38	491.8
813.776	489
814.193	509.2
814.589	481.6
815.006	491.8
815.402	489.4
815.82	492
816.237	488.6
816.633	496.6
817.051	482
817.448	487.2
817.866	489.6
818.262	510.8
818.68	495.8
819.077	489.8
819.495	493.4
819.892	523.4
820.311	484
820.708	487
821.127	488.8
821.524	499.4
821.943	495.6
822.34	504
822.759	491.6
823.157	480.4
823.576	498.6
823.974	497.8
824.393	579.2
824.791	488.4
825.189	478
825.609	488
826.007	489.4
826.427	476.8
826.826	488.6
827.246	493.2
827.644	480.8
828.043	495.6
828.463	490.4
828.862	498.6
829.261	491.8
829.682	478.6
830.081	498.6
830.502	488
830.901	499.4
831.301	491.4
831.722	483.8
832.121	486.6
832.521	486.8
832.943	491
833.342	491.4
833.742	483.8
834.164	486.2
834.564	483
834.965	494.2
835.386	499
835.787	492.6
836.188	488.8
836.588	484.4
837.01	490.4
837.411	481.6
837.812	493.2
838.213	498.2
838.636	484.8
839.037	538.2
839.438	504.6
839.84	495.2
840.263	494
840.664	495.2
841.066	486.8
841.468	493.4
841.891	492.2
842.293	494
842.695	494.4
843.098	496.6
843.5	487.6
843.902	501.8
844.326	490
844.729	490.8
845.131	501.4
845.534	491.4
845.937	500
846.34	508.2
846.764	490
847.167	497
847.571	482.2
847.974	495.4
848.377	488.8
848.781	526.4
849.184	510.2
849.588	493
849.992	492.6
850.396	492.4
850.821	506
851.225	495.2
851.63	479.2
852.034	502
852.438	485.4
852.843	512
853.247	489
853.652	486
854.057	499.8
854.462	493.8
854.867	491.8
855.272	514.2
855.677	495.6
856.082	489.6
856.487	479.2
856.893	489
857.298	490.4
857.704	485.6
