#lambda/nm	C1
208.295	463
208.67	433.4
209.045	396.2
209.419	403
209.794	527.8
210.169	519.6
210.544	615.2
210.919	531.4
211.295	517.2
211.67	528.6
212.045	523
212.421	523.6
212.796	550.2
213.172	525.8
213.547	526.2
213.923	520.6
214.299	522.2
214.675	534.4
215.051	530.2
215.427	531.4
215.803	541.8
216.179	528.4
216.555	521
216.932	534
217.308	536.2
217.684	529.4
218.061	534.8
218.438	534.4
218.814	523.8
219.191	532.4
219.568	516.8
219.945	529
220.322	540.6
220.699	529.4
221.076	533
221.453	533.2
221.83	523.8
222.208	528.4
222.585	519.8
222.962	525.6
223.34	530.8
223.717	533
224.095	527.8
224.473	529.4
224.851	525.2
225.229	517.2
225.607	544
225.985	521.6
226.363	526.8
226.741	538.2
227.119	527.4
227.497	539
227.876	516.2
228.254	533.4
228.633	530.6
229.011	530.4
229.39	529
229.769	528.2
230.148	529
230.527	548.8
230.905	526.4
231.284	524.6
231.664	523.2
232.043	532.2
232.422	537.2
232.801	520
233.181	531.2
233.56	524.2
233.94	528
234.319	524.4
234.699	529.2
235.079	563.4
235.458	563
235.838	537.6
236.218	525.2
236.598	515.8
236.978	525.6
237.358	528.6
237.738	525.6
238.119	535
238.499	519.2
238.88	537.8
239.26	537.6
239.641	515
240.021	529.8
240.402	524.2
240.783	527.6
241.163	524
241.544	535.8
241.925	524.6
242.306	540.8
242.687	524.6
243.069	526
243.45	532.8
243.831	521.8
244.212	529.4
244.594	556.2
244.975	534.8
245.357	536.8
245.739	522
246.12	526.2
246.502	541.6
246.884	529.2
247.266	517
247.648	534.8
248.03	540.4
248.412	533.8
248.794	534.4
249.176	525.6
249.559	531.2
249.941	524.6
250.323	520.2
250.706	518.6
251.089	526.8
251.471	528.4
251.854	532.6
252.237	530
252.62	527.6
253.002	531.4
253.385	522.2
253.769	535.8
254.152	533
254.535	530.6
254.918	520
255.301	524.2
255.685	525.6
256.068	517.2
256.452	539.2
256.835	529.4
257.219	526.4
257.603	530.8
257.986	514.8
258.37	531.8
258.754	517
259.138	536.8
259.522	529.2
259.906	520.8
260.29	536.8
260.675	524
261.059	535
261.443	516
261.828	535.2
262.212	537.4
262.597	523.6
262.981	519.2
263.366	532.2
263.751	528.2
264.136	525.6
264.521	524
264.906	522.4
265.291	535.8
265.676	520.4
266.061	531.4
266.446	542.6
266.831	531.8
267.217	543.2
267.602	533
267.987	533
268.373	529.6
268.759	536
269.144	541.4
269.53	532
269.916	532.2
270.302	531.6
270.688	533
271.074	529.4
271.46	543
271.846	553
272.232	526.8
272.618	524.4
273.004	528.6
273.391	535
273.777	534.8
274.164	532.4
274.55	534.8
274.937	529
275.324	519.4
275.71	537.8
276.097	536.4
276.484	518.8
276.871	527.4
277.258	535.6
277.645	518.8
278.032	527.6
278.419	529.4
278.807	527.8
279.194	519.8
279.581	513
279.969	533
280.356	527.8
280.744	532
281.131	547.2
281.519	536.6
281.907	527.2
282.295	526.8
282.682	539
283.07	537.8
283.458	548.8
283.846	540.6
284.235	539.2
284.623	530
285.011	519
285.399	528.8
285.788	523.8
286.176	523.8
286.565	541.2
286.953	526.4
287.342	524
287.731	527
288.119	518.6
288.508	521
288.897	530
289.286	520.8
289.675	529
290.064	536.4
290.453	520.4
290.821	531.8
291.21	536.6
291.599	525.4
291.989	528
292.378	537
292.768	541.2
293.157	536
293.547	535
293.936	524.2
294.326	526.8
294.716	532.2
295.106	521.6
295.496	534.2
295.886	533.8
296.276	526.8
296.666	519.8
297.056	519.6
297.446	522.8
297.836	535.4
298.227	520.4
298.617	523.6
299.008	539.2
299.398	523
299.789	522.2
300.179	528
300.57	535.4
300.961	526.2
301.352	519
301.742	534.8
302.133	529.2
302.524	526.4
302.915	529.6
303.307	522.6
303.698	532.6
304.089	537
304.48	525
304.872	530.6
305.263	526.6
305.655	518.6
306.046	537.2
306.438	536.4
306.829	522.4
307.221	532.6
307.613	533.2
308.005	536.4
308.397	529.2
308.789	543
309.181	557.6
309.573	539.4
309.965	538.2
310.357	527
310.749	545.2
311.142	526.6
311.534	521.2
311.926	533.2
312.319	530
312.711	519.2
313.104	534.6
313.497	519.2
313.889	558
314.282	540.2
314.675	538.4
315.068	528.4
315.461	536
315.854	553.4
316.247	536.4
316.64	520.2
317.033	526.4
317.405	530.8
317.798	535.6
318.192	534.2
318.585	525.8
318.979	536.8
319.372	523.2
319.766	524.2
320.16	543.2
320.553	540
320.947	544.6
321.341	525.2
321.735	527.8
322.129	522
322.523	547
322.917	525.6
323.311	530.4
323.705	535.8
324.099	527.4
324.494	539.4
324.888	542
325.282	519.4
325.677	538.6
326.071	535.2
326.466	536.6
326.861	522
327.255	540.6
327.65	538.8
328.045	534.2
328.44	527
328.835	530.4
329.23	516.2
329.625	540.4
330.02	515.6
330.415	538.6
330.81	525.2
331.206	534.8
331.601	524.4
331.996	530.2
332.37	547.2
332.766	512.4
333.161	541.2
333.557	526.4
333.953	530.8
334.348	858.2
334.744	521.4
335.14	516.4
335.536	525.2
335.932	533.2
336.328	530
336.724	528
337.12	521.4
337.516	529
337.913	528.2
338.309	533.6
338.705	519.4
339.102	534.6
339.498	530.4
339.895	535
340.291	526.4
340.688	536.4
341.085	525.6
341.481	530.8
341.878	529.2
342.275	542.8
342.672	523
343.069	523.4
343.466	526.4
343.842	536.4
344.239	521.4
344.636	522.8
345.033	524.4
345.431	521.8
345.828	530
346.225	514.8
346.623	551.2
347.02	521.4
347.418	529
347.816	538.6
348.213	515.2
348.611	534
349.009	516.6
349.407	535.4
349.805	513
350.203	515.6
350.601	538.2
350.999	513.8
351.397	578
351.795	511
352.193	533.4
352.57	522.8
352.969	530.2
353.367	518.8
353.766	510
354.164	515.2
354.563	527.8
354.961	515.8
355.36	517
355.759	525.4
356.158	521.8
356.557	514.4
356.956	514.6
357.355	510.6
357.754	518.4
358.153	527.8
358.552	539.8
358.951	519.4
359.35	534
359.75	517.2
360.149	516.8
360.527	503.4
360.926	509.4
361.326	523
361.726	521.6
362.125	522.2
362.525	533
362.925	521.2
363.325	523
363.724	519
364.124	519.6
364.524	511.4
364.924	516.4
365.324	535.6
365.725	510.4
366.125	519
366.525	524.2
366.904	513.8
367.304	513
367.705	530
368.105	533.2
368.506	517.4
368.906	523.2
369.307	513.8
369.708	521.4
370.108	511.4
370.509	524.4
370.91	514.6
371.311	523.8
371.712	518.6
372.113	514.2
372.514	518.4
372.894	524.6
373.295	516.8
373.696	525.4
374.097	533.2
374.499	546.4
374.9	516.4
375.301	522.2
375.703	521
376.105	515.8
376.506	527.4
376.908	526.8
377.309	519.8
377.711	525.4
378.113	512
378.493	528
378.895	513.2
379.297	530.4
379.699	514.8
380.102	522.6
380.504	521.2
380.906	518.4
381.308	538.2
381.71	522
382.113	524.8
382.515	511.8
382.918	524.2
383.299	522.2
383.701	531
384.104	521.6
384.507	510.2
384.909	520
385.312	511.6
385.715	510.6
386.118	516.4
386.521	512.6
386.924	533.6
387.327	510.2
387.709	517.4
388.112	510.8
388.515	523.4
388.918	525.2
389.322	523.4
389.725	518.6
390.129	542
390.532	522.6
390.936	518.2
391.339	521.6
391.743	527.6
392.125	510
392.529	529.6
392.933	531.6
393.337	514.6
393.74	516.6
394.144	525.6
394.548	516.2
394.953	515.4
395.357	525.6
395.761	512.4
396.144	524
396.548	515.2
396.952	522.8
397.357	517.6
397.761	514.8
398.166	522.6
398.57	515
398.975	508.8
399.379	528.2
399.763	550.2
400.168	516.4
400.572	523.4
400.977	522.2
401.382	541.6
401.787	530.2
402.192	529.6
402.597	540
403.002	511.8
403.386	531.2
403.791	540
404.197	519
404.602	520.8
405.007	513.4
405.413	510.2
405.818	522
406.224	514.8
406.608	515.4
407.014	513.8
407.42	532.4
407.825	511
408.231	523.6
408.637	516.6
409.043	536.2
409.449	510.4
409.834	517.4
410.24	519.4
410.646	528.2
411.052	524
411.458	519.4
411.865	522.6
412.271	535.4
412.677	523.2
413.062	528.6
413.469	516.2
413.875	541.4
414.282	529.2
414.689	520.6
415.095	523.6
415.502	514.4
415.888	523.2
416.294	503.4
416.701	559.8
417.108	521.8
417.515	523
417.923	517.2
418.33	534.4
418.715	524.8
419.123	520.2
419.53	520.8
419.937	516
420.345	535.6
420.752	524.2
421.16	531.8
421.546	515.8
421.953	526.4
422.361	513.4
422.769	516.6
423.177	509.8
423.585	535.2
423.992	530.8
424.379	536.6
424.787	523
425.195	537
425.603	524
426.011	531.4
426.419	534
426.806	529.8
427.214	522.4
427.623	530.4
428.031	532.4
428.44	529.4
428.848	530.8
429.235	536.8
429.644	528.2
430.053	525
430.461	534
430.87	542
431.279	526.8
431.666	525.8
432.075	525.6
432.484	528.8
432.893	526.8
433.302	539
433.711	559.8
434.099	542.2
434.508	537
434.918	523
435.327	546.6
435.737	544.2
436.125	550.4
436.534	556
436.944	563.2
437.353	569.4
437.763	582.8
438.173	572.4
438.561	590.2
438.971	561
439.381	580
439.791	583.8
440.201	575.6
440.589	603.6
440.999	612.2
441.409	616
441.819	611.2
442.23	625
442.619	640
443.029	638.6
443.439	640.4
443.85	649
444.26	663
444.649	656.6
445.06	657
445.471	653.4
445.881	663.4
446.292	677.6
446.682	677.8
447.092	659.2
447.503	716.2
447.914	678.2
448.325	675.6
448.715	681.6
449.126	682.2
449.537	681.4
449.948	684.4
450.338	688.6
450.75	697.8
451.161	700.8
451.572	705
451.984	701
452.374	693.6
452.786	702.6
453.197	717
453.609	713.4
453.999	710.6
454.411	708.2
454.823	731.4
455.235	730.8
455.647	715.8
456.037	739.4
456.449	720.2
456.862	729
457.274	721.8
457.665	725.4
458.077	743.6
458.489	749.8
458.902	731.2
459.293	741.2
459.705	735.8
460.118	741.4
460.53	739.2
460.921	740
461.334	736
461.747	750.6
462.16	758
462.551	762.8
462.964	753.8
463.377	748.6
463.79	756.4
464.182	759.4
464.595	739
465.008	767.2
465.421	756.4
465.813	755.6
466.226	766.2
466.64	758.6
467.053	800.8
467.445	785.2
467.859	789.6
468.272	767.8
468.686	787.8
469.078	761.6
469.492	772.6
469.906	785.6
470.298	779
470.712	774.4
471.126	802.2
471.54	762.6
471.933	774.8
472.347	776.4
472.761	773.8
473.175	762.6
473.568	775.4
473.982	766.4
474.397	774.8
474.79	782
475.204	780.2
475.619	777.8
476.033	782.8
476.426	773.8
476.841	772.8
477.256	799
477.649	782
478.064	779
478.479	759.4
478.872	775
479.287	765.8
479.702	762.2
480.118	778
480.511	767.8
480.927	775
481.342	762.6
481.736	779.6
482.151	769.4
482.566	782
482.96	764
483.376	775.8
483.792	766
484.186	780.4
484.602	764
485.017	761
485.412	771
485.827	768
486.243	766.6
486.638	782.4
487.054	764.4
487.47	774.8
487.865	756.6
488.281	761.4
488.697	757.6
489.092	760
489.508	751
489.925	760.6
490.32	752.2
490.736	747.8
491.153	758.8
491.548	747.6
491.964	766.6
492.381	734.6
492.776	750.6
493.193	738.2
493.61	750.2
494.006	745.2
494.422	740
494.84	730.4
495.235	744
495.652	727.6
496.069	735.8
496.465	730.2
496.883	721.4
497.3	745.2
497.696	721.6
498.113	738.4
498.509	712
498.927	711.4
499.344	716
499.741	716.2
500.158	728
500.576	728.8
500.973	718.8
501.39	711
501.787	703.8
502.205	717.2
502.623	701.8
503.02	692.2
503.438	703
503.856	703.6
504.253	704.8
504.671	700
505.068	690.8
505.486	691.8
505.905	702.2
506.302	688.6
506.72	698
507.118	684.2
507.536	692
507.955	681.4
508.352	681.2
508.771	689
509.169	683.6
509.587	663.2
510.006	683.6
510.404	660.2
510.823	664.6
511.221	673.8
511.64	671.4
512.038	682.8
512.457	665
512.877	665.8
513.275	659.8
513.694	661.2
514.092	661.8
514.512	662
514.91	662.2
515.33	663
515.749	665.4
516.148	661.8
516.568	661
516.966	654.6
517.386	647.2
517.785	631.2
518.205	644.6
518.603	640.8
519.024	639.4
519.444	640.4
519.843	650.4
520.263	646
520.662	653.4
521.082	632
521.481	642.6
521.902	634.8
522.301	639
522.722	639.6
523.121	629.8
523.542	619.8
523.963	625.8
524.362	624.4
524.783	628.8
525.183	618
525.604	625.8
526.003	619.8
526.425	623
526.824	627.6
527.246	621.8
527.646	617
528.067	618.8
528.467	618.2
528.888	622.2
529.289	612.4
529.71	616.4
530.11	617.4
530.532	608.6
530.932	601.6
531.354	602.6
531.755	628
532.176	618.8
532.577	602.2
532.999	607.4
533.4	605.8
533.822	606
534.223	608
534.645	601.6
535.046	598.8
535.468	602.4
535.869	615
536.292	592
536.693	627.6
537.115	594.2
537.516	591.4
537.939	584.2
538.34	606.2
538.742	600.4
539.165	589.6
539.566	579.4
539.989	579.8
540.391	582.2
540.814	592
541.216	593.6
541.639	579.2
542.041	589.8
542.464	580
542.866	574.2
543.268	572
543.691	585
544.093	582.6
544.517	596.2
544.919	571.2
545.343	601
545.745	578.6
546.147	578.4
546.571	570.4
546.974	564.6
547.398	573.8
547.8	587.4
548.224	570.6
548.627	564.4
549.03	573.6
549.454	570
549.857	564.4
550.281	569.6
550.684	564.4
551.087	569.6
551.512	563.4
551.915	580.4
552.34	574.4
552.743	560
553.146	573.4
553.571	564.6
553.975	579
554.399	553.2
554.803	591.6
555.207	557.4
555.632	561.4
556.036	564.8
556.461	556
556.865	558.6
557.268	556.8
557.694	560.8
558.098	556.6
558.502	563
558.927	549.6
559.332	555.4
559.736	551
560.162	563.6
560.566	554.4
560.992	557.6
561.396	551.2
561.801	556.4
562.227	551.8
562.631	552.4
563.036	552.6
563.462	552
563.867	545.8
564.272	533.6
564.698	549.4
565.103	535.6
565.508	556.6
565.935	552.4
566.34	543
566.745	554.6
567.172	545.6
567.577	550.6
567.982	549.4
568.409	537.2
568.815	538.4
569.22	544.8
569.626	551
570.053	529.6
570.459	547.2
570.865	544.6
571.292	546.6
571.698	545.6
572.104	531.4
572.531	537.8
572.937	551
573.343	539.8
573.75	543.6
574.177	533.8
574.583	545.8
574.99	534.2
575.396	541
575.824	530
576.231	540.4
576.637	533
577.065	553.8
577.472	531
577.879	534.2
578.286	548.8
578.714	526.6
579.121	535.8
579.528	534.2
579.935	531.6
580.364	530.8
580.771	518.6
581.178	530
581.585	529.6
582.014	531.4
582.421	529.8
582.829	521.2
583.236	539.4
583.644	528.2
584.073	527.4
584.481	532.4
584.889	524.4
585.296	535.6
585.726	532.6
586.134	523.2
586.542	523.4
586.95	541.2
587.358	516
587.787	530.8
588.196	516.4
588.604	524.6
589.012	529.4
589.421	517.2
589.851	516
590.259	525.6
590.668	525.8
591.076	547.6
591.485	515.6
591.894	516.4
592.324	530.2
592.733	525.4
593.142	514.6
593.551	518.8
593.96	525.4
594.369	503.6
594.8	516.8
595.209	519.6
595.618	513.8
596.028	513.2
596.437	519.4
596.847	520
597.256	518.8
597.687	515
598.097	520
598.507	514.6
598.917	520.4
599.327	522.8
599.736	521.6
600.146	524.2
600.556	515.4
600.988	520.2
601.398	513.6
601.808	526
602.219	504
602.629	516.6
603.039	509.6
603.45	535.8
603.86	508.4
604.271	528.4
604.703	520.2
605.114	511.4
605.525	517.2
605.935	517.8
606.346	528.8
606.757	520.4
607.168	512.4
607.579	505.4
607.99	519.6
608.402	515.4
608.813	512.8
609.224	501.8
609.636	511.8
610.047	510.2
610.48	524
610.892	519.2
611.303	522.4
611.715	512
612.127	507.8
612.539	515.8
612.95	516.4
613.362	508.6
613.774	516
614.186	507.2
614.599	514.4
615.011	521.8
615.423	511.4
615.835	503.8
616.248	500.8
616.66	518.4
617.073	509.8
617.485	514.4
617.898	521.2
618.311	513.4
618.723	520
619.136	535.8
619.549	524
619.962	532.8
620.375	512.6
620.788	516.6
621.201	515.4
621.614	522.2
622.028	511.2
622.441	508.4
622.854	527.2
623.268	503.8
623.681	520
624.095	511.4
624.509	523
624.922	522
625.336	504.6
625.728	517.2
626.142	521
626.556	528
626.97	518.8
627.384	510.6
627.799	513.8
628.213	519
628.627	512
629.041	512.8
629.456	511.6
629.87	517.6
630.285	521.4
630.699	518.8
631.093	513
631.507	512.4
631.922	515
632.337	519.4
632.752	511.2
633.167	511.6
633.582	518.8
633.997	515.2
634.412	511.2
634.806	513.8
635.221	512.2
635.637	519.4
636.052	500
636.468	512
636.883	529.4
637.299	511.2
637.715	501.8
638.109	503.2
638.525	501.8
638.941	517.2
639.357	512.4
639.773	524
640.189	505.8
640.584	507.8
641	503.8
641.416	495
641.832	504.8
642.249	501.4
642.665	497.4
643.06	505.6
643.477	510.2
643.894	495.4
644.31	509.2
644.727	503
645.123	505.2
645.54	498
645.957	503.8
646.374	517.8
646.77	506.8
647.187	522.4
647.604	503.6
648.021	493.8
648.439	498
648.835	507.6
649.252	505.8
649.67	500.8
650.088	508.2
650.484	508.2
650.902	516.8
651.32	516.6
651.738	500.4
652.134	499.2
652.552	516.2
652.971	513.2
653.389	506.6
653.786	518
654.204	504.2
654.622	500.8
655.019	507.2
655.438	508.2
655.857	504.4
656.275	507.2
656.673	496.6
657.091	510.6
657.51	497
657.908	510.2
658.327	514
658.746	492.4
659.144	498.4
659.563	508
659.982	507
660.38	490.6
660.8	500.6
661.219	509.8
661.617	502.4
662.037	498.4
662.457	512.4
662.855	491.2
663.275	527.2
663.695	501.2
664.094	496
664.514	499
664.934	495.4
665.333	507.2
665.753	498.4
666.152	497.8
666.572	487.6
666.993	511
667.392	492.8
667.812	509.6
668.212	497.4
668.632	506.8
669.053	498.8
669.453	505.8
669.874	502
670.273	494.2
670.694	491
671.116	516.8
671.515	509.4
671.937	504.6
672.337	508.2
672.758	491.8
673.158	512.6
673.58	500.4
673.98	496.8
674.402	510.2
674.824	495
675.224	500.6
675.646	488.8
676.047	496.2
676.469	498.8
676.869	504.2
677.292	502.2
677.693	499
678.115	496.8
678.516	501.6
678.939	511.8
679.34	498.4
679.762	517.4
680.164	507.2
680.586	488.8
680.988	501
681.411	527.8
681.812	502
682.236	492.4
682.637	494.4
683.061	494
683.462	501.6
683.864	500.6
684.288	508.8
684.69	494.2
685.114	511.4
685.516	498.6
685.94	492.6
686.342	508.4
686.766	495.4
687.168	497.6
687.571	516.8
687.995	504.6
688.398	490.4
688.822	500.4
689.225	511.4
689.628	510.2
690.052	502.6
690.456	504.2
690.88	503
691.284	490.6
691.687	507.6
692.112	494.4
692.515	491.4
692.919	496.4
693.344	497.8
693.747	497.8
694.173	499
694.577	506
694.98	492.4
695.406	502.8
695.81	506.2
696.214	505
696.64	506.4
697.044	499.6
697.448	508
697.874	498
698.279	497.2
698.684	490
699.11	493.4
699.514	493.8
699.919	495.4
700.324	486.2
700.75	493.6
701.156	492.6
701.561	508.8
701.987	498.8
702.393	506.2
702.798	499.2
703.203	496.4
703.63	494.6
704.036	491.6
704.442	499.2
704.847	493.6
705.274	501
705.68	500.2
706.086	503.2
706.492	494.6
706.92	503.6
707.326	520.2
707.732	498.6
708.139	486
708.545	489.2
708.973	496.2
709.38	498.6
709.786	488.4
710.193	515.2
710.6	500.2
711.028	494.4
711.435	499
711.842	491.8
712.249	498.2
712.656	494
713.064	504.2
713.492	487.8
713.9	492.4
714.307	500.6
714.715	493.2
715.123	498.2
715.53	501.8
715.938	504.2
716.367	501.6
716.775	497.6
717.184	480.2
717.592	491.8
718	505.8
718.408	521.2
718.816	533.6
719.225	502
719.633	489.8
720.042	487.6
720.472	495.2
720.881	507.4
721.29	499.6
721.699	494.8
722.108	495
722.517	498
722.926	492.4
723.335	497.8
723.744	491
724.154	496.6
724.563	495.4
724.973	501
725.382	492.4
725.792	494
726.202	496
726.612	507.6
727.022	498.6
727.432	491.8
779.813	487.2
780.223	526.6
780.634	496
781.044	496.8
781.454	491.4
781.865	507.2
782.276	491.6
782.686	502.8
783.097	495.2
783.508	499.2
783.919	498.6
784.33	504.6
784.741	499.8
785.152	489.6
785.563	480.2
785.974	492
786.386	499.2
786.776	495.4
787.188	488.4
787.599	484
788.011	489.6
788.423	494.8
788.835	491.2
789.247	488.8
789.659	495.6
790.071	489.4
790.483	530
790.874	486.2
791.286	487.4
791.699	484.6
792.111	490.2
792.524	497
792.937	487.4
793.349	480.6
793.741	484.4
794.154	492.4
794.567	506.4
794.98	489.2
795.393	483.4
795.785	505
796.198	486.2
796.612	494
797.026	491.4
797.439	477.4
797.831	490.4
798.245	484.6
798.659	499.2
799.073	492
799.487	485
799.88	490.4
800.294	499.6
800.708	494
801.123	492.6
801.516	506.8
801.93	488.2
802.345	490.6
802.76	490.6
803.153	500.2
803.568	501.4
803.983	498.8
804.377	489.6
804.792	481.6
805.207	481.8
805.601	494.4
806.016	509.2
806.432	493.6
806.826	513.6
807.242	506
807.658	489
808.052	493.2
808.468	486
808.884	485.2
809.279	485.6
809.695	503.8
810.111	507
810.506	492.8
810.922	501.2
811.339	488.6
811.734	496.4
812.151	489.6
812.546	487
812.963	487.6
813.38	492.2
813.776	494
814.193	504
814.589	494.6
815.006	495.4
815.402	484.6
815.82	489.6
816.237	493
816.633	493.6
817.051	482.6
817.448	490.8
817.866	487.8
818.262	504.2
818.68	489.8
819.077	490.2
819.495	491.8
819.892	529.4
820.311	487
820.708	490
821.127	495.6
821.524	502.2
821.943	491.6
822.34	508.4
822.759	496.2
823.157	493.6
823.576	502.4
823.974	496.6
824.393	552
824.791	485.6
825.189	483.6
825.609	493.2
826.007	495.4
826.427	487
826.826	493.6
827.246	496.2
827.644	477.4
828.043	499.4
828.463	489.4
828.862	498.6
829.261	495.6
829.682	479
830.081	494.6
830.502	497
830.901	497.2
831.301	488
831.722	484.8
832.121	495.8
832.521	484.8
832.943	488
833.342	489
833.742	480.4
834.164	491.2
834.564	479.8
834.965	496
835.386	493.8
835.787	493.8
836.188	492.8
836.588	500
837.01	491.2
837.411	483
837.812	496.6
838.213	499.4
838.636	488.8
839.037	541.2
839.438	492
839.84	494.2
840.263	500
840.664	487.2
841.066	487
841.468	496.6
841.891	491.4
842.293	498.2
842.695	492.2
843.098	504.4
843.5	488.2
843.902	498
844.326	495
844.729	491.8
845.131	503.2
845.534	492.6
845.937	503
846.34	507.6
846.764	490.8
847.167	497.8
847.571	482.8
847.974	495.2
848.377	486.8
848.781	523.2
849.184	502.6
849.588	489.8
849.992	493.6
850.396	496.8
850.821	507
851.225	495.6
851.63	489.2
852.034	498.2
852.438	490
852.843	544.4
853.247	485.6
853.652	479.8
854.057	507
854.462	499.2
854.867	499.6
855.272	518.8
855.677	505.4
856.082	493.4
856.487	487
856.893	499.4
