#lambda/nm	C1
208.295	460.8
208.67	432.4
209.045	397.4
209.419	397.6
209.794	537.4
210.169	515.8
210.544	627
210.919	526.8
211.295	525.2
211.67	528
212.045	527.4
212.421	523.4
212.796	551
213.172	522.4
213.547	521
213.923	529.2
214.299	523.8
214.675	534.4
215.051	532.4
215.427	537
215.803	540
216.179	533
216.555	529.8
216.932	537.2
217.308	526
217.684	525.6
218.061	535.6
218.438	530
218.814	515.2
219.191	536.4
219.568	522.8
219.945	524.8
220.322	533.6
220.699	529.6
221.076	531.4
221.453	532.8
221.83	520.8
222.208	524
222.585	528.2
222.962	528.6
223.34	532.6
223.717	531
224.095	527.2
224.473	524.2
224.851	521
225.229	517.4
225.607	536.6
225.985	513
226.363	523.8
226.741	530.2
227.119	522.2
227.497	531.2
227.876	513.2
228.254	540.4
228.633	541.6
229.011	531.8
229.39	533
229.769	527.6
230.148	536.6
230.527	542.8
230.905	536.8
231.284	528.6
231.664	525.2
232.043	538
232.422	535.6
232.801	534.2
233.181	535
233.56	523
233.94	533.2
234.319	521.6
234.699	534.8
235.079	556.4
235.458	558.4
235.838	541.8
236.218	522.2
236.598	517
236.978	521.2
237.358	527.2
237.738	527.2
238.119	536
238.499	519.4
238.88	533.6
239.26	544.4
239.641	522.6
240.021	518.2
240.402	519.6
240.783	529.4
241.163	526.2
241.544	530.8
241.925	528.8
242.306	536.2
242.687	520.2
243.069	531.6
243.45	531
243.831	516.2
244.212	527
244.594	553.8
244.975	535.8
245.357	527
245.739	517.6
246.12	526.8
246.502	535.2
246.884	519.8
247.266	523.8
247.648	518.8
248.03	545.6
248.412	529
248.794	529.2
249.176	526.8
249.559	527.6
249.941	522.6
250.323	523.4
250.706	521.8
251.089	528.4
251.471	531.4
251.854	530.6
252.237	524.6
252.62	535.8
253.002	534.8
253.385	525.2
253.769	540.6
254.152	532
254.535	536.6
254.918	522.6
255.301	525.4
255.685	531
256.068	530.8
256.452	548.4
256.835	535.6
257.219	533.8
257.603	534.4
257.986	519
258.37	532.4
258.754	526.8
259.138	532.6
259.522	533.4
259.906	532
260.29	531.2
260.675	532
261.059	532
261.443	517.4
261.828	530.2
262.212	536.2
262.597	521.4
262.981	526.8
263.366	532
263.751	529.4
264.136	525.2
264.521	523.6
264.906	517.4
265.291	530.2
265.676	524
266.061	533.8
266.446	539
266.831	529
267.217	544.8
267.602	530.4
267.987	529.8
268.373	520
268.759	524.6
269.144	538.4
269.53	531.4
269.916	523.6
270.302	519.6
270.688	532.6
271.074	531
271.46	529.8
271.846	550.6
272.232	527.8
272.618	519.8
273.004	527
273.391	535.2
273.777	538.8
274.164	529.2
274.55	540
274.937	531
275.324	520.6
275.71	530.2
276.097	536.4
276.484	522.2
276.871	523.4
277.258	531.4
277.645	522
278.032	534.2
278.419	524.4
278.807	527.6
279.194	520.6
279.581	516.6
279.969	531.6
280.356	531.2
280.744	527
281.131	549.6
281.519	532.4
281.907	526.4
282.295	522.8
282.682	537.6
283.07	524
283.458	535.4
283.846	532.4
284.235	528.8
284.623	538.4
285.011	521
285.399	525
285.788	522.8
286.176	513.8
286.565	539
286.953	522.6
287.342	529.2
287.731	522.6
288.119	516.8
288.508	524.6
288.897	525.6
289.286	516.8
289.675	524.8
290.064	533.2
290.453	526.6
290.821	525.8
291.21	538
291.599	528.2
291.989	524.8
292.378	533
292.768	542.6
293.157	533.4
293.547	535
293.936	528.8
294.326	524.2
294.716	538
295.106	524.8
295.496	529.2
295.886	528.6
296.276	523.8
296.666	522.2
297.056	526.4
297.446	517.4
297.836	542.8
298.227	524.6
298.617	527.6
299.008	533.6
299.398	534.2
299.789	525
300.179	536.4
300.57	533.6
300.961	522.6
301.352	521.2
301.742	530.2
302.133	534.4
302.524	533.2
302.915	537.2
303.307	525.2
303.698	535.6
304.089	528.4
304.48	531
304.872	533
305.263	536.2
305.655	525.4
306.046	536
306.438	531.4
306.829	518.4
307.221	534
307.613	530.8
308.005	532.4
308.397	537.2
308.789	538
309.181	544.6
309.573	536.4
309.965	533.8
310.357	531
310.749	535.2
311.142	526
311.534	525
311.926	529.8
312.319	519.8
312.711	519
313.104	534.2
313.497	523
313.889	560.4
314.282	542.2
314.675	554
315.068	522
315.461	543.4
315.854	553.6
316.247	529
316.64	526.2
317.033	528.2
317.405	535.6
317.798	523.2
318.192	530.4
318.585	522.2
318.979	531.4
319.372	525.2
319.766	524.2
320.16	541.6
320.553	539
320.947	541
321.341	529.8
321.735	521.2
322.129	515.4
322.523	552
322.917	519
323.311	535.2
323.705	532.6
324.099	533.6
324.494	539.6
324.888	533.8
325.282	528.6
325.677	537
326.071	544.4
326.466	538.2
326.861	532.8
327.255	532.4
327.65	543.6
328.045	538.2
328.44	528.8
328.835	530.8
329.23	523.6
329.625	546.6
330.02	519.2
330.415	549.6
330.81	538.2
331.206	530.2
331.601	518.6
331.996	534.8
332.37	546.8
332.766	518.4
333.161	543.4
333.557	530.2
333.953	532.4
334.348	693.2
334.744	523.6
335.14	520.2
335.536	522.2
335.932	534.6
336.328	527
336.724	532
337.12	530.4
337.516	531.4
337.913	527.4
338.309	541.8
338.705	522.6
339.102	531
339.498	522.6
339.895	531.2
340.291	529
340.688	533
341.085	525.6
341.481	521
341.878	523
342.275	543.8
342.672	515.8
343.069	523.4
343.466	517.2
343.842	527.6
344.239	525.4
344.636	525.6
345.033	520.4
345.431	514.6
345.828	527.8
346.225	518.6
346.623	557.8
347.02	525
347.418	528.6
347.816	535.4
348.213	520.8
348.611	533.8
349.009	520.4
349.407	533.6
349.805	514.4
350.203	511.8
350.601	528.4
350.999	519
351.397	574.8
351.795	523
352.193	527
352.57	538.2
352.969	535.6
353.367	513.4
353.766	518.4
354.164	523.8
354.563	533.2
354.961	526.2
355.36	527.6
355.759	529.2
356.158	520.2
356.557	520.8
356.956	523.4
357.355	521.6
357.754	529
358.153	522.8
358.552	547.4
358.951	525.8
359.35	543.8
359.75	529.6
360.149	517.2
360.527	513
360.926	523.8
361.326	520.6
361.726	523.4
362.125	518
362.525	523
362.925	517.6
363.325	519.4
363.724	520
364.124	523.4
364.524	515
364.924	513
365.324	531.6
365.725	509.4
366.125	522.2
366.525	516.8
366.904	509.8
367.304	499
367.705	533.6
368.105	525.8
368.506	515.4
368.906	516.6
369.307	517.4
369.708	519.8
370.108	518
370.509	526.6
370.91	515.4
371.311	522.4
371.712	521.8
372.113	518.4
372.514	512.4
372.894	522
373.295	514.2
373.696	526.2
374.097	528.6
374.499	546
374.9	524.2
375.301	512.2
375.703	521.2
376.105	505.8
376.506	517
376.908	524.8
377.309	522.2
377.711	509
378.113	519.6
378.493	519.4
378.895	511.6
379.297	525.2
379.699	508.8
380.102	516.4
380.504	516.2
380.906	516.8
381.308	538.8
381.71	511.2
382.113	528.6
382.515	516
382.918	526.4
383.299	521.2
383.701	528.2
384.104	520.2
384.507	502.4
384.909	521.4
385.312	509.6
385.715	524.8
386.118	511.2
386.521	512
386.924	519.8
387.327	516.6
387.709	509.2
388.112	504
388.515	517.4
388.918	519.8
389.322	521.6
389.725	517.6
390.129	540.4
390.532	521.8
390.936	514.4
391.339	517.8
391.743	519.8
392.125	514.8
392.529	528.2
392.933	529.4
393.337	517.2
393.74	522.2
394.144	517.4
394.548	507.4
394.953	516.8
395.357	519
395.761	515.6
396.144	518.8
396.548	512.4
396.952	518.4
397.357	519.2
397.761	520.4
398.166	527.8
398.57	520.4
398.975	515.2
399.379	519
399.763	570.2
400.168	516.6
400.572	528.6
400.977	515.4
401.382	534.2
401.787	529.2
402.192	537.4
402.597	532
403.002	505.8
403.386	528
403.791	534.6
404.197	513.4
404.602	516.4
405.007	510.4
405.413	516.4
405.818	513.8
406.224	510.2
406.608	511.8
407.014	515.2
407.42	528.8
407.825	511.6
408.231	520.2
408.637	523.2
409.043	525.4
409.449	514.8
409.834	512.8
410.24	515.4
410.646	530.6
411.052	525.8
411.458	527.2
411.865	522.4
412.271	523.4
412.677	527.8
413.062	520.4
413.469	515
413.875	537.6
414.282	535
414.689	522.6
415.095	523.4
415.502	520
415.888	520.6
416.294	509.4
416.701	554.6
417.108	511.2
417.515	522.4
417.923	517.4
418.33	542.6
418.715	525.2
419.123	522.2
419.53	514
419.937	520.6
420.345	519.6
420.752	516
421.16	535.2
421.546	516.8
421.953	521.2
422.361	510.4
422.769	520
423.177	514.2
423.585	534.4
423.992	534.4
424.379	529.4
424.787	530.8
425.195	530.6
425.603	518.6
426.011	530
426.419	528.6
426.806	524.8
427.214	525.8
427.623	519.8
428.031	534.2
428.44	524.8
428.848	539.2
429.235	529.4
429.644	519.6
430.053	525
430.461	526
430.87	542.8
431.279	534.8
431.666	517.8
432.075	524.4
432.484	534.6
432.893	523
433.302	535.8
433.711	561.8
434.099	538.4
434.508	534.2
434.918	525.2
435.327	541.4
435.737	542
436.125	543.6
436.534	549.4
436.944	548.6
437.353	558.4
437.763	565
438.173	558.2
438.561	574.6
438.971	559.6
439.381	571.2
439.791	578
440.201	566.6
440.589	585.2
440.999	597.2
441.409	601.8
441.819	596.8
442.23	612.8
442.619	618.4
443.029	618.2
443.439	620
443.85	621.6
444.26	636
444.649	649.6
445.06	645
445.471	638.8
445.881	655.6
446.292	662.4
446.682	672
447.092	641.8
447.503	705.6
447.914	663
448.325	673
448.715	671
449.126	671.8
449.537	669.6
449.948	673.4
450.338	672.2
450.75	693.8
451.161	681
451.572	699.4
451.984	686.8
452.374	676.6
452.786	689.6
453.197	694.6
453.609	702.6
453.999	684
454.411	688
454.823	704.6
455.235	703.6
455.647	690.6
456.037	704.2
456.449	690.4
456.862	716.2
457.274	704.8
457.665	704.6
458.077	705.2
458.489	733.2
458.902	711.2
459.293	707.8
459.705	713
460.118	708.8
460.53	718.8
460.921	714.6
461.334	721.8
461.747	722.2
462.16	733.6
462.551	731.4
462.964	729.6
463.377	706.6
463.79	716
464.182	721
464.595	720.2
465.008	724.2
465.421	724.8
465.813	728.6
466.226	743.2
466.64	734
467.053	775.8
467.445	756
467.859	756
468.272	751
468.686	757
469.078	733.2
469.492	731.2
469.906	739.6
470.298	752
470.712	749
471.126	762.2
471.54	744.2
471.933	756.4
472.347	755.8
472.761	747.6
473.175	744.6
473.568	746.6
473.982	752.2
474.397	752.2
474.79	746.6
475.204	750.6
475.619	747.4
476.033	743
476.426	750
476.841	740.4
477.256	757.6
477.649	745
478.064	740.6
478.479	744.2
478.872	739.6
479.287	731.6
479.702	743
480.118	738.8
480.511	742.6
480.927	745.2
481.342	738
481.736	739.2
482.151	739
482.566	742.8
482.96	743.8
483.376	752
483.792	729.2
484.186	743.2
484.602	740.4
485.017	733
485.412	735.4
485.827	735.8
486.243	733.6
486.638	749.8
487.054	746.6
487.47	753.2
487.865	724
488.281	725
488.697	727.2
489.092	728.2
489.508	727.2
489.925	741
490.32	724
490.736	728.8
491.153	722.4
491.548	726.4
491.964	730.4
492.381	715.2
492.776	732
493.193	717.8
493.61	714.8
494.006	720
494.422	723.8
494.84	707.8
495.235	726.8
495.652	721.4
496.069	710.4
496.465	700.4
496.883	707
497.3	723.6
497.696	700.2
498.113	712.4
498.509	689.4
498.927	699.2
499.344	703.4
499.741	692
500.158	700.8
500.576	702
500.973	692.6
501.39	685.6
501.787	677.2
502.205	689.8
502.623	688.4
503.02	672.8
503.438	670
503.856	684
504.253	679
504.671	677.2
505.068	671
505.486	672.8
505.905	685.6
506.302	661
506.72	679.6
507.118	664.8
507.536	663.4
507.955	663.6
508.352	668.8
508.771	672.4
509.169	666
509.587	653.6
510.006	662.4
510.404	649.6
510.823	660.8
511.221	655
511.64	652
512.038	658.2
512.457	647.6
512.877	654.4
513.275	637.4
513.694	635.4
514.092	651.6
514.512	649.2
514.91	644.6
515.33	639.4
515.749	638.6
516.148	642.6
516.568	649.2
516.966	637.8
517.386	629
517.785	646
518.205	630
518.603	626.8
519.024	626
519.444	632.8
519.843	649.4
520.263	637
520.662	630.4
521.082	631
521.481	622.8
521.902	626.8
522.301	624.4
522.722	622.2
523.121	619.4
523.542	616
523.963	607.8
524.362	611.4
524.783	615.8
525.183	615.8
525.604	616.8
526.003	604.6
526.425	606.6
526.824	610.2
527.246	608.6
527.646	616.6
528.067	606
528.467	600.4
528.888	604.6
529.289	605.4
529.71	602.6
530.11	595.2
530.532	599
530.932	585.4
531.354	593.6
531.755	623.2
532.176	593.8
532.577	595.6
532.999	594.4
533.4	598.8
533.822	600
534.223	591.2
534.645	579
535.046	582.6
535.468	584
535.869	591.2
536.292	588.6
536.693	617.8
537.115	579.2
537.516	579
537.939	583.8
538.34	595
538.742	588.2
539.165	591.2
539.566	577.4
539.989	569.6
540.391	569.4
540.814	585.2
541.216	585.2
541.639	585.4
542.041	582.4
542.464	576.2
542.866	569
543.268	571.4
543.691	578
544.093	580.6
544.517	598.4
544.919	574.8
545.343	593
545.745	570.6
546.147	573
546.571	571.4
546.974	560.4
547.398	573.4
547.8	577.4
548.224	571.2
548.627	566.2
549.03	577
549.454	565
549.857	562.2
550.281	561.2
550.684	562
551.087	573.4
551.512	567.4
551.915	576
552.34	563.8
552.743	555.8
553.146	568.2
553.571	560.2
553.975	571.2
554.399	552.6
554.803	596.8
555.207	551.8
555.632	549.4
556.036	557.2
556.461	550.8
556.865	547.2
557.268	558.2
557.694	551.8
558.098	553.6
558.502	548.2
558.927	538.2
559.332	538.8
559.736	549.2
560.162	554.2
560.566	540.8
560.992	549.6
561.396	551.2
561.801	541.8
562.227	554.8
562.631	540.8
563.036	546
563.462	558.2
563.867	550
564.272	538.2
564.698	547.4
565.103	538.8
565.508	562.4
565.935	540
566.34	543
566.745	554.6
567.172	532
567.577	554
567.982	551.2
568.409	544.4
568.815	530
569.22	544.2
569.626	542.2
570.053	533.6
570.459	545.6
570.865	538.6
571.292	544.8
571.698	537.8
572.104	528.6
572.531	524.8
572.937	536.4
573.343	536.2
573.75	531.4
574.177	523.4
574.583	538.8
574.99	534.2
575.396	535
575.824	530
576.231	535.4
576.637	530.6
577.065	552
577.472	527.2
577.879	537.8
578.286	547.4
578.714	522.2
579.121	531
579.528	528.6
579.935	533.6
580.364	531
580.771	519.8
581.178	525.4
581.585	530.4
582.014	543.2
582.421	525
582.829	521.2
583.236	539.8
583.644	525.2
584.073	530.6
584.481	533.6
584.889	523
585.296	527.6
585.726	536.2
586.134	522.2
586.542	525.4
586.95	541.4
587.358	513
587.787	535.6
588.196	509.6
588.604	521.2
589.012	528.8
589.421	512.8
589.851	521.2
590.259	529.4
590.668	518
591.076	548.8
591.485	512
591.894	512.8
592.324	530.6
592.733	536.4
593.142	511
593.551	517
593.96	544.8
594.369	510.6
594.8	516.6
595.209	516.2
595.618	517.4
596.028	512.2
596.437	508.2
596.847	514.6
597.256	520.8
597.687	520.6
598.097	512.2
598.507	504.4
598.917	514
599.327	522.6
599.736	519.4
600.146	536.4
600.556	513.4
600.988	526.2
601.398	515.6
601.808	526.6
602.219	499.8
602.629	518.4
603.039	511.4
603.45	540.4
603.86	506.8
604.271	524.4
604.703	520.2
605.114	517
605.525	512.2
605.935	516.2
606.346	530.4
606.757	513.8
607.168	510.4
607.579	506
607.99	519
608.402	506.2
608.813	521.4
609.224	510
609.636	497.2
610.047	507
610.48	510.8
610.892	521
611.303	515
611.715	513
612.127	507
612.539	510.6
612.95	518.4
613.362	503
613.774	510
614.186	507
614.599	505
615.011	525.4
615.423	510.8
615.835	511
616.248	503.4
616.66	517.2
617.073	508.8
617.485	513.8
617.898	518.6
618.311	514.6
618.723	512.2
619.136	525.6
619.549	524.6
619.962	526.4
620.375	509.2
620.788	515.6
621.201	506.2
621.614	518.6
622.028	518.8
622.441	508.6
622.854	522.4
623.268	499.2
623.681	519.2
624.095	509.2
624.509	513.8
624.922	509.4
625.336	503.4
625.728	517
626.142	516.4
626.556	532.2
626.97	511.4
627.384	509.4
627.799	511
628.213	514.8
628.627	504
629.041	511
629.456	505.4
629.87	508.6
630.285	515.4
630.699	513.4
631.093	510.2
631.507	515.4
631.922	515.4
632.337	521.8
632.752	500.4
633.167	506.6
633.582	506.4
633.997	498.8
634.412	496.8
634.806	501.4
635.221	507
635.637	512.6
636.052	495.2
636.468	511.6
636.883	521.2
637.299	504.2
637.715	502.2
638.109	509.6
638.525	496.8
638.941	517.2
639.357	515
639.773	516.4
640.189	504
640.584	515.8
641	511
641.416	491
641.832	507
642.249	508
642.665	506.6
643.06	509.8
643.477	515.4
643.894	492.4
644.31	501.8
644.727	510.6
645.123	506.8
645.54	499.4
645.957	502.6
646.374	517.2
646.77	510.8
647.187	526.8
647.604	506
648.021	496.4
648.439	505.6
648.835	511.4
649.252	506.8
649.67	497
650.088	504.4
650.484	506.6
650.902	511.2
651.32	505
651.738	497.4
652.134	514.2
652.552	512
652.971	500.8
653.389	496
653.786	509
654.204	500
654.622	494.6
655.019	500.6
655.438	495.6
655.857	500
656.275	502.2
656.673	492.6
657.091	502.4
657.51	497.8
657.908	498.4
658.327	509.2
658.746	491.8
659.144	503.2
659.563	510.2
659.982	500.8
660.38	493.8
660.8	501
661.219	508
661.617	510.6
662.037	500.4
662.457	509
662.855	494.8
663.275	528.4
663.695	497.4
664.094	500.2
664.514	501.6
664.934	497.2
665.333	507
665.753	496.2
666.152	492.8
666.572	493.8
666.993	518.6
667.392	497.6
667.812	498.8
668.212	496
668.632	503
669.053	496.6
669.453	497.6
669.874	503.8
670.273	497.8
670.694	495
671.116	503.2
671.515	501.4
671.937	496.8
672.337	498.6
672.758	496.2
673.158	505.4
673.58	497.2
673.98	509.2
674.402	504.6
674.824	504.4
675.224	501.6
675.646	493.8
676.047	495.2
676.469	499.4
676.869	501.2
677.292	498
677.693	498.2
678.115	491
678.516	504.2
678.939	498
679.34	499.6
679.762	509.4
680.164	504.4
680.586	486.8
680.988	500
681.411	524
681.812	504
682.236	491.4
682.637	495
683.061	488.8
683.462	503.2
683.864	498
684.288	503.6
684.69	498.2
685.114	506.6
685.516	506.4
685.94	491.6
686.342	496
686.766	503
687.168	502.6
687.571	512.2
687.995	492
688.398	495.6
688.822	490.6
689.225	514.2
689.628	516.8
690.052	498.2
690.456	506.4
690.88	502.4
691.284	497.4
691.687	499.6
692.112	498
692.515	487.6
692.919	499.8
693.344	500.8
693.747	498.2
694.173	494.4
694.577	501.8
694.98	502.8
695.406	492.6
695.81	495
696.214	500.4
696.64	501.8
697.044	501.4
697.448	511.4
697.874	502
698.279	495
698.684	490.8
699.11	496.2
699.514	505.8
699.919	499
700.324	495.2
700.75	500.8
701.156	494.6
701.561	502.8
701.987	507
702.393	507
702.798	506.8
703.203	500.2
703.63	499
704.036	496
704.442	497.8
704.847	488.4
705.274	496.8
705.68	500
706.086	498
706.492	489.4
706.92	496.6
707.326	503.8
707.732	494.4
708.139	492
708.545	489.6
708.973	494
709.38	499.4
709.786	494
710.193	507
710.6	498.6
711.028	498
711.435	495.4
711.842	490.6
712.249	494.6
712.656	496.8
713.064	502.2
713.492	488.8
713.9	494.8
714.307	490.2
714.715	499
715.123	501.8
715.53	495.4
715.938	503
716.367	494.2
716.775	492.6
717.184	493
717.592	489.4
718	500
718.408	514.2
718.816	533.6
719.225	508
719.633	493.8
720.042	496.2
720.472	491.2
720.881	511.6
721.29	503.2
721.699	494.6
722.108	495.4
722.517	497.2
722.926	493.8
723.335	511.8
723.744	501.6
724.154	500.2
724.563	497.4
724.973	494.6
725.382	492.4
725.792	492.6
726.202	491.4
726.612	503.2
727.022	496
727.432	495.6
779.813	492.4
780.223	530.2
780.634	489.8
781.044	485.2
781.454	493.6
781.865	507
782.276	489
782.686	500
783.097	490.4
783.508	490.4
783.919	495.2
784.33	504.2
784.741	504.2
785.152	490.2
785.563	479.6
785.974	485.6
786.386	498
786.776	495.2
787.188	492.6
787.599	491.4
788.011	499.2
788.423	493.2
788.835	494.8
789.247	484.6
789.659	499.6
790.071	493.4
790.483	537
790.874	495.8
791.286	496.4
791.699	493.6
792.111	498.8
792.524	493
792.937	494.4
793.349	487.6
793.741	490.4
794.154	486.6
794.567	510.2
794.98	496.4
795.393	486
795.785	507.8
796.198	488
796.612	497.8
797.026	488.8
797.439	480.4
797.831	495.6
798.245	484.8
798.659	487
799.073	488
799.487	490.6
799.88	493
800.294	493
800.708	492.8
801.123	499
801.516	502.6
801.93	478.4
802.345	476.4
802.76	490.2
803.153	498.6
803.568	496.2
803.983	493.8
804.377	501.4
804.792	472.2
805.207	475.8
805.601	483.8
806.016	511.2
806.432	480.2
806.826	516
807.242	499.6
807.658	485.4
808.052	486.4
808.468	481.6
808.884	493.6
809.279	497.8
809.695	500.6
810.111	505.6
810.506	498.8
810.922	503
811.339	487.4
811.734	498.4
812.151	493.6
812.546	482
812.963	491.8
813.38	494.2
813.776	489
814.193	503.8
814.589	487.6
815.006	491.4
815.402	486.8
815.82	489.6
816.237	496.8
816.633	490.8
817.051	488.4
817.448	489.8
817.866	478.2
818.262	499.6
818.68	487
819.077	489.6
819.495	481.8
819.892	519
820.311	493
820.708	488
821.127	487.6
821.524	504.8
821.943	491.4
822.34	500.6
822.759	494.2
823.157	494.2
823.576	503.6
823.974	502.2
824.393	572.6
824.791	492.2
825.189	483.8
825.609	482.4
826.007	497.8
826.427	484
826.826	489
827.246	499
827.644	482
828.043	491.2
828.463	487
828.862	493.2
829.261	500.8
829.682	486.6
830.081	500.2
830.502	486
830.901	497.4
831.301	489.4
831.722	482.8
832.121	488.8
832.521	487
832.943	485.4
833.342	489.2
833.742	484.2
834.164	495.4
834.564	489
834.965	492.2
835.386	484
835.787	491.8
836.188	495
836.588	494.2
837.01	484.4
837.411	487.4
837.812	510.4
838.213	495.2
838.636	483.2
839.037	550.2
839.438	491.4
839.84	501.6
840.263	495
840.664	493.2
841.066	490.2
841.468	500.2
841.891	488.2
842.293	503.6
842.695	496.6
843.098	499
843.5	486.8
843.902	494
844.326	496.4
844.729	498.8
845.131	497.4
845.534	488.6
845.937	509.6
846.34	508.2
846.764	488.2
847.167	496.4
847.571	483.8
847.974	495
848.377	483.8
848.781	527.8
849.184	505.8
849.588	493.8
849.992	496
850.396	493.6
850.821	508.6
851.225	490.2
851.63	486.8
852.034	497
852.438	493.8
852.843	553.6
853.247	485.4
853.652	486
854.057	505.6
854.462	493.8
854.867	495.4
855.272	526.8
855.677	486.4
856.082	481.4
856.487	486
856.893	496.6
857.298	490.8
