#lambda/nm	C1
208.295	470
208.67	431
209.045	393
209.419	402.8
209.794	527.6
210.169	515
210.544	622.2
210.919	530.4
211.295	513.8
211.67	527.4
212.045	520.6
212.421	529.6
212.796	560
213.172	521.2
213.547	527.2
213.923	523.2
214.299	522.4
214.675	526.4
215.051	526.2
215.427	531.6
215.803	540.4
216.179	532.2
216.555	524.2
216.932	531.6
217.308	529.8
217.684	524.8
218.061	533
218.438	534.8
218.814	522.4
219.191	537
219.568	526.6
219.945	522.6
220.322	539.2
220.699	532.6
221.076	538.2
221.453	529.8
221.83	519
222.208	530
222.585	526.4
222.962	532.4
223.34	529.4
223.717	528.4
224.095	524.2
224.473	525
224.851	524.8
225.229	525.4
225.607	539
225.985	520
226.363	535.6
226.741	528
227.119	529.2
227.497	533.2
227.876	522.2
228.254	534
228.633	531
229.011	524.4
229.39	526.8
229.769	537.2
230.148	533.8
230.527	543
230.905	525.4
231.284	530.2
231.664	530.6
232.043	543.4
232.422	541
232.801	533.6
233.181	536.2
233.56	530.2
233.94	529
234.319	516.8
234.699	531.2
235.079	558.2
235.458	555.2
235.838	534.4
236.218	518.4
236.598	518.6
236.978	520
237.358	517.4
237.738	522.4
238.119	539.8
238.499	520
238.88	523.4
239.26	538.8
239.641	510.2
240.021	517.2
240.402	521.8
240.783	523.6
241.163	519.8
241.544	532.6
241.925	523.4
242.306	539
242.687	519
243.069	535.6
243.45	530.8
243.831	524.6
244.212	533
244.594	559.2
244.975	528.6
245.357	524.8
245.739	517.8
246.12	534.6
246.502	536.6
246.884	527.4
247.266	530.2
247.648	529.8
248.03	551.8
248.412	529.4
248.794	534.8
249.176	521.8
249.559	538
249.941	522
250.323	523
250.706	522.4
251.089	525.4
251.471	527.6
251.854	527
252.237	531
252.62	536.4
253.002	523
253.385	535.6
253.769	533.8
254.152	526.2
254.535	534.4
254.918	517.6
255.301	529
255.685	532
256.068	524.6
256.452	553.2
256.835	541.4
257.219	533
257.603	540.4
257.986	525.2
258.37	539.8
258.754	518.2
259.138	533
259.522	537.8
259.906	525.4
260.29	529.8
260.675	522
261.059	527.6
261.443	519
261.828	535.2
262.212	537
262.597	513.4
262.981	519
263.366	528.6
263.751	530
264.136	524
264.521	526.8
264.906	518.6
265.291	528
265.676	528.2
266.061	533.6
266.446	547.4
266.831	533.6
267.217	540.4
267.602	530.8
267.987	533.2
268.373	530.2
268.759	536.8
269.144	532
269.53	531.2
269.916	528.4
270.302	532
270.688	532.4
271.074	532.6
271.46	537.6
271.846	554.4
272.232	526.8
272.618	526.6
273.004	524.6
273.391	537
273.777	543.2
274.164	533.8
274.55	538.4
274.937	523
275.324	520.4
275.71	536
276.097	527.8
276.484	525
276.871	527.2
277.258	542.6
277.645	518.4
278.032	529.2
278.419	515.6
278.807	522.6
279.194	525.2
279.581	520.6
279.969	541.8
280.356	529.2
280.744	530.8
281.131	547.4
281.519	537.2
281.907	525.6
282.295	527.2
282.682	535.6
283.07	536.2
283.458	530
283.846	534.4
284.235	533.8
284.623	533.2
285.011	521
285.399	530
285.788	527.4
286.176	519.2
286.565	536.6
286.953	527.8
287.342	522.2
287.731	523.4
288.119	516.8
288.508	518.2
288.897	531.4
289.286	521
289.675	520.2
290.064	536.6
290.453	530.2
290.821	526.8
291.21	534.6
291.599	521.2
291.989	517.2
292.378	534.8
292.768	538.4
293.157	530
293.547	528.4
293.936	528.2
294.326	523.4
294.716	536
295.106	521.6
295.496	528.8
295.886	530.2
296.276	522.6
296.666	517.8
297.056	521.4
297.446	519.4
297.836	537.2
298.227	527
298.617	528.2
299.008	528.8
299.398	530.8
299.789	519
300.179	526.4
300.57	535
300.961	518.8
301.352	525.6
301.742	537
302.133	525.2
302.524	524.2
302.915	528.8
303.307	517
303.698	534.6
304.089	538.6
304.48	524.2
304.872	523.6
305.263	527.4
305.655	528.4
306.046	532.4
306.438	530.4
306.829	521.6
307.221	541
307.613	532.8
308.005	533.4
308.397	534
308.789	547.4
309.181	544.2
309.573	538.4
309.965	540.6
310.357	524.8
310.749	533.6
311.142	523.6
311.534	519.4
311.926	534.4
312.319	522
312.711	527.2
313.104	530.8
313.497	522.8
313.889	561.6
314.282	534.8
314.675	543
315.068	526.6
315.461	534.8
315.854	555.6
316.247	531.6
316.64	520
317.033	530.2
317.405	536.4
317.798	529.8
318.192	532.8
318.585	516.6
318.979	537.6
319.372	518
319.766	520.6
320.16	532
320.553	543.2
320.947	542.6
321.341	523.8
321.735	531.2
322.129	521.8
322.523	550.6
322.917	521.6
323.311	529.6
323.705	539.2
324.099	531.2
324.494	549
324.888	530
325.282	529.4
325.677	544.2
326.071	534
326.466	538.8
326.861	521.6
327.255	534.2
327.65	531.6
328.045	533.2
328.44	531.4
328.835	527.2
329.23	520.2
329.625	543.8
330.02	521.8
330.415	549.2
330.81	534
331.206	521.6
331.601	537.6
331.996	534
332.37	545.6
332.766	526.4
333.161	546.4
333.557	527.2
333.953	532.4
334.348	741.4
334.744	526.4
335.14	524
335.536	528.2
335.932	536.6
336.328	520.6
336.724	524
337.12	523
337.516	528.8
337.913	521.2
338.309	536
338.705	525.2
339.102	526.4
339.498	519.6
339.895	529.2
340.291	511.4
340.688	531
341.085	521.6
341.481	528.2
341.878	528.4
342.275	540.6
342.672	520.4
343.069	527
343.466	516.2
343.842	534.4
344.239	523.8
344.636	528.4
345.033	519
345.431	519.2
345.828	529.8
346.225	514.8
346.623	560.6
347.02	527.8
347.418	523
347.816	540.4
348.213	522.8
348.611	532.2
349.009	517.2
349.407	535
349.805	517.6
350.203	516.4
350.601	541
350.999	530.8
351.397	578.2
351.795	532
352.193	524.8
352.57	531.4
352.969	539.2
353.367	514
353.766	521.2
354.164	520.4
354.563	529
354.961	522.2
355.36	526.6
355.759	521.4
356.158	519.8
356.557	527.8
356.956	520.8
357.355	507.2
357.754	523.2
358.153	529.2
358.552	545
358.951	523.8
359.35	537.2
359.75	520.6
360.149	517.4
360.527	506.8
360.926	517.8
361.326	529.4
361.726	525.2
362.125	523.6
362.525	519
362.925	522
363.325	521.6
363.724	523.4
364.124	517.6
364.524	519
364.924	521.8
365.324	527.6
365.725	513
366.125	523
366.525	533
366.904	513.6
367.304	504
367.705	530.8
368.105	527.2
368.506	524
368.906	522.2
369.307	524.8
369.708	521.8
370.108	511.8
370.509	532.4
370.91	523
371.311	520
371.712	526
372.113	516.6
372.514	509
372.894	522.6
373.295	515.2
373.696	528.8
374.097	531.2
374.499	543.8
374.9	525
375.301	512.8
375.703	519.4
376.105	515.6
376.506	530.6
376.908	521.2
377.309	528.6
377.711	518
378.113	519.2
378.493	520
378.895	519.4
379.297	536.6
379.699	511.4
380.102	515
380.504	523.2
380.906	519
381.308	539.6
381.71	521.6
382.113	528
382.515	513.6
382.918	512
383.299	518.2
383.701	532.4
384.104	521.6
384.507	507.6
384.909	518
385.312	508.4
385.715	515.4
386.118	512.6
386.521	513.8
386.924	518.2
387.327	515.6
387.709	522.8
388.112	511.2
388.515	519.8
388.918	516
389.322	526
389.725	523
390.129	533.6
390.532	518.8
390.936	514.8
391.339	515
391.743	519.8
392.125	518
392.529	520.4
392.933	530.4
393.337	521
393.74	510
394.144	520
394.548	509.2
394.953	518.8
395.357	530.2
395.761	516
396.144	515.2
396.548	514.2
396.952	513
397.357	519.4
397.761	514.4
398.166	516.8
398.57	517.2
398.975	506.8
399.379	516.4
399.763	560.6
400.168	520
400.572	516.6
400.977	521.2
401.382	532
401.787	525.6
402.192	535.6
402.597	529.6
403.002	504.4
403.386	533.8
403.791	532
404.197	511.8
404.602	525.4
405.007	519.8
405.413	512.8
405.818	518.2
406.224	516
406.608	511.6
407.014	514.2
407.42	527
407.825	508.8
408.231	516.4
408.637	517
409.043	529.2
409.449	512.2
409.834	519
410.24	514.6
410.646	528.4
411.052	526.4
411.458	518.8
411.865	524.4
412.271	523.2
412.677	519.6
413.062	522.6
413.469	505.6
413.875	537.4
414.282	527.2
414.689	517.8
415.095	521.8
415.502	514.6
415.888	525
416.294	507.2
416.701	549.6
417.108	518.4
417.515	522.8
417.923	519
418.33	534.4
418.715	522.2
419.123	520
419.53	518.8
419.937	523
420.345	532.8
420.752	516.2
421.16	531.4
421.546	520.6
421.953	525.4
422.361	518.2
422.769	520.2
423.177	515.2
423.585	541.4
423.992	534.8
424.379	524.4
424.787	526.2
425.195	533.4
425.603	517.4
426.011	529.2
426.419	530
426.806	521.6
427.214	526.8
427.623	528.6
428.031	539.4
428.44	525.8
428.848	524.4
429.235	538.4
429.644	534
430.053	522.4
430.461	538
430.87	544.2
431.279	531
431.666	517
432.075	518.8
432.484	527
432.893	515
433.302	526.6
433.711	555.2
434.099	528.4
434.508	516.6
434.918	511.6
435.327	521.8
435.737	522
436.125	521.8
436.534	524.4
436.944	526.4
437.353	530.2
437.763	543.6
438.173	518.2
438.561	536
438.971	511.6
439.381	530.6
439.791	541
440.201	521.8
440.589	544.2
440.999	550.4
441.409	550
441.819	534.4
442.23	563.4
442.619	567.2
443.029	554.6
443.439	565.2
443.85	572.6
444.26	569
444.649	571.6
445.06	573.8
445.471	566.4
445.881	574.8
446.292	585.4
446.682	591.2
447.092	561.8
447.503	619.2
447.914	580.6
448.325	584.6
448.715	583.6
449.126	579.6
449.537	582.4
449.948	594.2
450.338	594.8
450.75	609.8
451.161	601.4
451.572	605
451.984	591.2
452.374	586.4
452.786	595.4
453.197	603.2
453.609	603.4
453.999	592.2
454.411	601.6
454.823	620.6
455.235	605
455.647	610.8
456.037	616.6
456.449	596.4
456.862	611.8
457.274	605.4
457.665	599.4
458.077	612.2
458.489	632.2
458.902	606
459.293	617
459.705	620.6
460.118	610.6
460.53	623.6
460.921	621
461.334	617
461.747	622.8
462.16	635
462.551	635.8
462.964	630.2
463.377	621.8
463.79	623.4
464.182	639.8
464.595	633.2
465.008	633.6
465.421	641.6
465.813	631.2
466.226	635.8
466.64	632.8
467.053	676.2
467.445	643
467.859	654.8
468.272	647.2
468.686	642.2
469.078	638.2
469.492	636.4
469.906	650.4
470.298	647.4
470.712	635.4
471.126	666.6
471.54	639.8
471.933	644.4
472.347	643.2
472.761	641.4
473.175	635.6
473.568	646.6
473.982	638.4
474.397	654.4
474.79	643.8
475.204	650
475.619	644.2
476.033	654.4
476.426	645.2
476.841	646
477.256	662.6
477.649	643.6
478.064	645.8
478.479	637
478.872	637.4
479.287	638.2
479.702	642.8
480.118	649.8
480.511	639.6
480.927	645.4
481.342	633.2
481.736	649.6
482.151	642.4
482.566	642
482.96	648.4
483.376	658.4
483.792	644.8
484.186	644.6
484.602	636.6
485.017	643.4
485.412	640.4
485.827	656.4
486.243	633.8
486.638	660.2
487.054	639.4
487.47	655.6
487.865	640.8
488.281	635.2
488.697	641
489.092	635.8
489.508	626.4
489.925	648.8
490.32	628
490.736	648
491.153	634.6
491.548	636.4
491.964	630.6
492.381	621.8
492.776	632.4
493.193	638
493.61	636.6
494.006	632.8
494.422	638.4
494.84	625.2
495.235	637.6
495.652	621.6
496.069	634.4
496.465	627
496.883	630.4
497.3	649.2
497.696	627
498.113	632
498.509	612.4
498.927	618.4
499.344	617
499.741	617
500.158	627.6
500.576	636.8
500.973	619.4
501.39	615.8
501.787	616
502.205	621.8
502.623	614.2
503.02	607.6
503.438	602.2
503.856	610.6
504.253	618.8
504.671	627.8
505.068	610.8
505.486	604.6
505.905	633.8
506.302	610.4
506.72	622.2
507.118	600
507.536	611.4
507.955	604.8
508.352	605.4
508.771	606.2
509.169	610.8
509.587	595.6
510.006	603
510.404	597
510.823	598
511.221	604.6
511.64	600
512.038	611
512.457	591
512.877	603.6
513.275	594.6
513.694	594.6
514.092	595.2
514.512	599.8
514.91	604.8
515.33	593
515.749	590
516.148	591.2
516.568	601
516.966	590.2
517.386	585.2
517.785	578.4
518.205	586.4
518.603	592.8
519.024	579.2
519.444	584.6
519.843	589.6
520.263	589
520.662	593.4
521.082	584
521.481	586
521.902	578.6
522.301	579.6
522.722	577.2
523.121	582.8
523.542	570.8
523.963	580.4
524.362	575.4
524.783	580.2
525.183	572.6
525.604	580.2
526.003	570.4
526.425	570.6
526.824	578.2
527.246	577
527.646	573.6
528.067	575.4
528.467	573.2
528.888	578.4
529.289	580.4
529.71	568
530.11	568
530.532	561.6
530.932	554.4
531.354	554.6
531.755	588.4
532.176	570.8
532.577	562.4
532.999	564
533.4	563.6
533.822	566.6
534.223	554.6
534.645	562.4
535.046	556.4
535.468	555.2
535.869	562.4
536.292	554.4
536.693	587.2
537.115	564.4
537.516	555.2
537.939	551.8
538.34	575.6
538.742	567.6
539.165	554.2
539.566	556.6
539.989	547.8
540.391	560.8
540.814	564.8
541.216	565.2
541.639	556.8
542.041	562
542.464	553.6
542.866	549
543.268	543.6
543.691	560
544.093	559.4
544.517	570.6
544.919	550.4
545.343	574.2
545.745	551.6
546.147	558
546.571	547.6
546.974	538.2
547.398	542.2
547.8	560.2
548.224	543.2
548.627	542.8
549.03	554.4
549.454	542.8
549.857	540.8
550.281	541
550.684	545.4
551.087	553.4
551.512	553.8
551.915	552.6
552.34	547.6
552.743	540.8
553.146	543.2
553.571	547
553.975	552.8
554.399	533.6
554.803	580.8
555.207	540
555.632	540.4
556.036	543.6
556.461	535.2
556.865	543.2
557.268	541
557.694	539.8
558.098	543.6
558.502	535.6
558.927	533
559.332	538.6
559.736	537.8
560.162	545.2
560.566	532.4
560.992	543
561.396	543.6
561.801	531.4
562.227	537.2
562.631	541
563.036	536.8
563.462	537.8
563.867	536.8
564.272	531.6
564.698	527.8
565.103	529.8
565.508	542
565.935	532.4
566.34	533.4
566.745	536.6
567.172	534.8
567.577	545.4
567.982	539.4
568.409	539
568.815	515.8
569.22	536.4
569.626	534.6
570.053	521.4
570.459	529.6
570.865	526.6
571.292	529.8
571.698	537.6
572.104	522.2
572.531	526.8
572.937	537
573.343	530.8
573.75	523.6
574.177	525.4
574.583	528.2
574.99	521.2
575.396	530.6
575.824	524.6
576.231	532.8
576.637	523.8
577.065	540.4
577.472	519.4
577.879	522.6
578.286	538.4
578.714	526.4
579.121	517.8
579.528	535
579.935	531.4
580.364	520.2
580.771	512.6
581.178	515
581.585	524.6
582.014	523.2
582.421	520.4
582.829	511.2
583.236	529.8
583.644	513
584.073	519.2
584.481	524.8
584.889	512.6
585.296	526.6
585.726	527.8
586.134	512.4
586.542	518.6
586.95	535
587.358	504
587.787	521.6
588.196	510
588.604	510
589.012	513
589.421	519.8
589.851	513.4
590.259	512.8
590.668	517.2
591.076	538.4
591.485	507.2
591.894	518
592.324	528.4
592.733	524
593.142	508
593.551	509
593.96	546.8
594.369	500.8
594.8	511.4
595.209	506.2
595.618	503.4
596.028	509
596.437	510.4
596.847	515
597.256	518
597.687	514.2
598.097	521.2
598.507	501
598.917	515.2
599.327	518
599.736	514.4
600.146	517
600.556	508
600.988	518.2
601.398	504.8
601.808	517.4
602.219	508
602.629	508
603.039	518.4
603.45	533.8
603.86	515.2
604.271	522.4
604.703	513.8
605.114	514
605.525	505.4
605.935	517.4
606.346	529.4
606.757	511
607.168	510.4
607.579	499
607.99	517.6
608.402	515.4
608.813	516.6
609.224	508.8
609.636	503.2
610.047	507.2
610.48	509.6
610.892	518.8
611.303	510.6
611.715	515.8
612.127	499.8
612.539	505.6
612.95	514.6
613.362	499.8
613.774	505.6
614.186	509.6
614.599	512.2
615.011	525.4
615.423	517.4
615.835	506.8
616.248	499.8
616.66	516
617.073	501.4
617.485	503.8
617.898	521.4
618.311	513.6
618.723	508.8
619.136	536.4
619.549	523
619.962	529.2
620.375	514.6
620.788	507.8
621.201	504.2
621.614	504.2
622.028	516
622.441	508.8
622.854	520.8
623.268	495.4
623.681	515.2
624.095	513.4
624.509	518.2
624.922	508.8
625.336	501.8
625.728	511.4
626.142	513.2
626.556	518
626.97	503.6
627.384	505.6
627.799	502.6
628.213	519.4
628.627	498
629.041	504.2
629.456	509.6
629.87	513
630.285	506.4
630.699	514.6
631.093	505.2
631.507	510
631.922	508.2
632.337	518
632.752	497.6
633.167	504.4
633.582	504.2
633.997	506.2
634.412	493.6
634.806	507
635.221	497.8
635.637	512
636.052	492.2
636.468	512.2
636.883	522
637.299	506.4
637.715	495.2
638.109	499.2
638.525	490
638.941	511.8
639.357	502.2
639.773	514.2
640.189	502.2
640.584	504.8
641	505.4
641.416	492.4
641.832	508.6
642.249	502.4
642.665	501.4
643.06	512.2
643.477	507.6
643.894	498.2
644.31	507.4
644.727	507.8
645.123	501
645.54	491
645.957	512
646.374	514.2
646.77	498.2
647.187	528.4
647.604	502.2
648.021	495.6
648.439	498.8
648.835	505.4
649.252	505.8
649.67	503
650.088	495.8
650.484	505.2
650.902	506.8
651.32	510.6
651.738	501.6
652.134	499.4
652.552	522.6
652.971	505.2
653.389	506.4
653.786	514.4
654.204	507.4
654.622	495
655.019	501.8
655.438	508.6
655.857	505.8
656.275	508
656.673	502.6
657.091	512
657.51	491.2
657.908	513.8
658.327	515.8
658.746	499.2
659.144	501.8
659.563	505.8
659.982	508
660.38	501
660.8	493.8
661.219	508
661.617	509
662.037	490
662.457	513.6
662.855	489
663.275	531.4
663.695	500
664.094	504
664.514	500.8
664.934	501.8
665.333	503.2
665.753	494.4
666.152	495.2
666.572	497.2
666.993	515
667.392	502
667.812	498.4
668.212	499.8
668.632	508.6
669.053	497.4
669.453	505.8
669.874	506.8
670.273	509.2
670.694	503.8
671.116	512.6
671.515	511.8
671.937	495.8
672.337	494.6
672.758	498.4
673.158	508.8
673.58	490.6
673.98	499.4
674.402	511.8
674.824	491.8
675.224	497.8
675.646	497.6
676.047	500.2
676.469	493.6
676.869	503.4
677.292	496.2
677.693	493
678.115	498.4
678.516	501.8
678.939	498.2
679.34	491.8
679.762	507.6
680.164	497.2
680.586	489
680.988	499
681.411	515.6
681.812	495.4
682.236	487.2
682.637	492.2
683.061	488.6
683.462	505.2
683.864	500.6
684.288	502.8
684.69	481.8
685.114	502
685.516	507
685.94	492
686.342	500.6
686.766	490
687.168	493.8
687.571	516.2
687.995	495.2
688.398	490.2
688.822	497.2
689.225	510.8
689.628	510.6
690.052	492.8
690.456	504.6
690.88	492.8
691.284	494.2
691.687	506.4
692.112	490.4
692.515	495
692.919	493.2
693.344	498.2
693.747	502.2
694.173	491
694.577	504.8
694.98	504
695.406	489.4
695.81	509.2
696.214	502
696.64	497
697.044	495.6
697.448	493.8
697.874	487.6
698.279	492.2
698.684	497.6
699.11	486.2
699.514	489.8
699.919	494
700.324	490
700.75	497.6
701.156	489.8
701.561	498.6
701.987	504.8
702.393	500.4
702.798	506
703.203	493.4
703.63	489.4
704.036	504.8
704.442	495.4
704.847	491.2
705.274	499
705.68	500.2
706.086	506.2
706.492	488.4
706.92	495.4
707.326	501.6
707.732	495.8
708.139	498.4
708.545	490
708.973	495.8
709.38	497.6
709.786	485.4
710.193	504.2
710.6	497.4
711.028	493.2
711.435	496
711.842	497.2
712.249	496.2
712.656	498.6
713.064	502.2
713.492	485
713.9	493.2
714.307	500.6
714.715	499.6
715.123	501.4
715.53	494.6
715.938	504.4
716.367	495.6
716.775	488
717.184	495.8
717.592	501.2
718	508
718.408	527.8
718.816	532.4
719.225	496.8
719.633	499.4
720.042	492.4
720.472	491.8
720.881	511.2
721.29	498.2
721.699	487.6
722.108	497.4
722.517	497.8
722.926	493.8
723.335	498.6
723.744	494.2
724.154	491
724.563	498.4
724.973	494
725.382	492.4
725.792	488.6
726.202	489
726.612	500
727.022	495.4
727.432	489
779.813	482.2
780.223	521.4
780.634	485.8
781.044	487.6
781.454	491.8
781.865	501.4
782.276	490.6
782.686	503.8
783.097	490.2
783.508	496.8
783.919	500.2
784.33	499.4
784.741	503.8
785.152	493.4
785.563	487.8
785.974	489
786.386	499.6
786.776	492.8
787.188	494.4
787.599	490.4
788.011	503.6
788.423	502.8
788.835	494.4
789.247	487
789.659	490.6
790.071	487
790.483	531.4
790.874	488.6
791.286	500.6
791.699	484.8
792.111	486.4
792.524	495
792.937	494.6
793.349	490.2
793.741	490.8
794.154	492.6
794.567	510
794.98	491
795.393	486
795.785	503.2
796.198	490.4
796.612	492.8
797.026	484
797.439	482.4
797.831	490.6
798.245	490.8
798.659	487.6
799.073	490
799.487	483.6
799.88	481.8
800.294	491
800.708	486.6
801.123	487.6
801.516	507.6
801.93	481.8
802.345	486.6
802.76	495.8
803.153	504.8
803.568	504
803.983	493.8
804.377	483.2
804.792	486.4
805.207	477.8
805.601	492.4
806.016	525.2
806.432	494.8
806.826	520.8
807.242	502.2
807.658	492.4
808.052	490.4
808.468	494.2
808.884	495.2
809.279	493.2
809.695	509.8
810.111	505.2
810.506	493.6
810.922	503.8
811.339	495.2
811.734	498.8
812.151	492.8
812.546	492.8
812.963	489.8
813.38	500.6
813.776	491.8
814.193	495
814.589	487
815.006	494.4
815.402	492
815.82	494.2
816.237	495.4
816.633	496.6
817.051	487
817.448	493.4
817.866	488.2
818.262	504.2
818.68	488.6
819.077	488.2
819.495	487
819.892	523.2
820.311	491.2
820.708	488.4
821.127	486.8
821.524	498.8
821.943	492
822.34	506.4
822.759	500.2
823.157	491.6
823.576	497
823.974	495.2
824.393	579.2
824.791	490
825.189	484.6
825.609	487.6
826.007	492
826.427	479.8
826.826	490.2
827.246	492
827.644	482.4
828.043	493.8
828.463	489.2
828.862	498.6
829.261	497
829.682	487.8
830.081	504.2
830.502	487.4
830.901	496.2
831.301	479.6
831.722	475.4
832.121	483.8
832.521	484.2
832.943	487
833.342	487
833.742	490.2
834.164	485.6
834.564	481.8
834.965	495.6
835.386	485.4
835.787	495.6
836.188	492.4
836.588	496
837.01	486.2
837.411	480
837.812	494.2
838.213	489.2
838.636	481
839.037	546.8
839.438	492
839.84	495.2
840.263	495.8
840.664	494.8
841.066	492.2
841.468	496.6
841.891	486.4
842.293	494.6
842.695	497.4
843.098	499
843.5	494.6
843.902	491.2
844.326	496.6
844.729	492.6
845.131	500.6
845.534	487.2
845.937	502.6
846.34	509
846.764	485
847.167	489
847.571	484.8
847.974	487.6
848.377	490.6
848.781	523.6
849.184	492.2
849.588	484
849.992	490
850.396	491.4
850.821	507
851.225	491.2
851.63	486.2
852.034	503.8
852.438	489.8
852.843	549.6
853.247	479.8
853.652	485
854.057	502
854.462	493
854.867	494.2
855.272	518.4
855.677	491.6
856.082	486
856.487	480.4
856.893	500
857.298	485.6
