#lambda/nm	C1
208.295	467.8
208.67	438.6
209.045	393.8
209.419	403.4
209.794	531.4
210.169	518.2
210.544	618.4
210.919	529
211.295	524
211.67	529.2
212.045	525.2
212.421	528.2
212.796	557.4
213.172	519.8
213.547	519.8
213.923	523.6
214.299	526
214.675	539
215.051	522
215.427	536.4
215.803	543.2
216.179	529.4
216.555	522.6
216.932	532.8
217.308	536.6
217.684	535.2
218.061	533.6
218.438	529.8
218.814	526.2
219.191	539
219.568	525.2
219.945	526.4
220.322	535.8
220.699	530.2
221.076	536.2
221.453	531.6
221.83	522.2
222.208	526.8
222.585	521
222.962	523.6
223.34	536
223.717	531.2
224.095	526.6
224.473	530.6
224.851	525
225.229	528.8
225.607	533.8
225.985	524.6
226.363	531.6
226.741	529.2
227.119	529.2
227.497	541
227.876	512
228.254	530.8
228.633	531.6
229.011	532.6
229.39	532
229.769	530.4
230.148	533.2
230.527	544.4
230.905	525.4
231.284	532
231.664	531.8
232.043	542.6
232.422	537.8
232.801	530.6
233.181	530.2
233.56	527.6
233.94	523.2
234.319	523.2
234.699	527.6
235.079	556.6
235.458	561.2
235.838	535.6
236.218	512
236.598	520.4
236.978	519.2
237.358	518
237.738	524.4
238.119	530
238.499	521.2
238.88	528.8
239.26	531.4
239.641	513.4
240.021	523.6
240.402	520.2
240.783	512.2
241.163	528.4
241.544	521.8
241.925	530.8
242.306	536.6
242.687	522.2
243.069	528.8
243.45	532.4
243.831	525.4
244.212	525
244.594	556.4
244.975	536.2
245.357	522.8
245.739	522
246.12	530.2
246.502	532
246.884	525.4
247.266	525
247.648	534.4
248.03	553.6
248.412	529.2
248.794	534.8
249.176	519.6
249.559	538.6
249.941	516.6
250.323	521.8
250.706	524.2
251.089	522.6
251.471	533
251.854	528.4
252.237	521.6
252.62	534.4
253.002	526
253.385	526.6
253.769	537.4
254.152	525
254.535	531.8
254.918	516.8
255.301	526.2
255.685	520.4
256.068	521.6
256.452	550
256.835	533.6
257.219	532.6
257.603	532
257.986	517.4
258.37	529.2
258.754	517.2
259.138	530.4
259.522	529.8
259.906	522
260.29	526
260.675	531.8
261.059	529.2
261.443	522.8
261.828	536.6
262.212	532.6
262.597	520.4
262.981	523.4
263.366	526.6
263.751	525
264.136	515.8
264.521	522.8
264.906	523.4
265.291	534.4
265.676	519
266.061	530.6
266.446	539.4
266.831	530
267.217	550.6
267.602	537.2
267.987	537.2
268.373	531
268.759	530.4
269.144	536.2
269.53	529.6
269.916	530.4
270.302	531.2
270.688	535
271.074	524.8
271.46	533.8
271.846	557.4
272.232	534.6
272.618	528.4
273.004	527.2
273.391	537.4
273.777	535.4
274.164	527.2
274.55	539.4
274.937	531.8
275.324	519.2
275.71	532
276.097	536.6
276.484	520.6
276.871	525.6
277.258	531
277.645	523.4
278.032	521.6
278.419	538.6
278.807	533
279.194	523.4
279.581	520
279.969	535.6
280.356	534.4
280.744	534.4
281.131	550
281.519	539
281.907	520
282.295	529.6
282.682	539
283.07	527.2
283.458	529.6
283.846	537.6
284.235	543.4
284.623	543.2
285.011	517.4
285.399	538.4
285.788	525.6
286.176	515
286.565	537.6
286.953	524.4
287.342	521.4
287.731	526.2
288.119	514.2
288.508	528.8
288.897	533.6
289.286	517
289.675	524.4
290.064	539.6
290.453	522.2
290.821	541.8
291.21	535.8
291.599	527.8
291.989	530.2
292.378	530.4
292.768	542.4
293.157	537
293.547	534.8
293.936	524
294.326	524.2
294.716	521.6
295.106	529.8
295.496	532.8
295.886	541.2
296.276	524
296.666	524.8
297.056	520
297.446	513.6
297.836	543.2
298.227	520.8
298.617	527.4
299.008	534.6
299.398	527.4
299.789	521.6
300.179	525.8
300.57	534.8
300.961	524.2
301.352	530.4
301.742	530.2
302.133	529
302.524	533.8
302.915	531.2
303.307	522.4
303.698	535.2
304.089	535.4
304.48	529.4
304.872	537.2
305.263	521
305.655	531.6
306.046	525.2
306.438	529
306.829	523.2
307.221	538
307.613	528.4
308.005	536.6
308.397	533.8
308.789	541.6
309.181	537.6
309.573	538.4
309.965	534.2
310.357	521.2
310.749	531.4
311.142	525.6
311.534	519.8
311.926	536.8
312.319	533.8
312.711	528.4
313.104	540.2
313.497	523
313.889	553.8
314.282	541.4
314.675	541.4
315.068	530.8
315.461	528.8
315.854	556.2
316.247	536.2
316.64	526.6
317.033	532.8
317.405	530.4
317.798	525.8
318.192	528.4
318.585	525.2
318.979	532.4
319.372	525.2
319.766	524.6
320.16	540
320.553	538.6
320.947	545
321.341	521.8
321.735	529
322.129	508.8
322.523	544.4
322.917	526.4
323.311	534
323.705	531.6
324.099	532.4
324.494	537.2
324.888	537.8
325.282	530.4
325.677	540.4
326.071	531.8
326.466	536.6
326.861	533.2
327.255	542.4
327.65	539.6
328.045	543.8
328.44	524
328.835	534.6
329.23	525.4
329.625	552.4
330.02	518.8
330.415	545.8
330.81	529.4
331.206	535
331.601	527.2
331.996	528.6
332.37	550
332.766	517.6
333.161	548.4
333.557	528.2
333.953	526
334.348	710.2
334.744	533
335.14	526.8
335.536	517.6
335.932	530.2
336.328	527.4
336.724	530.2
337.12	526.4
337.516	527.6
337.913	527.2
338.309	530
338.705	523.4
339.102	527.6
339.498	520.6
339.895	534.8
340.291	519.2
340.688	534.2
341.085	521.6
341.481	517
341.878	528
342.275	532.6
342.672	521.6
343.069	520.8
343.466	517.6
343.842	532.6
344.239	518.6
344.636	520.2
345.033	519
345.431	514
345.828	523.8
346.225	517.2
346.623	551
347.02	521.6
347.418	531.6
347.816	538.8
348.213	518.6
348.611	530.4
349.009	525.2
349.407	533
349.805	520.4
350.203	523.4
350.601	533.4
350.999	516.4
351.397	556
351.795	520
352.193	530.6
352.57	526
352.969	538
353.367	521.2
353.766	518
354.164	519.4
354.563	527.4
354.961	523.6
355.36	525.8
355.759	518.8
356.158	513.8
356.557	511.2
356.956	514.4
357.355	510.4
357.754	531.8
358.153	530.6
358.552	538.8
358.951	525.2
359.35	533.8
359.75	520.6
360.149	520.2
360.527	513
360.926	513.4
361.326	524
361.726	522.2
362.125	519.8
362.525	530.2
362.925	522.4
363.325	527.2
363.724	529.2
364.124	521.6
364.524	517.6
364.924	526.2
365.324	530.2
365.725	511.6
366.125	525.4
366.525	522
366.904	512.6
367.304	511.2
367.705	532.6
368.105	536.4
368.506	527.2
368.906	519.2
369.307	528.2
369.708	525.8
370.108	504.8
370.509	529.8
370.91	516.4
371.311	527.6
371.712	525
372.113	522.2
372.514	512.8
372.894	519.6
373.295	517
373.696	528.8
374.097	528
374.499	549.6
374.9	519.4
375.301	513.6
375.703	521.4
376.105	514
376.506	528.4
376.908	524.6
377.309	519
377.711	516.8
378.113	513.6
378.493	525.2
378.895	518.2
379.297	531.6
379.699	509.6
380.102	518.4
380.504	525.4
380.906	522.6
381.308	538.2
381.71	521.6
382.113	528.8
382.515	522.2
382.918	519.4
383.299	523.6
383.701	526.2
384.104	524.2
384.507	502.4
384.909	522.8
385.312	511.6
385.715	519.2
386.118	513.2
386.521	510.4
386.924	527
387.327	516.6
387.709	510
388.112	513.2
388.515	518
388.918	522.6
389.322	522.4
389.725	510.4
390.129	545.2
390.532	520.6
390.936	510.6
391.339	517.6
391.743	519
392.125	505.8
392.529	521.6
392.933	525.2
393.337	520
393.74	518.2
394.144	510.2
394.548	515
394.953	516.4
395.357	529.8
395.761	515.4
396.144	512.4
396.548	525
396.952	523
397.357	512.4
397.761	510
398.166	514.6
398.57	520.6
398.975	514.6
399.379	526.2
399.763	559.6
400.168	520.2
400.572	519.2
400.977	514.4
401.382	540.4
401.787	528.2
402.192	534.2
402.597	532.6
403.002	513.4
403.386	526
403.791	538.4
404.197	518.2
404.602	518.6
405.007	517
405.413	517.2
405.818	512.2
406.224	516.4
406.608	517.6
407.014	509.2
407.42	529.8
407.825	513
408.231	532.8
408.637	513.6
409.043	526.4
409.449	511.4
409.834	510.4
410.24	521
410.646	526.2
411.052	528
411.458	524
411.865	521.8
412.271	522.2
412.677	515.2
413.062	514.6
413.469	521.4
413.875	541.4
414.282	529.6
414.689	526.8
415.095	527.6
415.502	517.4
415.888	526.2
416.294	510.2
416.701	547.4
417.108	519.2
417.515	524.4
417.923	520.2
418.33	534.8
418.715	527.4
419.123	515.4
419.53	526
419.937	516.6
420.345	534.8
420.752	513.6
421.16	530.2
421.546	518.6
421.953	524.6
422.361	514.8
422.769	524
423.177	517.8
423.585	540
423.992	538.2
424.379	525.2
424.787	528.6
425.195	539.4
425.603	522.4
426.011	529.8
426.419	535.6
426.806	522.4
427.214	526
427.623	526.2
428.031	535
428.44	537.6
428.848	544.2
429.235	543.2
429.644	550.2
430.053	543.6
430.461	554.6
430.87	571.6
431.279	562.6
431.666	562.8
432.075	577.4
432.484	592.2
432.893	606.2
433.302	623.6
433.711	655
434.099	643.8
434.508	649
434.918	668.6
435.327	695
435.737	708.8
436.125	715.6
436.534	746.2
436.944	766
437.353	768.2
437.763	809.2
438.173	802.2
438.561	840
438.971	822.2
439.381	863
439.791	884.8
440.201	876
440.589	908.8
440.999	926.2
441.409	940.2
441.819	959.4
442.23	979.6
442.619	988.4
443.029	993.2
443.439	995.2
443.85	1012
444.26	1030.4
444.649	1053.4
445.06	1053
445.471	1047.6
445.881	1057.8
446.292	1090.6
446.682	1095.2
447.092	1074.4
447.503	1133.2
447.914	1096.8
448.325	1106.8
448.715	1093
449.126	1099.6
449.537	1113.8
449.948	1122.4
450.338	1126.2
450.75	1135
451.161	1146.8
451.572	1161
451.984	1144.6
452.374	1138
452.786	1145
453.197	1157.6
453.609	1160.6
453.999	1143.6
454.411	1147.8
454.823	1162.8
455.235	1161.2
455.647	1158.6
456.037	1166.8
456.449	1162.4
456.862	1167.4
457.274	1177
457.665	1163.2
458.077	1169.2
458.489	1203.2
458.902	1165
459.293	1174.4
459.705	1170.4
460.118	1185.8
460.53	1172.2
460.921	1179.6
461.334	1178.8
461.747	1196
462.16	1189.6
462.551	1198
462.964	1176.4
463.377	1169.8
463.79	1178.8
464.182	1174.6
464.595	1177.4
465.008	1185.2
465.421	1181.2
465.813	1168.8
466.226	1185.6
466.64	1183.2
467.053	1228.6
467.445	1188.4
467.859	1210.2
468.272	1197
468.686	1196.8
469.078	1179
469.492	1162.6
469.906	1192.4
470.298	1178.6
470.712	1186.8
471.126	1200.8
471.54	1169.4
471.933	1169
472.347	1181.4
472.761	1169.8
473.175	1166.6
473.568	1164.6
473.982	1158
474.397	1172.4
474.79	1167.6
475.204	1164.4
475.619	1158
476.033	1164.4
476.426	1138.6
476.841	1144.4
477.256	1160
477.649	1110
478.064	1133
478.479	1134.8
478.872	1133.4
479.287	1111.6
479.702	1113.8
480.118	1108.4
480.511	1117.2
480.927	1116.2
481.342	1097.2
481.736	1098.6
482.151	1090.6
482.566	1112.8
482.96	1109.4
483.376	1103.2
483.792	1090.4
484.186	1094.2
484.602	1098.4
485.017	1086.8
485.412	1077.4
485.827	1095.6
486.243	1080.8
486.638	1087.4
487.054	1068.4
487.47	1064.4
487.865	1047.6
488.281	1040.4
488.697	1039
489.092	1043.4
489.508	1033.4
489.925	1031.8
490.32	1016.8
490.736	1035
491.153	1025.4
491.548	1031
491.964	1039.8
492.381	1016.6
492.776	1016.2
493.193	1010.4
493.61	1005.4
494.006	990
494.422	994.2
494.84	985.2
495.235	995.8
495.652	994
496.069	983.4
496.465	971.6
496.883	965.6
497.3	974.6
497.696	964.2
498.113	957.6
498.509	946.2
498.927	931.8
499.344	943.4
499.741	937.2
500.158	944.8
500.576	952.6
500.973	940.4
501.39	911
501.787	928
502.205	928.2
502.623	914.8
503.02	901.2
503.438	906.8
503.856	904.4
504.253	901.4
504.671	906.2
505.068	890.6
505.486	888.2
505.905	895
506.302	880
506.72	884.4
507.118	867.4
507.536	869.6
507.955	872.8
508.352	873.4
508.771	864.6
509.169	859.4
509.587	846
510.006	841.4
510.404	832.8
510.823	840.6
511.221	845.6
511.64	840.8
512.038	852.6
512.457	843.4
512.877	825.6
513.275	817.2
513.694	817.6
514.092	817.8
514.512	815.4
514.91	812.6
515.33	791.8
515.749	806.6
516.148	804.6
516.568	806.2
516.966	787.8
517.386	788.4
517.785	788.8
518.205	790
518.603	774.8
519.024	777.6
519.444	781.6
519.843	781.2
520.263	781.6
520.662	782.8
521.082	765.8
521.481	768.8
521.902	761.6
522.301	761.2
522.722	747
523.121	750.6
523.542	757.8
523.963	750
524.362	741.8
524.783	740.2
525.183	730.2
525.604	742.2
526.003	733.8
526.425	732.2
526.824	727
527.246	729.8
527.646	737.6
528.067	717.4
528.467	715
528.888	720.4
529.289	702
529.71	696.4
530.11	699.2
530.532	706.6
530.932	697.6
531.354	702.4
531.755	716.8
532.176	691
532.577	695
532.999	696
533.4	678
533.822	693.2
534.223	675.8
534.645	680
535.046	672.6
535.468	683
535.869	691
536.292	663.8
536.693	695.6
537.115	676.4
537.516	659.8
537.939	668.2
538.34	684.2
538.742	678.2
539.165	674
539.566	664.6
539.989	655
540.391	657.2
540.814	663.6
541.216	663.4
541.639	657.8
542.041	661.8
542.464	656
542.866	643.8
543.268	637.2
543.691	650.4
544.093	662
544.517	664.6
544.919	640.2
545.343	673.2
545.745	642.8
546.147	649.2
546.571	632.2
546.974	624.6
547.398	631.2
547.8	649
548.224	623.2
548.627	625.6
549.03	632.2
549.454	618.8
549.857	619.8
550.281	617.4
550.684	606.2
551.087	634.6
551.512	628.8
551.915	618.8
552.34	622.4
552.743	609.8
553.146	623
553.571	614.2
553.975	625.6
554.399	610.2
554.803	642.4
555.207	607.2
555.632	595.4
556.036	621
556.461	596
556.865	607.2
557.268	595.6
557.694	609.8
558.098	612.4
558.502	600.6
558.927	586
559.332	597.4
559.736	602.2
560.162	599.4
560.566	599.2
560.992	595.8
561.396	596.2
561.801	587.8
562.227	597.2
562.631	592.6
563.036	586.4
563.462	597
563.867	594
564.272	575
564.698	596.6
565.103	579.4
565.508	606.2
565.935	583.2
566.34	589.8
566.745	586.6
567.172	585.4
567.577	595.6
567.982	582.8
568.409	576.6
568.815	567.2
569.22	577.4
569.626	577.8
570.053	560.6
570.459	576.2
570.865	573.8
571.292	573.8
571.698	574
572.104	562.8
572.531	566.2
572.937	568.6
573.343	565
573.75	562.8
574.177	560.8
574.583	569.6
574.99	566.2
575.396	566.6
575.824	561.2
576.231	575.2
576.637	563.8
577.065	586.4
577.472	557.6
577.879	561.6
578.286	571.6
578.714	555.8
579.121	565.4
579.528	558
579.935	559
580.364	556.6
580.771	546.2
581.178	541.2
581.585	552.6
582.014	557.4
582.421	546.6
582.829	559
583.236	552.2
583.644	546.8
584.073	556
584.481	543.2
584.889	551.6
585.296	552
585.726	550.4
586.134	534.8
586.542	538.6
586.95	554.2
587.358	537.6
587.787	538.2
588.196	529.2
588.604	536
589.012	544.6
589.421	527.6
589.851	539.4
590.259	537.6
590.668	533.2
591.076	560
591.485	537.6
591.894	541
592.324	548.2
592.733	544.6
593.142	524.6
593.551	534.4
593.96	561.6
594.369	532.8
594.8	524.4
595.209	531.6
595.618	522.8
596.028	532.2
596.437	521.2
596.847	542
597.256	525.2
597.687	529.6
598.097	528
598.507	519.8
598.917	530.4
599.327	539.6
599.736	529.4
600.146	535.6
600.556	523.8
600.988	542.2
601.398	529.4
601.808	535.6
602.219	518.4
602.629	520
603.039	533.2
603.45	546.4
603.86	529
604.271	528.8
604.703	520.6
605.114	523.2
605.525	520.4
605.935	524
606.346	538.2
606.757	530
607.168	520.2
607.579	518.8
607.99	529
608.402	530.8
608.813	526.4
609.224	516.4
609.636	518.2
610.047	508.8
610.48	522.4
610.892	529.8
611.303	525.8
611.715	521.6
612.127	512.8
612.539	520.4
612.95	523.4
613.362	514.6
613.774	512.4
614.186	511.2
614.599	516.8
615.011	516
615.423	514.8
615.835	514.8
616.248	513.4
616.66	524.4
617.073	513.8
617.485	524.6
617.898	526.4
618.311	519.8
618.723	520.4
619.136	540.2
619.549	530.8
619.962	527.6
620.375	514.6
620.788	518.8
621.201	517
621.614	537
622.028	521.4
622.441	520
622.854	528
623.268	507.8
623.681	516.8
624.095	516
624.509	524.4
624.922	517.4
625.336	500.6
625.728	511.2
626.142	523.4
626.556	526.6
626.97	514
627.384	516.4
627.799	508.6
628.213	521.4
628.627	509.4
629.041	502
629.456	504.4
629.87	509
630.285	515.4
630.699	508.8
631.093	518.8
631.507	525.2
631.922	511.8
632.337	519.2
632.752	499.8
633.167	514.8
633.582	499
633.997	506.6
634.412	506.6
634.806	500.8
635.221	508
635.637	521.6
636.052	505.6
636.468	517.8
636.883	524
637.299	516.6
637.715	503.8
638.109	514
638.525	493.8
638.941	516.6
639.357	512.8
639.773	516.2
640.189	505.4
640.584	513
641	512
641.416	501.6
641.832	500.2
642.249	505.2
642.665	512.2
643.06	509.2
643.477	514.8
643.894	494.8
644.31	501.4
644.727	501.6
645.123	504
645.54	499.6
645.957	506.6
646.374	511.4
646.77	510.4
647.187	526
647.604	506.6
648.021	494.2
648.439	500
648.835	512.4
649.252	510.4
649.67	498.4
650.088	510.4
650.484	505.2
650.902	513.4
651.32	513.2
651.738	499.2
652.134	507
652.552	521
652.971	511.6
653.389	506.8
653.786	513.4
654.204	511.6
654.622	507.8
655.019	509.6
655.438	514.4
655.857	508
656.275	510.6
656.673	495.8
657.091	511
657.51	497.2
657.908	514.8
658.327	518.2
658.746	497.4
659.144	506.4
659.563	513.4
659.982	509.2
660.38	503
660.8	506.2
661.219	515.2
661.617	513.4
662.037	505.8
662.457	510.8
662.855	496.4
663.275	529
663.695	503.8
664.094	506
664.514	503.2
664.934	500
665.333	511.8
665.753	493.6
666.152	488
666.572	503.4
666.993	516.2
667.392	502.6
667.812	503.2
668.212	500.4
668.632	513
669.053	499
669.453	500.4
669.874	504.8
670.273	505.8
670.694	498.6
671.116	512.6
671.515	510.2
671.937	504.6
672.337	497
672.758	497.6
673.158	508.4
673.58	496.6
673.98	501.8
674.402	511
674.824	502.2
675.224	494
675.646	496.6
676.047	490.8
676.469	504.2
676.869	512
677.292	503.4
677.693	496.4
678.115	505
678.516	508
678.939	508
679.34	502.8
679.762	504.8
680.164	499
680.586	492.2
680.988	504.4
681.411	518.8
681.812	499.8
682.236	490.8
682.637	485
683.061	490.2
683.462	502.4
683.864	495.8
684.288	507.6
684.69	497.6
685.114	506.6
685.516	509.8
685.94	492.8
686.342	507.8
686.766	502.6
687.168	500
687.571	515
687.995	509.8
688.398	492.2
688.822	499.4
689.225	500.4
689.628	513.8
690.052	495.2
690.456	499.2
690.88	505.2
691.284	494.2
691.687	509
692.112	494
692.515	492.8
692.919	499.6
693.344	498.6
693.747	497.4
694.173	495.8
694.577	511.6
694.98	499
695.406	496
695.81	499.6
696.214	500.6
696.64	497.8
697.044	509.2
697.448	511.4
697.874	497.4
698.279	494
698.684	494.2
699.11	499.4
699.514	501.8
699.919	493.8
700.324	491
700.75	505.2
701.156	502
701.561	513.6
701.987	504.8
702.393	499
702.798	508.4
703.203	497.4
703.63	495.4
704.036	493.2
704.442	504.2
704.847	497.2
705.274	497.6
705.68	500.2
706.086	505.4
706.492	484.2
706.92	493.2
707.326	504.8
707.732	494.6
708.139	489.8
708.545	487.2
708.973	496
709.38	498.8
709.786	492.2
710.193	502.8
710.6	497.2
711.028	492
711.435	495.6
711.842	494
712.249	495
712.656	497.2
713.064	510.2
713.492	492.2
713.9	495.4
714.307	500.6
714.715	502.8
715.123	499.2
715.53	503.6
715.938	498.2
716.367	500.2
716.775	500
717.184	489.4
717.592	500
718	505
718.408	520.6
718.816	536
719.225	505.8
719.633	503.4
720.042	497.4
720.472	503.2
720.881	520
721.29	497.4
721.699	482.6
722.108	494.8
722.517	492.6
722.926	488.2
723.335	502.4
723.744	495.6
724.154	498.6
724.563	492.6
724.973	490.2
725.382	489.4
725.792	493.4
726.202	485.8
726.612	497.6
727.022	493
727.432	490.8
779.813	490
780.223	523.4
780.634	484.6
781.044	491.6
781.454	488
781.865	501.8
782.276	489.2
782.686	497.8
783.097	494
783.508	488.6
783.919	501.4
784.33	505.6
784.741	506
785.152	491.8
785.563	483.8
785.974	493.4
786.386	505
786.776	493.6
787.188	497.8
787.599	484
788.011	489.6
788.423	488.2
788.835	488.4
789.247	483
789.659	481
790.071	488
790.483	532
790.874	495.4
791.286	496.8
791.699	481.2
792.111	493.4
792.524	488
792.937	488.6
793.349	492.4
793.741	486.2
794.154	483.2
794.567	497.4
794.98	492.4
795.393	486.2
795.785	498.4
796.198	492.4
796.612	489.6
797.026	486.4
797.439	474
797.831	487.4
798.245	489.6
798.659	490.6
799.073	486.2
799.487	491.6
799.88	496.2
800.294	497.8
800.708	502
801.123	498
801.516	505.6
801.93	480.6
802.345	483
802.76	499.6
803.153	499.8
803.568	496.8
803.983	499.4
804.377	491
804.792	481.4
805.207	484.2
805.601	496.2
806.016	514.8
806.432	492.6
806.826	518.8
807.242	500.2
807.658	489.6
808.052	487.4
808.468	494.4
808.884	492.2
809.279	491.4
809.695	510.4
810.111	517
810.506	493.6
810.922	496.2
811.339	491.4
811.734	497
812.151	490.8
812.546	491.6
812.963	486.6
813.38	498.8
813.776	496
814.193	506
814.589	489
815.006	497.8
815.402	487.4
815.82	490
816.237	494.4
816.633	493.6
817.051	490.4
817.448	491.6
817.866	488.6
818.262	506.2
818.68	489.6
819.077	487.6
819.495	491
819.892	534
820.311	488.8
820.708	492.8
821.127	493.6
821.524	500.4
821.943	493.2
822.34	507.6
822.759	490.6
823.157	491
823.576	495.4
823.974	503
824.393	547
824.791	496.2
825.189	486.8
825.609	490.6
826.007	489.4
826.427	489.2
826.826	486.2
827.246	496.8
827.644	478.2
828.043	494.8
828.463	484.4
828.862	499
829.261	494.4
829.682	478
830.081	492.2
830.502	484.2
830.901	496.4
831.301	487.2
831.722	485.6
832.121	490.4
832.521	491.2
832.943	496.8
833.342	490.8
833.742	482.4
834.164	484
834.564	487
834.965	492.2
835.386	493
835.787	492
836.188	489.8
836.588	494.6
837.01	487.4
837.411	488.8
837.812	500
838.213	496.8
838.636	490.4
839.037	544
839.438	496.4
839.84	487.4
840.263	502.2
840.664	492.6
841.066	487.8
841.468	488.2
841.891	487.2
842.293	498.6
842.695	498.4
843.098	507
843.5	492.6
843.902	493
844.326	496.6
844.729	488
845.131	502.2
845.534	491.8
845.937	495.6
846.34	503.8
846.764	487.4
847.167	492.8
847.571	486
847.974	486.8
848.377	486
848.781	524.8
849.184	497.4
849.588	489.4
849.992	489
850.396	492.6
850.821	505.8
851.225	492.2
851.63	481.6
852.034	503.6
