#lambda/nm	C1
208.295	462.6
208.67	433
209.045	386
209.419	390.8
209.794	528.8
210.169	509.6
210.544	612
210.919	530.8
211.295	515
211.67	528
212.045	523.4
212.421	525.2
212.796	552.8
213.172	526.4
213.547	518.6
213.923	520.8
214.299	530.8
214.675	536.4
215.051	530.8
215.427	539.4
215.803	543.2
216.179	530
216.555	523.4
216.932	534.4
217.308	533.6
217.684	528.4
218.061	538.8
218.438	526.6
218.814	524
219.191	536.6
219.568	521.6
219.945	532.6
220.322	541.4
220.699	525
221.076	541.2
221.453	532.4
221.83	518.8
222.208	517.2
222.585	533.2
222.962	531.2
223.34	524.8
223.717	524.6
224.095	531
224.473	528
224.851	526.8
225.229	526
225.607	535.6
225.985	523
226.363	529.2
226.741	534.8
227.119	533.4
227.497	541.2
227.876	519.8
228.254	531.4
228.633	527.4
229.011	533
229.39	532.6
229.769	525.2
230.148	541.2
230.527	543
230.905	529
231.284	531
231.664	518.2
232.043	542.4
232.422	536.4
232.801	526
233.181	530
233.56	528.8
233.94	527.2
234.319	519.8
234.699	526
235.079	569
235.458	554.8
235.838	542.8
236.218	521.8
236.598	519.4
236.978	521.4
237.358	522.2
237.738	521.8
238.119	532.2
238.499	518.4
238.88	528.6
239.26	540.2
239.641	511
240.021	523.6
240.402	530.4
240.783	519.2
241.163	523.4
241.544	529.4
241.925	533.4
242.306	536.6
242.687	522.2
243.069	525.4
243.45	534
243.831	527
244.212	520.4
244.594	562.4
244.975	539.8
245.357	530.6
245.739	522.8
246.12	538
246.502	538.6
246.884	524.8
247.266	521.8
247.648	530
248.03	543.4
248.412	528.6
248.794	535.6
249.176	524.4
249.559	534.4
249.941	522.6
250.323	523
250.706	520.8
251.089	532
251.471	528.4
251.854	527.2
252.237	528.8
252.62	538.4
253.002	533
253.385	535.4
253.769	550.2
254.152	529
254.535	537
254.918	526.2
255.301	526.8
255.685	530.2
256.068	517.8
256.452	552.8
256.835	542.2
257.219	535.4
257.603	537.2
257.986	518.2
258.37	539.6
258.754	523
259.138	538
259.522	536.4
259.906	534.2
260.29	533.6
260.675	524.6
261.059	530
261.443	522.4
261.828	531.6
262.212	533.2
262.597	518.2
262.981	528.4
263.366	538.4
263.751	528.8
264.136	524.4
264.521	523.4
264.906	524.6
265.291	534.4
265.676	532
266.061	532.2
266.446	536.4
266.831	523
267.217	541.4
267.602	533.8
267.987	535.4
268.373	525.6
268.759	535
269.144	531.2
269.53	527.8
269.916	525.2
270.302	526
270.688	526.8
271.074	531.2
271.46	534.6
271.846	550.4
272.232	531.4
272.618	523.4
273.004	521
273.391	532.8
273.777	531.2
274.164	531.6
274.55	533
274.937	531.6
275.324	523.8
275.71	528.8
276.097	534.8
276.484	523.4
276.871	536
277.258	530.4
277.645	518.8
278.032	532.6
278.419	525.8
278.807	533
279.194	529.8
279.581	518.8
279.969	534.4
280.356	535.4
280.744	533.8
281.131	549.4
281.519	540
281.907	525.2
282.295	523.8
282.682	542.4
283.07	536.2
283.458	534.6
283.846	535
284.235	540.4
284.623	534.6
285.011	519.2
285.399	522.6
285.788	520.6
286.176	516.2
286.565	538.8
286.953	521.2
287.342	527.4
287.731	523.8
288.119	516
288.508	526.4
288.897	528
289.286	514
289.675	534.4
290.064	527.2
290.453	521
290.821	527.6
291.21	542.8
291.599	517
291.989	528.8
292.378	530.8
292.768	545.8
293.157	536.6
293.547	533.8
293.936	526.4
294.326	530
294.716	530.4
295.106	529.8
295.496	534.2
295.886	541.8
296.276	529.4
296.666	524.4
297.056	524
297.446	519.8
297.836	536.4
298.227	522.6
298.617	529.4
299.008	530.2
299.398	525.8
299.789	522.8
300.179	530
300.57	537.4
300.961	527.8
301.352	518
301.742	535.8
302.133	537
302.524	532.6
302.915	523.6
303.307	522.2
303.698	540.2
304.089	526
304.48	532.8
304.872	532.2
305.263	522.8
305.655	522.4
306.046	535.8
306.438	530.4
306.829	526.4
307.221	533.4
307.613	537.2
308.005	536.2
308.397	533.4
308.789	547.2
309.181	541.8
309.573	544.6
309.965	530.8
310.357	532
310.749	534
311.142	520.6
311.534	521.4
311.926	530.2
312.319	528.4
312.711	517
313.104	538.4
313.497	527
313.889	560
314.282	541
314.675	540.4
315.068	520.8
315.461	530.4
315.854	551.2
316.247	526.6
316.64	523.6
317.033	531.8
317.405	537.4
317.798	525.6
318.192	531.2
318.585	521.8
318.979	529.2
319.372	525.8
319.766	526.2
320.16	529
320.553	538.6
320.947	543.8
321.341	526.2
321.735	531.2
322.129	521.2
322.523	547.6
322.917	522.2
323.311	536.6
323.705	526.2
324.099	536.2
324.494	542.2
324.888	536.6
325.282	528.6
325.677	542.6
326.071	536.6
326.466	536.2
326.861	532.6
327.255	544.2
327.65	537.8
328.045	539.8
328.44	528
328.835	527.4
329.23	523.4
329.625	549.2
330.02	519.4
330.415	538.4
330.81	534.6
331.206	534.4
331.601	527.4
331.996	524
332.37	549.4
332.766	521
333.161	542.2
333.557	528.6
333.953	529.4
334.348	696.8
334.744	521.8
335.14	521.8
335.536	526.2
335.932	531.2
336.328	528.4
336.724	533.2
337.12	523.4
337.516	535.2
337.913	524
338.309	531.6
338.705	531.2
339.102	526.8
339.498	526
339.895	541.8
340.291	523.4
340.688	539.4
341.085	516.6
341.481	524.2
341.878	529.6
342.275	538.2
342.672	520.6
343.069	517.2
343.466	514.2
343.842	534.6
344.239	519.8
344.636	538.6
345.033	516.4
345.431	523.4
345.828	524.8
346.225	522.8
346.623	560.8
347.02	524.4
347.418	541.6
347.816	546
348.213	519.8
348.611	533.4
349.009	523.2
349.407	537.8
349.805	520.6
350.203	518.2
350.601	535.2
350.999	523.8
351.397	567.6
351.795	530.4
352.193	532.2
352.57	541.4
352.969	534.6
353.367	527.8
353.766	526.6
354.164	526.2
354.563	530.4
354.961	524.8
355.36	520.4
355.759	530.2
356.158	527.4
356.557	523.4
356.956	524.2
357.355	517.4
357.754	522.6
358.153	525.6
358.552	543.4
358.951	529.4
359.35	530.2
359.75	525.6
360.149	512.6
360.527	514.4
360.926	513.6
361.326	523
361.726	519.4
362.125	513
362.525	530
362.925	518.8
363.325	523.2
363.724	525
364.124	518
364.524	513.2
364.924	523
365.324	530.4
365.725	509.8
366.125	524.2
366.525	527.4
366.904	516
367.304	520.6
367.705	542.2
368.105	533.4
368.506	516
368.906	531.6
369.307	523
369.708	532
370.108	515.4
370.509	530.6
370.91	514
371.311	523
371.712	523.4
372.113	520.6
372.514	516.6
372.894	521.8
373.295	514.8
373.696	530.2
374.097	533.8
374.499	543.2
374.9	517.4
375.301	513.8
375.703	522.8
376.105	518.2
376.506	525
376.908	523.2
377.309	517.8
377.711	521
378.113	523.2
378.493	516.8
378.895	519.8
379.297	529.6
379.699	509.2
380.102	518
380.504	524
380.906	517.4
381.308	535.4
381.71	515.2
382.113	521
382.515	518.2
382.918	515.6
383.299	513.2
383.701	532.2
384.104	517.2
384.507	506.2
384.909	519
385.312	504.8
385.715	513.8
386.118	516.2
386.521	508
386.924	528.8
387.327	518.4
387.709	513.2
388.112	508.4
388.515	515
388.918	512.8
389.322	529.8
389.725	514.2
390.129	539.2
390.532	519.6
390.936	519.8
391.339	514.6
391.743	517.6
392.125	512.8
392.529	521.4
392.933	524.2
393.337	520.4
393.74	522.6
394.144	523.2
394.548	518.2
394.953	524.4
395.357	529.2
395.761	518.8
396.144	527.8
396.548	509.4
396.952	526.2
397.357	519.8
397.761	506.8
398.166	512.2
398.57	515.2
398.975	519
399.379	532.2
399.763	566.2
400.168	520.6
400.572	521.6
400.977	518.4
401.382	538.2
401.787	525.6
402.192	538
402.597	536.8
403.002	512.2
403.386	527.8
403.791	530.8
404.197	513
404.602	513.2
405.007	514
405.413	517
405.818	516.4
406.224	511.8
406.608	513.2
407.014	500.6
407.42	538
407.825	505.8
408.231	520.6
408.637	515.8
409.043	534.2
409.449	517.4
409.834	511.2
410.24	513.8
410.646	524.4
411.052	523.6
411.458	523.2
411.865	517.8
412.271	521.6
412.677	519.2
413.062	524.4
413.469	513.4
413.875	535
414.282	537
414.689	528.2
415.095	526
415.502	517.6
415.888	517.6
416.294	507.2
416.701	547.8
417.108	512.2
417.515	524.6
417.923	517.4
418.33	527.8
418.715	521.6
419.123	513.6
419.53	515.8
419.937	520.8
420.345	528.4
420.752	519.2
421.16	531.6
421.546	515.2
421.953	527.6
422.361	523
422.769	528.2
423.177	515.8
423.585	535.6
423.992	538.2
424.379	534.6
424.787	525.6
425.195	531.8
425.603	522
426.011	528.4
426.419	526.4
426.806	522.6
427.214	523
427.623	529.6
428.031	533
428.44	524
428.848	530.8
429.235	539.4
429.644	519.4
430.053	526
430.461	537.2
430.87	547.8
431.279	540.2
431.666	521.2
432.075	536
432.484	530.2
432.893	528.8
433.302	537.2
433.711	571
434.099	535
434.508	544
434.918	547.2
435.327	562.6
435.737	560
436.125	560.6
436.534	573.6
436.944	582.6
437.353	586.2
437.763	603.4
438.173	594.4
438.561	611.4
438.971	596.6
439.381	611.4
439.791	626.2
440.201	619.4
440.589	639.2
440.999	646.8
441.409	651.6
441.819	650.4
442.23	665.8
442.619	682.6
443.029	676.6
443.439	682.2
443.85	697
444.26	708.4
444.649	690.2
445.06	701.8
445.471	707.6
445.881	710.4
446.292	730
446.682	741.8
447.092	713.8
447.503	770.8
447.914	740.6
448.325	744.2
448.715	736.2
449.126	737.6
449.537	750.4
449.948	748.6
450.338	751.4
450.75	776.6
451.161	764
451.572	767.6
451.984	764.4
452.374	760.8
452.786	773.4
453.197	772.8
453.609	776
453.999	763.2
454.411	763
454.823	782.6
455.235	785.2
455.647	779.8
456.037	787.4
456.449	773.8
456.862	782.4
457.274	788.2
457.665	783.6
458.077	794.4
458.489	818.6
458.902	793
459.293	792.4
459.705	792.4
460.118	790.6
460.53	801.2
460.921	817.8
461.334	811
461.747	810.8
462.16	819.2
462.551	823.8
462.964	814.6
463.377	803.8
463.79	807.2
464.182	823.2
464.595	805.2
465.008	816.6
465.421	826
465.813	822.2
466.226	835.2
466.64	816.6
467.053	855.2
467.445	831
467.859	854.2
468.272	840
468.686	854.6
469.078	830.8
469.492	833.2
469.906	845.4
470.298	847.4
470.712	836.8
471.126	860
471.54	828
471.933	836.6
472.347	846.4
472.761	848.2
473.175	842.8
473.568	839.6
473.982	840.8
474.397	837.4
474.79	845.6
475.204	844.2
475.619	834.4
476.033	843.6
476.426	841.4
476.841	837.6
477.256	864
477.649	828.4
478.064	828.8
478.479	831.4
478.872	833.2
479.287	818.8
479.702	827.2
480.118	831
480.511	827
480.927	831
481.342	823.4
481.736	825.2
482.151	826
482.566	830.6
482.96	829.2
483.376	837
483.792	820.8
484.186	820
484.602	820
485.017	825.4
485.412	815.4
485.827	827.4
486.243	820.2
486.638	835.6
487.054	824.2
487.47	834
487.865	819.6
488.281	814
488.697	800.6
489.092	809.8
489.508	805.4
489.925	814
490.32	801.2
490.736	801.8
491.153	805.2
491.548	795.2
491.964	809.2
492.381	790.4
492.776	794
493.193	791.8
493.61	790.8
494.006	792.4
494.422	792.4
494.84	783.6
495.235	786.2
495.652	778.2
496.069	780.8
496.465	777.4
496.883	775.6
497.3	799.8
497.696	781.4
498.113	780.8
498.509	771.2
498.927	752.4
499.344	761
499.741	754.2
500.158	754
500.576	764
500.973	755
501.39	746.2
501.787	733.2
502.205	744.8
502.623	736
503.02	737.4
503.438	738.4
503.856	729.8
504.253	740.2
504.671	737.6
505.068	730.8
505.486	729.2
505.905	743
506.302	732.6
506.72	730.4
507.118	707.8
507.536	719.8
507.955	720.4
508.352	716.4
508.771	712.4
509.169	707.4
509.587	695.4
510.006	702.2
510.404	699.4
510.823	705.4
511.221	707.6
511.64	702.4
512.038	705.4
512.457	698.8
512.877	694
513.275	696.6
513.694	688
514.092	693
514.512	700
514.91	703.8
515.33	684.8
515.749	686.8
516.148	683.8
516.568	688
516.966	684
517.386	681.4
517.785	677.8
518.205	670.8
518.603	667.8
519.024	659
519.444	677.6
519.843	674.2
520.263	679.8
520.662	671
521.082	663
521.481	660
521.902	664.2
522.301	660.6
522.722	659
523.121	658.2
523.542	651.8
523.963	655.6
524.362	653.4
524.783	645
525.183	651
525.604	646.8
526.003	633
526.425	635.6
526.824	639.2
527.246	641.8
527.646	643.8
528.067	641.4
528.467	629.6
528.888	637.2
529.289	627.6
529.71	629
530.11	631.4
530.532	624.6
530.932	614.6
531.354	607.8
531.755	648.8
532.176	620.6
532.577	617.6
532.999	612.8
533.4	611.4
533.822	621
534.223	607.6
534.645	610.8
535.046	610.2
535.468	621
535.869	622.4
536.292	609
536.693	641.4
537.115	602.8
537.516	605.8
537.939	607.4
538.34	618.6
538.742	620.4
539.165	612.6
539.566	615.2
539.989	592.8
540.391	607.4
540.814	602.4
541.216	604.8
541.639	611.2
542.041	604.4
542.464	606
542.866	590.6
543.268	591.6
543.691	606.4
544.093	600.2
544.517	615.2
544.919	590.2
545.343	602.4
545.745	590.8
546.147	594
546.571	589.4
546.974	591.8
547.398	588
547.8	601.4
548.224	592
548.627	584.4
549.03	597.4
549.454	580.6
549.857	576.6
550.281	578.8
550.684	577.8
551.087	582.8
551.512	583.2
551.915	581.4
552.34	580.4
552.743	572.4
553.146	581.2
553.571	575.8
553.975	590.6
554.399	569.6
554.803	617.2
555.207	568.8
555.632	558.8
556.036	575.4
556.461	570.8
556.865	562.4
557.268	569
557.694	563.4
558.098	580.2
558.502	574.4
558.927	557.4
559.332	562.2
559.736	568
560.162	569.6
560.566	567.8
560.992	571.2
561.396	571.8
561.801	556.8
562.227	564.6
562.631	559.2
563.036	560.4
563.462	562
563.867	561.8
564.272	547
564.698	558.6
565.103	552.2
565.508	563.4
565.935	560.6
566.34	555.2
566.745	553.8
567.172	552
567.577	575.6
567.982	565
568.409	557.4
568.815	550
569.22	552.8
569.626	564.4
570.053	540.2
570.459	551
570.865	555.8
571.292	556.4
571.698	547.6
572.104	540.6
572.531	534.6
572.937	546
573.343	543.6
573.75	550.6
574.177	548.8
574.583	554.2
574.99	538.8
575.396	550.2
575.824	532.4
576.231	542
576.637	543.4
577.065	556.8
577.472	537.2
577.879	538
578.286	549.4
578.714	536.2
579.121	539.8
579.528	532.4
579.935	549
580.364	542.8
580.771	526.6
581.178	530.4
581.585	545.4
582.014	538.6
582.421	532.4
582.829	534.4
583.236	543.4
583.644	528.4
584.073	534
584.481	535.6
584.889	524.4
585.296	536.4
585.726	533.8
586.134	528.6
586.542	522.4
586.95	545.4
587.358	522.4
587.787	533.6
588.196	519.4
588.604	528.2
589.012	531
589.421	526.6
589.851	522.4
590.259	530
590.668	527.2
591.076	553.8
591.485	524.4
591.894	527.2
592.324	532
592.733	530.8
593.142	516.4
593.551	531.2
593.96	550.2
594.369	519
594.8	521.4
595.209	520.8
595.618	513.4
596.028	519.8
596.437	516
596.847	517.6
597.256	522.8
597.687	512.6
598.097	521.6
598.507	513.4
598.917	527.6
599.327	521.6
599.736	523.6
600.146	532
600.556	525.6
600.988	525.8
601.398	514.8
601.808	517.6
602.219	505
602.629	518.8
603.039	510.4
603.45	534.8
603.86	513.8
604.271	526.2
604.703	521.4
605.114	511.8
605.525	516.8
605.935	525
606.346	526
606.757	517.2
607.168	512.4
607.579	510
607.99	528.2
608.402	521
608.813	529
609.224	517
609.636	512.8
610.047	509.8
610.48	519.6
610.892	526
611.303	527.2
611.715	516.6
612.127	516
612.539	517.2
612.95	520.4
613.362	510.2
613.774	514
614.186	518.2
614.599	517.6
615.011	523.6
615.423	526.6
615.835	520
616.248	516.6
616.66	525.6
617.073	519.4
617.485	516.2
617.898	531.6
618.311	528.8
618.723	523.8
619.136	549.8
619.549	531.8
619.962	539.2
620.375	529.2
620.788	532
621.201	525.4
621.614	535
622.028	526.6
622.441	526.4
622.854	539.6
623.268	521
623.681	529
624.095	524.2
624.509	526.4
624.922	534
625.336	521.2
625.728	526.4
626.142	531.4
626.556	538.6
626.97	531.8
627.384	529
627.799	525
628.213	532
628.627	519.2
629.041	528.6
629.456	516.8
629.87	517.4
630.285	533.6
630.699	530.4
631.093	520
631.507	525.4
631.922	522.2
632.337	531.2
632.752	514.6
633.167	526.8
633.582	520.4
633.997	519.4
634.412	520.4
634.806	523.8
635.221	513
635.637	532.2
636.052	518
636.468	523.6
636.883	534.2
637.299	527
637.715	508.6
638.109	524.8
638.525	513.4
638.941	530.6
639.357	525.4
639.773	526.4
640.189	514.6
640.584	521.6
641	525.4
641.416	516.2
641.832	506.4
642.249	518
642.665	523.4
643.06	524.2
643.477	520.8
643.894	508.8
644.31	512.2
644.727	518.2
645.123	525
645.54	512.4
645.957	515.6
646.374	527.6
646.77	511.4
647.187	541.6
647.604	513.2
648.021	496.8
648.439	504.2
648.835	513.6
649.252	514.6
649.67	515.2
650.088	516.8
650.484	513.4
650.902	519
651.32	520.2
651.738	508.8
652.134	505.2
652.552	529
652.971	519.8
653.389	509.8
653.786	517.4
654.204	513.4
654.622	502.2
655.019	510
655.438	512.2
655.857	506.8
656.275	510.8
656.673	502
657.091	512
657.51	507.6
657.908	512.2
658.327	514.2
658.746	494.8
659.144	512
659.563	524.2
659.982	509.6
660.38	505.6
660.8	499.2
661.219	518
661.617	507.8
662.037	509.4
662.457	508.8
662.855	497.6
663.275	530.4
663.695	511.4
664.094	508.2
664.514	511
664.934	502.8
665.333	509.8
665.753	503
666.152	503.4
666.572	505
666.993	508.6
667.392	505
667.812	496.2
668.212	503.2
668.632	511.2
669.053	497.4
669.453	502
669.874	506.2
670.273	507
670.694	507.4
671.116	514.6
671.515	508.6
671.937	501.4
672.337	506.2
672.758	501.6
673.158	512.6
673.58	494
673.98	507.2
674.402	521.2
674.824	507.4
675.224	500.4
675.646	498.4
676.047	505.4
676.469	510.4
676.869	513.2
677.292	497.2
677.693	504.6
678.115	497.6
678.516	512.6
678.939	514
679.34	502.8
679.762	507
680.164	502.2
680.586	502.6
680.988	503.2
681.411	520.6
681.812	493.4
682.236	493.6
682.637	496
683.061	488.8
683.462	499
683.864	496.4
684.288	499
684.69	496.8
685.114	502.4
685.516	496.6
685.94	492.8
686.342	498
686.766	489.4
687.168	498.8
687.571	512.8
687.995	501.6
688.398	497.4
688.822	497
689.225	511.8
689.628	514.2
690.052	501
690.456	499.4
690.88	497.6
691.284	492.2
691.687	501.6
692.112	492.4
692.515	487.6
692.919	497
693.344	498.2
693.747	495.8
694.173	484.2
694.577	505.6
694.98	496.6
695.406	499.4
695.81	500.8
696.214	495.4
696.64	494.4
697.044	494.6
697.448	505.4
697.874	488.2
698.279	494.2
698.684	489
699.11	488.2
699.514	490.8
699.919	489.6
700.324	492.2
700.75	501.2
701.156	501.8
701.561	504
701.987	496.8
702.393	501.4
702.798	506.2
703.203	495.6
703.63	495.2
704.036	498.6
704.442	504.2
704.847	495.8
705.274	497
705.68	505
706.086	508.2
706.492	483.2
706.92	494.2
707.326	508
707.732	499.4
708.139	492
708.545	495.6
708.973	492.2
709.38	494
709.786	486.8
710.193	512.4
710.6	505.2
711.028	491.4
711.435	497.4
711.842	499.4
712.249	487
712.656	494.6
713.064	500
713.492	491
713.9	493.6
714.307	499.6
714.715	493.2
715.123	505.8
715.53	502.4
715.938	506.2
716.367	494.8
716.775	492.2
717.184	490.4
717.592	493.4
718	503.2
718.408	516
718.816	525.2
719.225	504.8
719.633	498.4
720.042	493
720.472	492.8
720.881	507.6
721.29	496
721.699	486.4
722.108	495
722.517	490
722.926	500
723.335	496
723.744	496.4
724.154	489.4
724.563	491
724.973	497.2
725.382	500.6
725.792	496.6
726.202	492.8
726.612	506
727.022	491
727.432	496.4
779.813	499.2
780.223	535.8
780.634	502.4
781.044	491.8
781.454	501.8
781.865	503.6
782.276	486.6
782.686	502.4
783.097	493.6
783.508	493.6
783.919	502
784.33	502
784.741	507.8
785.152	491.8
785.563	482
785.974	502
786.386	504
786.776	491
787.188	496.6
787.599	483.6
788.011	502.2
788.423	498.2
788.835	497.8
789.247	487.2
789.659	495.2
790.071	490
790.483	526
790.874	504.4
791.286	498
791.699	489.4
792.111	493
792.524	502.2
792.937	486
793.349	489
793.741	491.6
794.154	502.2
794.567	510.6
794.98	496
795.393	488.4
795.785	504
796.198	487.4
796.612	497
797.026	493.2
797.439	479
797.831	491
798.245	487.8
798.659	493
799.073	488.6
799.487	490.4
799.88	493
800.294	490.8
800.708	489.6
801.123	494.4
801.516	503.4
801.93	490.4
802.345	495.2
802.76	492.2
803.153	499
803.568	506.6
803.983	501.2
804.377	493
804.792	485.4
805.207	483.8
805.601	497.6
806.016	511.4
806.432	490.6
806.826	522.4
807.242	504.6
807.658	497.6
808.052	488.4
808.468	487.4
808.884	492.6
809.279	495
809.695	502.4
810.111	511.4
810.506	498
810.922	507
811.339	492.2
811.734	502.4
812.151	492.4
812.546	489.8
812.963	484.4
813.38	499.8
813.776	487.8
814.193	510.6
814.589	496.4
815.006	492.6
815.402	489.2
815.82	491.2
816.237	495.8
816.633	488.8
817.051	482.6
817.448	495.8
817.866	479.6
818.262	506.4
818.68	494.6
819.077	491
819.495	492
819.892	525.8
820.311	484
820.708	498.6
821.127	488.6
821.524	499.6
821.943	499.8
822.34	497.8
822.759	495.4
823.157	489.6
823.576	504.2
823.974	501.2
824.393	579.6
824.791	491.4
825.189	484.6
825.609	491.6
826.007	493.2
826.427	483.6
826.826	489.6
827.246	492.4
827.644	480.2
828.043	498.4
828.463	486.4
828.862	496.4
829.261	495.2
829.682	478
830.081	493.8
830.502	482.2
830.901	499.2
831.301	492.8
831.722	481.4
832.121	496
832.521	492.2
832.943	489
833.342	498
833.742	483.4
834.164	491
834.564	484.8
834.965	484
835.386	485.2
835.787	488.6
836.188	499
836.588	498.8
837.01	491
837.411	489
837.812	512.8
838.213	490.2
838.636	500.2
839.037	537.6
839.438	491.2
839.84	498.2
840.263	501.8
840.664	498.2
841.066	491
841.468	491.4
841.891	485
842.293	497
842.695	486.8
843.098	501.6
843.5	490.2
843.902	489.6
844.326	497.2
844.729	486.6
845.131	501.4
845.534	491
845.937	496
846.34	507.2
846.764	479
847.167	487.6
847.571	489.4
847.974	488.8
848.377	487.8
848.781	520.4
849.184	501
849.588	486.4
849.992	482
850.396	487
850.821	503
851.225	495.6
851.63	487.8
852.034	501.8
852.438	489.6
852.843	508
853.247	487
853.652	483.8
854.057	508.2
854.462	490
854.867	494.2
855.272	519.4
855.677	496
856.082	484.4
856.487	482
856.893	496
