#lambda/nm	C1
208.295	465.2
208.67	430.2
209.045	391.2
209.419	402.4
209.794	539.2
210.169	514.4
210.544	620
210.919	525.4
211.295	518.6
211.67	529.8
212.045	526
212.421	522.2
212.796	549.8
213.172	519.8
213.547	525.2
213.923	520.8
214.299	523.6
214.675	537
215.051	534
215.427	532.2
215.803	545.4
216.179	540.2
216.555	517.6
216.932	541.8
217.308	531.2
217.684	528
218.061	541.4
218.438	535
218.814	526
219.191	543
219.568	523.8
219.945	524.2
220.322	538.6
220.699	533.4
221.076	538
221.453	526
221.83	523.6
222.208	521.8
222.585	528.4
222.962	526.6
223.34	537
223.717	530
224.095	528.2
224.473	533.4
224.851	522.6
225.229	519.4
225.607	537.4
225.985	517.6
226.363	526
226.741	527.6
227.119	520.2
227.497	543.6
227.876	517.2
228.254	537.2
228.633	534.8
229.011	530.8
229.39	536
229.769	534
230.148	533.8
230.527	538.8
230.905	526.2
231.284	537.6
231.664	525
232.043	536.4
232.422	532.2
232.801	531
233.181	533.4
233.56	524.6
233.94	525.8
234.319	529.6
234.699	527.4
235.079	557.4
235.458	557
235.838	536.6
236.218	518.8
236.598	525.4
236.978	516.4
237.358	511.2
237.738	523.8
238.119	531.6
238.499	519.8
238.88	529.4
239.26	536
239.641	518
240.021	531.4
240.402	519.6
240.783	529.4
241.163	525.8
241.544	527.4
241.925	534.2
242.306	544.2
242.687	527.6
243.069	530.4
243.45	540
243.831	526
244.212	523.8
244.594	557.4
244.975	536.8
245.357	533.8
245.739	520.6
246.12	525.6
246.502	535.2
246.884	524.8
247.266	527
247.648	531.8
248.03	546.8
248.412	534.8
248.794	528
249.176	524.6
249.559	535.2
249.941	524
250.323	530
250.706	523
251.089	530.6
251.471	530.2
251.854	524.2
252.237	526.4
252.62	532.8
253.002	526.2
253.385	528
253.769	536.6
254.152	525.4
254.535	538.6
254.918	521.6
255.301	524.4
255.685	519.2
256.068	515.8
256.452	545.6
256.835	528.8
257.219	527.8
257.603	536.2
257.986	517.2
258.37	537.2
258.754	510.8
259.138	529
259.522	532.8
259.906	527.6
260.29	532.4
260.675	516.4
261.059	526.8
261.443	528.4
261.828	535.4
262.212	541.4
262.597	526
262.981	526.2
263.366	530
263.751	525.2
264.136	526
264.521	526.8
264.906	522.6
265.291	544.6
265.676	522.2
266.061	538.2
266.446	543
266.831	530.8
267.217	545.2
267.602	537.6
267.987	530.8
268.373	526.6
268.759	540.4
269.144	528.2
269.53	529.2
269.916	531.6
270.302	529.8
270.688	530
271.074	527.8
271.46	534.8
271.846	550.4
272.232	529
272.618	518.8
273.004	521.6
273.391	526.2
273.777	541.2
274.164	528
274.55	537.2
274.937	530.8
275.324	527.6
275.71	523.4
276.097	532.4
276.484	524.2
276.871	525
277.258	531
277.645	522.6
278.032	517.6
278.419	522.4
278.807	524.6
279.194	518.2
279.581	515.8
279.969	530.2
280.356	522.2
280.744	525.8
281.131	547.4
281.519	534.6
281.907	520.2
282.295	522.4
282.682	530
283.07	526.4
283.458	530
283.846	533.2
284.235	532.8
284.623	537.6
285.011	517.2
285.399	527.2
285.788	523.8
286.176	519.2
286.565	530.8
286.953	521.6
287.342	520
287.731	529
288.119	516.4
288.508	523.6
288.897	526.6
289.286	509.6
289.675	526.6
290.064	533.4
290.453	522.2
290.821	528.6
291.21	537.8
291.599	515.2
291.989	527.4
292.378	539.6
292.768	541
293.157	536.6
293.547	535.2
293.936	530.8
294.326	523
294.716	535.8
295.106	527.8
295.496	531.8
295.886	537.4
296.276	527
296.666	525
297.056	532.6
297.446	509.4
297.836	538.6
298.227	523.2
298.617	530.8
299.008	538
299.398	523.6
299.789	529.4
300.179	530.6
300.57	544.8
300.961	526
301.352	527.6
301.742	527.8
302.133	527.8
302.524	522.8
302.915	529
303.307	514.8
303.698	535.4
304.089	534.4
304.48	530
304.872	529.8
305.263	530.8
305.655	523.6
306.046	525.2
306.438	530.8
306.829	524.2
307.221	537.6
307.613	532.4
308.005	540.8
308.397	538.8
308.789	543
309.181	542.8
309.573	546.4
309.965	533.8
310.357	525
310.749	539.2
311.142	524.2
311.534	522.6
311.926	541.6
312.319	531
312.711	528.8
313.104	542.4
313.497	525.2
313.889	559.2
314.282	539
314.675	541.8
315.068	526.6
315.461	531.8
315.854	555.4
316.247	535
316.64	532.2
317.033	532.6
317.405	532.8
317.798	530.8
318.192	535.8
318.585	520.2
318.979	531.2
319.372	519.8
319.766	532.4
320.16	536.2
320.553	539.6
320.947	540.2
321.341	528.4
321.735	527.8
322.129	515.6
322.523	551.2
322.917	514.4
323.311	536.8
323.705	528.4
324.099	524.8
324.494	546.2
324.888	537.6
325.282	519
325.677	530.6
326.071	526.4
326.466	534.2
326.861	528.2
327.255	541.4
327.65	534.8
328.045	546.6
328.44	532.4
328.835	536.2
329.23	527.2
329.625	539
330.02	522.6
330.415	542
330.81	534
331.206	524.4
331.601	523.4
331.996	532.8
332.37	545
332.766	523.6
333.161	540.2
333.557	522.6
333.953	527
334.348	740.6
334.744	523.6
335.14	520
335.536	526
335.932	537.2
336.328	531
336.724	533
337.12	524.8
337.516	535.8
337.913	524.6
338.309	538.4
338.705	524.8
339.102	527.6
339.498	515.6
339.895	539
340.291	521.6
340.688	524.6
341.085	526.2
341.481	524.6
341.878	526.2
342.275	540.6
342.672	516.2
343.069	528.4
343.466	516.4
343.842	532.2
344.239	517
344.636	533
345.033	519.4
345.431	513.8
345.828	527.6
346.225	526.4
346.623	554.8
347.02	523.2
347.418	529
347.816	535.2
348.213	520.2
348.611	533
349.009	520
349.407	539.4
349.805	516
350.203	514.6
350.601	536.6
350.999	524.2
351.397	564.2
351.795	519.2
352.193	531.6
352.57	534.8
352.969	528.2
353.367	511
353.766	520.8
354.164	521.8
354.563	529.2
354.961	511
355.36	517.8
355.759	512.8
356.158	512.8
356.557	513.4
356.956	509.6
357.355	512.6
357.754	525.6
358.153	520
358.552	536
358.951	518.8
359.35	535
359.75	517.8
360.149	511.6
360.527	511.6
360.926	523.2
361.326	523
361.726	519.2
362.125	512.8
362.525	526.8
362.925	522.4
363.325	524.4
363.724	524
364.124	518.8
364.524	519.2
364.924	521
365.324	531.2
365.725	516
366.125	520.4
366.525	532.6
366.904	520.2
367.304	508.8
367.705	536.8
368.105	529
368.506	515.4
368.906	522.8
369.307	517.4
369.708	516.2
370.108	511.4
370.509	528.2
370.91	512.2
371.311	526.8
371.712	519.8
372.113	520
372.514	509.2
372.894	519.4
373.295	515
373.696	529
374.097	519.6
374.499	540.2
374.9	511.2
375.301	506.6
375.703	514.8
376.105	504.4
376.506	519
376.908	522.2
377.309	523.4
377.711	518
378.113	511.4
378.493	510.2
378.895	515.4
379.297	522
379.699	503.2
380.102	514.6
380.504	513.2
380.906	510.8
381.308	533.2
381.71	515.6
382.113	528.4
382.515	512
382.918	521
383.299	517.6
383.701	525.6
384.104	517.8
384.507	508
384.909	520.2
385.312	510.4
385.715	511.4
386.118	521.4
386.521	508
386.924	532
387.327	516.2
387.709	513
388.112	501.6
388.515	523
388.918	518.8
389.322	525
389.725	511.4
390.129	536
390.532	530.6
390.936	520.6
391.339	514
391.743	519.6
392.125	515
392.529	525.6
392.933	535.6
393.337	522.6
393.74	517.6
394.144	517
394.548	522.4
394.953	520.8
395.357	525.6
395.761	516.2
396.144	518.2
396.548	514.6
396.952	516.4
397.357	513.8
397.761	519.2
398.166	516.4
398.57	521.4
398.975	512
399.379	520
399.763	564.6
400.168	516.2
400.572	517
400.977	523.6
401.382	534.4
401.787	529.6
402.192	533.4
402.597	526.6
403.002	516
403.386	527.8
403.791	530.8
404.197	515
404.602	518.4
405.007	519.6
405.413	515.2
405.818	519.4
406.224	511.8
406.608	516
407.014	512.4
407.42	534.4
407.825	519.2
408.231	521.8
408.637	522.6
409.043	530.2
409.449	521.2
409.834	509.8
410.24	516.8
410.646	529.2
411.052	527
411.458	522.4
411.865	526.2
412.271	529.4
412.677	525.4
413.062	529
413.469	514
413.875	540.2
414.282	534
414.689	519.6
415.095	524.4
415.502	514.6
415.888	526.6
416.294	511.2
416.701	545.6
417.108	517
417.515	530.8
417.923	523
418.33	532.6
418.715	529.2
419.123	523.6
419.53	510
419.937	521.4
420.345	537.2
420.752	515.6
421.16	530.4
421.546	524.6
421.953	533.8
422.361	519.4
422.769	518
423.177	516
423.585	537
423.992	535.6
424.379	525.8
424.787	529.2
425.195	536.2
425.603	520.8
426.011	532.6
426.419	531.8
426.806	521.4
427.214	528.8
427.623	531.6
428.031	535.4
428.44	522.4
428.848	529.4
429.235	532.2
429.644	521.2
430.053	526.6
430.461	536.4
430.87	544.4
431.279	528.4
431.666	521.2
432.075	529.6
432.484	524.8
432.893	517.6
433.302	531.6
433.711	565.4
434.099	540
434.508	530.6
434.918	527.4
435.327	541.2
435.737	553.6
436.125	542.8
436.534	556.8
436.944	559.2
437.353	565.6
437.763	566.4
438.173	565
438.561	578
438.971	561
439.381	569.4
439.791	592
440.201	565.8
440.589	604
440.999	600.4
441.409	599.6
441.819	598.4
442.23	619.8
442.619	622.8
443.029	613.2
443.439	615.6
443.85	623.6
444.26	639.2
444.649	634
445.06	630.2
445.471	626
445.881	646.4
446.292	649.6
446.682	647
447.092	630
447.503	685.2
447.914	646.2
448.325	641.6
448.715	650.2
449.126	647.4
449.537	653.8
449.948	663.6
450.338	664.8
450.75	662.6
451.161	660.6
451.572	670.6
451.984	671
452.374	654.2
452.786	672.4
453.197	667.8
453.609	672.4
453.999	656
454.411	669
454.823	677.8
455.235	680.4
455.647	676.2
456.037	676.4
456.449	668.6
456.862	678.2
457.274	684.8
457.665	676
458.077	672.2
458.489	700.2
458.902	681.6
459.293	686
459.705	688.4
460.118	674.8
460.53	694.4
460.921	690.4
461.334	692
461.747	685.8
462.16	694.2
462.551	704
462.964	693.6
463.377	683
463.79	691.2
464.182	704.4
464.595	685.2
465.008	697.2
465.421	695.8
465.813	691
466.226	701.4
466.64	701.4
467.053	736.4
467.445	701.4
467.859	711
468.272	697.8
468.686	720.8
469.078	708.2
469.492	693.8
469.906	701.2
470.298	707.8
470.712	700.6
471.126	722.8
471.54	694
471.933	699.2
472.347	696.8
472.761	697.4
473.175	696.8
473.568	701
473.982	695
474.397	701.4
474.79	701.2
475.204	705.4
475.619	699.8
476.033	700.2
476.426	696.6
476.841	696.6
477.256	715
477.649	685
478.064	683.6
478.479	696.2
478.872	697.8
479.287	686.4
479.702	691.6
480.118	707
480.511	689.6
480.927	702.8
481.342	675.4
481.736	699
482.151	689.2
482.566	696.8
482.96	688
483.376	694.2
483.792	680.2
484.186	682.8
484.602	689.6
485.017	690.8
485.412	686
485.827	692
486.243	687.4
486.638	704
487.054	685.6
487.47	689
487.865	679.8
488.281	679.8
488.697	687.4
489.092	685
489.508	677
489.925	686.8
490.32	670.4
490.736	680.6
491.153	670.8
491.548	676.6
491.964	689.6
492.381	663.4
492.776	683.6
493.193	675.4
493.61	677
494.006	669.4
494.422	676.8
494.84	668
495.235	668.6
495.652	678.8
496.069	666.4
496.465	666
496.883	667.2
497.3	681.8
497.696	658.2
498.113	668.4
498.509	657
498.927	649
499.344	652.4
499.741	658.4
500.158	664.2
500.576	663.8
500.973	648.6
501.39	653.8
501.787	636
502.205	651.6
502.623	653.2
503.02	641.2
503.438	635.6
503.856	652.4
504.253	649.6
504.671	642.8
505.068	635.2
505.486	639
505.905	657.8
506.302	648.6
506.72	645
507.118	628.8
507.536	632.8
507.955	630
508.352	632.2
508.771	637.8
509.169	634.6
509.587	626.8
510.006	619.2
510.404	617
510.823	617.8
511.221	620.4
511.64	622
512.038	635.4
512.457	617.6
512.877	621.2
513.275	620.2
513.694	616.2
514.092	618.2
514.512	623.4
514.91	618.8
515.33	616.2
515.749	613.2
516.148	615.2
516.568	618.2
516.966	613.4
517.386	602
517.785	611.2
518.205	598.2
518.603	610.2
519.024	606.6
519.444	608.4
519.843	605.6
520.263	609.2
520.662	605
521.082	606.4
521.481	608.6
521.902	606
522.301	604.2
522.722	597.2
523.121	597
523.542	587.8
523.963	593.8
524.362	598.2
524.783	591
525.183	587.4
525.604	600.4
526.003	583.8
526.425	587.4
526.824	589.6
527.246	594.4
527.646	595
528.067	585.8
528.467	588.2
528.888	586.2
529.289	575
529.71	581.6
530.11	580
530.532	580.8
530.932	572.2
531.354	568.4
531.755	601
532.176	589.8
532.577	570
532.999	574.6
533.4	571.6
533.822	590.4
534.223	572.2
534.645	566
535.046	572.8
535.468	575.2
535.869	591.4
536.292	572.6
536.693	595
537.115	562.8
537.516	569.2
537.939	574.4
538.34	581.4
538.742	572.8
539.165	568.8
539.566	575.6
539.989	554.6
540.391	569
540.814	573.6
541.216	570
541.639	563.4
542.041	573.6
542.464	558.8
542.866	555.6
543.268	558.4
543.691	567.8
544.093	562.8
544.517	584.2
544.919	549.8
545.343	584.6
545.745	554.6
546.147	565
546.571	549.6
546.974	555.4
547.398	549.2
547.8	560.2
548.224	550.2
548.627	551
549.03	550.4
549.454	548.4
549.857	547.4
550.281	547
550.684	549.4
551.087	548.2
551.512	557.2
551.915	553.4
552.34	548.4
552.743	546.2
553.146	551.8
553.571	547.4
553.975	558.2
554.399	536.4
554.803	580.2
555.207	543.4
555.632	546
556.036	551.4
556.461	541.6
556.865	549.6
557.268	536.2
557.694	539.6
558.098	551.2
558.502	541
558.927	545.4
559.332	544
559.736	547.8
560.162	547.2
560.566	546.2
560.992	538.2
561.396	542.4
561.801	537.4
562.227	542.6
562.631	543.6
563.036	535
563.462	536.4
563.867	544
564.272	524.8
564.698	532.2
565.103	527.8
565.508	547.2
565.935	534.2
566.34	534.4
566.745	535.8
567.172	525.6
567.577	550.4
567.982	545.2
568.409	531.4
568.815	521.8
569.22	535
569.626	531
570.053	518.4
570.459	520.6
570.865	535.2
571.292	536.6
571.698	525.8
572.104	510.6
572.531	523.2
572.937	532.6
573.343	517.4
573.75	528.6
574.177	530.6
574.583	531.8
574.99	523.6
575.396	526.2
575.824	524.8
576.231	531
576.637	520.2
577.065	543
577.472	528
577.879	526
578.286	544.6
578.714	521.8
579.121	518
579.528	521
579.935	529
580.364	514.2
580.771	508.6
581.178	513.6
581.585	533.2
582.014	522.8
582.421	524.8
582.829	519
583.236	524
583.644	511
584.073	522
584.481	520.4
584.889	522.4
585.296	530.8
585.726	523.6
586.134	511
586.542	521.6
586.95	537.8
587.358	510.4
587.787	521.8
588.196	515.8
588.604	524.6
589.012	516.2
589.421	508.4
589.851	513.6
590.259	518
590.668	516.2
591.076	547.8
591.485	506.6
591.894	517.2
592.324	526.8
592.733	525.2
593.142	509
593.551	514.4
593.96	546.2
594.369	513.8
594.8	509.4
595.209	518.6
595.618	498.6
596.028	512
596.437	507.8
596.847	517.8
597.256	521.4
597.687	520.2
598.097	509.4
598.507	505.6
598.917	518.4
599.327	517.8
599.736	519.2
600.146	518.4
600.556	510.6
600.988	523.4
601.398	509.8
601.808	521.6
602.219	501.8
602.629	520.6
603.039	515
603.45	527.8
603.86	520.2
604.271	526.2
604.703	515
605.114	510.2
605.525	511.6
605.935	518.2
606.346	529
606.757	516.6
607.168	507.2
607.579	508.6
607.99	513.6
608.402	506.8
608.813	515.4
609.224	503
609.636	503.8
610.047	505.2
610.48	511.6
610.892	520.2
611.303	519.4
611.715	508.8
612.127	506.6
612.539	507.8
612.95	514
613.362	506.4
613.774	499.4
614.186	511
614.599	510.6
615.011	515.6
615.423	510.4
615.835	496.2
616.248	502.8
616.66	515.8
617.073	504
617.485	511.8
617.898	511.8
618.311	508.2
618.723	507.2
619.136	533.4
619.549	522.4
619.962	524
620.375	511.6
620.788	513.2
621.201	501.6
621.614	514.6
622.028	509.8
622.441	515.8
622.854	514.8
623.268	509.6
623.681	513.2
624.095	510.6
624.509	512.8
624.922	510.4
625.336	499.8
625.728	515.2
626.142	513.6
626.556	521.4
626.97	505.2
627.384	503.4
627.799	508.2
628.213	523
628.627	509.8
629.041	511.2
629.456	506
629.87	512.4
630.285	517.2
630.699	512
631.093	508
631.507	509.4
631.922	506.8
632.337	520.2
632.752	499.6
633.167	508.4
633.582	503.6
633.997	502
634.412	505.8
634.806	504
635.221	500.2
635.637	511
636.052	494.6
636.468	505.4
636.883	522.4
637.299	510
637.715	501.2
638.109	506.2
638.525	503.6
638.941	510.4
639.357	509.2
639.773	515
640.189	495.8
640.584	505.4
641	510
641.416	505.2
641.832	505
642.249	506
642.665	505.4
643.06	505
643.477	510
643.894	495.2
644.31	500.6
644.727	498.2
645.123	499.2
645.54	493.6
645.957	498
646.374	514.2
646.77	500.6
647.187	529.4
647.604	500.2
648.021	493.4
648.439	493
648.835	502.8
649.252	500.6
649.67	504.6
650.088	503.2
650.484	503.2
650.902	503.2
651.32	512.6
651.738	502.6
652.134	503.6
652.552	515.8
652.971	508.4
653.389	504.4
653.786	520.2
654.204	509
654.622	493.6
655.019	505
655.438	512.6
655.857	510
656.275	507
656.673	498.6
657.091	512.6
657.51	501.8
657.908	513.4
658.327	512.2
658.746	492.4
659.144	499
659.563	509.4
659.982	506.2
660.38	494.6
660.8	503.2
661.219	503.2
661.617	506.2
662.037	499.8
662.457	509.6
662.855	494.4
663.275	529.6
663.695	504
664.094	504
664.514	496.6
664.934	483.6
665.333	508
665.753	491
666.152	489
666.572	485.6
666.993	508.6
667.392	494.4
667.812	494.8
668.212	490.8
668.632	498.2
669.053	491
669.453	501
669.874	498
670.273	504
670.694	496.8
671.116	507.2
671.515	510.4
671.937	503.8
672.337	492.6
672.758	499.2
673.158	510
673.58	492.4
673.98	497.6
674.402	507.2
674.824	495.8
675.224	496
675.646	488.2
676.047	492.2
676.469	490.2
676.869	505.4
677.292	499.4
677.693	493.8
678.115	492.8
678.516	502.6
678.939	501.6
679.34	497.8
679.762	508.4
680.164	501
680.586	498.2
680.988	500.6
681.411	517.8
681.812	501
682.236	492
682.637	488.6
683.061	492.2
683.462	502.2
683.864	498
684.288	502.8
684.69	505
685.114	514.4
685.516	507.2
685.94	490.2
686.342	503.8
686.766	492.6
687.168	498.4
687.571	506.8
687.995	496.4
688.398	492
688.822	501.8
689.225	509.8
689.628	512
690.052	501
690.456	500.2
690.88	499.2
691.284	493
691.687	507.2
692.112	498.4
692.515	487.4
692.919	498.8
693.344	503.4
693.747	497.4
694.173	494.4
694.577	510
694.98	503.2
695.406	496.8
695.81	504
696.214	504.8
696.64	500.2
697.044	507.6
697.448	502.2
697.874	495.2
698.279	498.2
698.684	492.2
699.11	490.2
699.514	498.6
699.919	497.4
700.324	493.2
700.75	498.4
701.156	499.8
701.561	510.2
701.987	501.4
702.393	500.6
702.798	503.8
703.203	500.4
703.63	493.2
704.036	498.4
704.442	499.2
704.847	495.6
705.274	494.6
705.68	503.6
706.086	502.4
706.492	490.2
706.92	495.8
707.326	505.8
707.732	488.6
708.139	487.6
708.545	489
708.973	487.2
709.38	497.8
709.786	484
710.193	508.6
710.6	496.6
711.028	491
711.435	493.6
711.842	492.6
712.249	493.6
712.656	491.6
713.064	500.8
713.492	492.2
713.9	492.4
714.307	499.8
714.715	511.6
715.123	499.6
715.53	504.6
715.938	507.4
716.367	497.4
716.775	495.6
717.184	488.6
717.592	494
718	508
718.408	531.2
718.816	540.4
719.225	504.6
719.633	498.4
720.042	494
720.472	491.2
720.881	510.8
721.29	500.6
721.699	493.6
722.108	499.6
722.517	494.2
722.926	502.2
723.335	502.2
723.744	491.8
724.154	495.4
724.563	494
724.973	495
725.382	493.4
725.792	493.4
726.202	492.2
726.612	499.8
727.022	497.2
727.432	489.2
779.813	491.4
780.223	531.2
780.634	496.2
781.044	497.6
781.454	493.8
781.865	501.2
782.276	487
782.686	506
783.097	496.2
783.508	491.6
783.919	500.6
784.33	505
784.741	505.4
785.152	496
785.563	481.6
785.974	497.4
786.386	498.4
786.776	495.8
787.188	491.8
787.599	488.2
788.011	504.4
788.423	499.4
788.835	491
789.247	487.2
789.659	493
790.071	493.4
790.483	531.8
790.874	493.8
791.286	499.2
791.699	490.2
792.111	494.6
792.524	492.8
792.937	500.4
793.349	485
793.741	489.8
794.154	494.4
794.567	505.4
794.98	492.4
795.393	487
795.785	502.2
796.198	492.2
796.612	490.2
797.026	486.8
797.439	481.2
797.831	490.8
798.245	483.4
798.659	493.4
799.073	486
799.487	488.8
799.88	490
800.294	492.4
800.708	489.8
801.123	496.2
801.516	510.4
801.93	480
802.345	487.6
802.76	494.6
803.153	499
803.568	501.8
803.983	497
804.377	495.6
804.792	480.4
805.207	483.8
805.601	497.4
806.016	516
806.432	494.6
806.826	519.6
807.242	506.4
807.658	497.4
808.052	494.6
808.468	487.4
808.884	488.4
809.279	499
809.695	497
810.111	503.6
810.506	496.6
810.922	510.8
811.339	490
811.734	501.8
812.151	489.6
812.546	480.4
812.963	483.2
813.38	489.8
813.776	489.4
814.193	503.6
814.589	486.4
815.006	483.2
815.402	484.8
815.82	484.6
816.237	494.4
816.633	491.8
817.051	482.2
817.448	490.8
817.866	481.4
818.262	506
818.68	489
819.077	478.2
819.495	488.6
819.892	524.4
820.311	488.8
820.708	492.2
821.127	494.6
821.524	494.2
821.943	490.8
822.34	503.6
822.759	495.8
823.157	491.2
823.576	496.4
823.974	495.6
824.393	545.4
824.791	483.6
825.189	483.8
825.609	486.4
826.007	488.8
826.427	480
826.826	482.2
827.246	494.2
827.644	484.8
828.043	496.6
828.463	494.6
828.862	497.6
829.261	507
829.682	483.6
830.081	498.4
830.502	482.8
830.901	496
831.301	492.4
831.722	482.6
832.121	483.4
832.521	484
832.943	492.2
833.342	493.2
833.742	493.2
834.164	486.8
834.564	485.8
834.965	488.2
835.386	484.8
835.787	495
836.188	485.6
836.588	485.6
837.01	490.8
837.411	486.8
837.812	495.4
838.213	495.6
838.636	489.8
839.037	550.2
839.438	492.2
839.84	501.2
840.263	495.6
840.664	496
841.066	490.4
841.468	489.6
841.891	488.2
842.293	505.4
842.695	495
843.098	501.6
843.5	491
843.902	498.4
844.326	502.8
844.729	493.8
845.131	501.6
845.534	491.2
845.937	500.6
846.34	506
846.764	484.4
847.167	492.4
847.571	488.4
847.974	492.8
848.377	488.2
848.781	533.2
849.184	499.6
849.588	494.4
849.992	484.6
850.396	494.4
850.821	506.4
851.225	492
851.63	495
852.034	503.4
852.438	495.6
852.843	566.4
853.247	480
853.652	488
854.057	511
854.462	495.2
854.867	495
855.272	511.2
855.677	494
856.082	480.2
856.487	487.6
