#lambda/nm	C1
208.295	463
208.67	433.2
209.045	395.8
209.419	402.6
209.794	532.8
210.169	515
210.544	614.8
210.919	531.6
211.295	519
211.67	533.6
212.045	525
212.421	519.4
212.796	558.6
213.172	518
213.547	519.6
213.923	526.6
214.299	520
214.675	527.8
215.051	529.6
215.427	531.8
215.803	544.6
216.179	528.6
216.555	528.2
216.932	538.6
217.308	527
217.684	531
218.061	529.8
218.438	531.6
218.814	526.6
219.191	537.8
219.568	526
219.945	523.8
220.322	533.4
220.699	525.2
221.076	537
221.453	528.4
221.83	522
222.208	530.6
222.585	522.8
222.962	527.6
223.34	528
223.717	525.6
224.095	519.6
224.473	526.6
224.851	521.2
225.229	519.8
225.607	544.4
225.985	516
226.363	534.2
226.741	527.8
227.119	527.8
227.497	537.4
227.876	527
228.254	537
228.633	530.4
229.011	532.2
229.39	532.4
229.769	525
230.148	538.8
230.527	551.4
230.905	529.8
231.284	534.8
231.664	518.6
232.043	545.6
232.422	536.2
232.801	521.6
233.181	536.4
233.56	528.4
233.94	523.6
234.319	520.4
234.699	526.4
235.079	557.4
235.458	561.4
235.838	537.4
236.218	521.8
236.598	520.4
236.978	518.8
237.358	520.8
237.738	522.2
238.119	534.6
238.499	525.4
238.88	530
239.26	551
239.641	517
240.021	524.4
240.402	523.2
240.783	518.4
241.163	522.4
241.544	532.4
241.925	530
242.306	537.4
242.687	529
243.069	527.4
243.45	535.6
243.831	526.2
244.212	528.2
244.594	551
244.975	532.6
245.357	531.6
245.739	525.8
246.12	521
246.502	537.6
246.884	520.2
247.266	528
247.648	536.4
248.03	545.8
248.412	530.2
248.794	528.6
249.176	528.8
249.559	532.6
249.941	521.8
250.323	519.2
250.706	528.8
251.089	527.8
251.471	529.2
251.854	524.8
252.237	527.8
252.62	535
253.002	525.4
253.385	525.6
253.769	537.6
254.152	537.6
254.535	541.2
254.918	514.8
255.301	524.2
255.685	527.2
256.068	524.8
256.452	554.8
256.835	538
257.219	528.6
257.603	533.8
257.986	523.4
258.37	533.6
258.754	521.6
259.138	536.2
259.522	535.2
259.906	530.2
260.29	535.8
260.675	525
261.059	531.2
261.443	519.4
261.828	535.2
262.212	530
262.597	521
262.981	523.8
263.366	529.8
263.751	530
264.136	525
264.521	528.4
264.906	525.6
265.291	540
265.676	528.6
266.061	538.8
266.446	540.2
266.831	533.8
267.217	540.8
267.602	538.4
267.987	532.6
268.373	526.8
268.759	535
269.144	538
269.53	529.6
269.916	520.4
270.302	522.2
270.688	528.8
271.074	535.2
271.46	539.4
271.846	550.8
272.232	527.6
272.618	523.4
273.004	527.6
273.391	534.2
273.777	541.4
274.164	531.6
274.55	539
274.937	534.8
275.324	525.4
275.71	526.8
276.097	530.6
276.484	529.8
276.871	535.4
277.258	527.8
277.645	523
278.032	530.2
278.419	527.6
278.807	528.2
279.194	520.4
279.581	525.8
279.969	534.6
280.356	529.2
280.744	531.6
281.131	546.2
281.519	536.6
281.907	532.6
282.295	521.8
282.682	540.6
283.07	529.4
283.458	535.8
283.846	534.6
284.235	531.8
284.623	529
285.011	524.6
285.399	538.4
285.788	526.2
286.176	524.8
286.565	535.8
286.953	523.6
287.342	528.4
287.731	520.2
288.119	518.8
288.508	521.4
288.897	527
289.286	524.4
289.675	529.8
290.064	536
290.453	532.4
290.821	526.2
291.21	536.2
291.599	529
291.989	523.6
292.378	530.4
292.768	540.2
293.157	530.2
293.547	533.8
293.936	530.2
294.326	527
294.716	529.6
295.106	525.2
295.496	536.6
295.886	531.4
296.276	531.8
296.666	524.4
297.056	515.6
297.446	516
297.836	538.8
298.227	524.4
298.617	525.6
299.008	529.6
299.398	521
299.789	523.4
300.179	521.8
300.57	531.2
300.961	526.4
301.352	530.2
301.742	533.8
302.133	532
302.524	525.8
302.915	527.4
303.307	520.2
303.698	542.2
304.089	532.8
304.48	533.4
304.872	531
305.263	533.2
305.655	522.2
306.046	529.4
306.438	520.2
306.829	522.8
307.221	540.8
307.613	538.8
308.005	534.2
308.397	533.4
308.789	541.2
309.181	551.8
309.573	535.4
309.965	543.4
310.357	529.2
310.749	537
311.142	512
311.534	526.4
311.926	529.2
312.319	521.2
312.711	522
313.104	537.4
313.497	517.6
313.889	557.2
314.282	539.6
314.675	551
315.068	525.4
315.461	528.8
315.854	560.2
316.247	528.2
316.64	525.8
317.033	527.2
317.405	532.4
317.798	522.4
318.192	533.2
318.585	518.2
318.979	534
319.372	526.2
319.766	526.6
320.16	534.8
320.553	537.8
320.947	548.6
321.341	523
321.735	534.2
322.129	520.4
322.523	545
322.917	516.2
323.311	533.8
323.705	521.2
324.099	533
324.494	541.6
324.888	531
325.282	532.4
325.677	542.2
326.071	528.4
326.466	543
326.861	534
327.255	538.6
327.65	540.6
328.045	550.2
328.44	533.2
328.835	532.4
329.23	520
329.625	553.8
330.02	528.6
330.415	549
330.81	523.2
331.206	532.2
331.601	526.6
331.996	540.4
332.37	546.2
332.766	524.8
333.161	546.2
333.557	524.6
333.953	524
334.348	857.2
334.744	525
335.14	530.6
335.536	519.2
335.932	537
336.328	520.4
336.724	532.4
337.12	528.2
337.516	528.2
337.913	526.4
338.309	531.8
338.705	531.6
339.102	532.4
339.498	525.8
339.895	537.6
340.291	523.4
340.688	537.2
341.085	513.4
341.481	530.6
341.878	525.4
342.275	546.4
342.672	520.4
343.069	522.8
343.466	512.4
343.842	528.8
344.239	519.2
344.636	524.4
345.033	507
345.431	523.8
345.828	529.2
346.225	517.2
346.623	546
347.02	527.2
347.418	531.2
347.816	536.2
348.213	519.8
348.611	519.2
349.009	512
349.407	534
349.805	515.6
350.203	516.2
350.601	537.2
350.999	525
351.397	567
351.795	523.4
352.193	537.8
352.57	533.2
352.969	541.2
353.367	524.6
353.766	526.8
354.164	523
354.563	528.2
354.961	532.6
355.36	527.4
355.759	520.4
356.158	512.4
356.557	519.8
356.956	520.2
357.355	511
357.754	527.2
358.153	527
358.552	542
358.951	522.2
359.35	539.2
359.75	517.8
360.149	515.8
360.527	512.8
360.926	517.2
361.326	523
361.726	528
362.125	522.6
362.525	530.8
362.925	517
363.325	523
363.724	524.8
364.124	515.2
364.524	513.6
364.924	512.2
365.324	537.8
365.725	509
366.125	526
366.525	514
366.904	525.4
367.304	504
367.705	532.8
368.105	525.2
368.506	515
368.906	514.8
369.307	522.4
369.708	529
370.108	512.8
370.509	529.4
370.91	518.6
371.311	516.6
371.712	519.2
372.113	523
372.514	511.6
372.894	513
373.295	517.2
373.696	527
374.097	528.8
374.499	542.4
374.9	520
375.301	511.8
375.703	523.2
376.105	509.6
376.506	520.4
376.908	531.6
377.309	529.4
377.711	528.6
378.113	514
378.493	520.4
378.895	518
379.297	529.2
379.699	511.6
380.102	525
380.504	524.8
380.906	515.8
381.308	544.4
381.71	513.8
382.113	524.6
382.515	515
382.918	523
383.299	521.6
383.701	526.8
384.104	527.8
384.507	506.2
384.909	509.6
385.312	513.2
385.715	510.8
386.118	519.6
386.521	508.6
386.924	522.2
387.327	509.6
387.709	513.2
388.112	502.4
388.515	510
388.918	518
389.322	524.2
389.725	520
390.129	537
390.532	520.8
390.936	514
391.339	518
391.743	530
392.125	513.8
392.529	525.8
392.933	524.8
393.337	522
393.74	510
394.144	516
394.548	509.2
394.953	518.2
395.357	525.6
395.761	510.2
396.144	511.2
396.548	518
396.952	517.4
397.357	520.2
397.761	510
398.166	517.6
398.57	520.8
398.975	505.8
399.379	519.6
399.763	558.6
400.168	518
400.572	513.8
400.977	518.6
401.382	537.2
401.787	514.6
402.192	532.4
402.597	532.8
403.002	505.8
403.386	524.6
403.791	531.2
404.197	508.6
404.602	525
405.007	517.4
405.413	514.6
405.818	522.8
406.224	513.4
406.608	513.4
407.014	512.8
407.42	526.6
407.825	516
408.231	523.6
408.637	516
409.043	533.4
409.449	515.2
409.834	515
410.24	528.8
410.646	527.4
411.052	526.6
411.458	522.2
411.865	522
412.271	525.8
412.677	521.2
413.062	520
413.469	513.6
413.875	547.6
414.282	523.8
414.689	522.6
415.095	523.6
415.502	510.2
415.888	517.8
416.294	505.4
416.701	549.4
417.108	515.6
417.515	524.4
417.923	520
418.33	536.8
418.715	527.8
419.123	518.2
419.53	522
419.937	520
420.345	528.2
420.752	529
421.16	531.2
421.546	518.2
421.953	532.4
422.361	520
422.769	516.4
423.177	518
423.585	538.8
423.992	534.6
424.379	530.2
424.787	533.6
425.195	539
425.603	518.2
426.011	530.8
426.419	538.6
426.806	524.4
427.214	522.2
427.623	530.8
428.031	529.4
428.44	517.8
428.848	525.2
429.235	529.8
429.644	523.2
430.053	524.2
430.461	536.4
430.87	542
431.279	533.6
431.666	520.4
432.075	531.4
432.484	530.8
432.893	521.2
433.302	531.6
433.711	559.8
434.099	534.6
434.508	527
434.918	524.6
435.327	552.8
435.737	546.2
436.125	541.4
436.534	552.6
436.944	550.6
437.353	557.8
437.763	578.6
438.173	557
438.561	571.2
438.971	553
439.381	569.4
439.791	577.4
440.201	564.2
440.589	589.6
440.999	607.2
441.409	604.6
441.819	600
442.23	614.8
442.619	627.8
443.029	631.4
443.439	630.2
443.85	643.6
444.26	642
444.649	640.4
445.06	644.8
445.471	651.4
445.881	655.8
446.292	670
446.682	676.6
447.092	663
447.503	711
447.914	671.8
448.325	665.4
448.715	673.2
449.126	672.4
449.537	671.4
449.948	689.4
450.338	690.8
450.75	694.8
451.161	695.2
451.572	702.8
451.984	689
452.374	683.8
452.786	697
453.197	709.2
453.609	708.4
453.999	685.6
454.411	695.2
454.823	714.4
455.235	712.2
455.647	710
456.037	719
456.449	711.8
456.862	710
457.274	736.6
457.665	716.4
458.077	723
458.489	750.4
458.902	720.4
459.293	728.8
459.705	733.6
460.118	716.8
460.53	731
460.921	740.4
461.334	739
461.747	744
462.16	744.4
462.551	763.8
462.964	750
463.377	725.2
463.79	741.6
464.182	741.6
464.595	741.8
465.008	747.2
465.421	755.6
465.813	738.8
466.226	762.4
466.64	750.8
467.053	795.8
467.445	766.2
467.859	769.4
468.272	773.6
468.686	773.8
469.078	769.8
469.492	748.4
469.906	772.2
470.298	784.8
470.712	760.8
471.126	794.2
471.54	760.4
471.933	775.2
472.347	769.4
472.761	772.4
473.175	760
473.568	776
473.982	762
474.397	762.6
474.79	775.8
475.204	777.6
475.619	757
476.033	773.6
476.426	767.2
476.841	763.6
477.256	783.6
477.649	764.8
478.064	758.6
478.479	762.6
478.872	767.8
479.287	752.6
479.702	765.8
480.118	764
480.511	760.6
480.927	774.2
481.342	762.8
481.736	765.2
482.151	761
482.566	775.8
482.96	757.6
483.376	771.4
483.792	767.4
484.186	766.8
484.602	769.2
485.017	760.2
485.412	761.4
485.827	755.4
486.243	756
486.638	768
487.054	763.2
487.47	762.2
487.865	754.6
488.281	742.8
488.697	746.4
489.092	749.6
489.508	745.6
489.925	744.2
490.32	737.6
490.736	748
491.153	737.2
491.548	740.2
491.964	743.2
492.381	737.6
492.776	736.2
493.193	736.2
493.61	735.8
494.006	732.4
494.422	731.2
494.84	732.6
495.235	735.6
495.652	730.6
496.069	734
496.465	725
496.883	729.4
497.3	734.6
497.696	715
498.113	727
498.509	706.2
498.927	708.4
499.344	712.6
499.741	712.4
500.158	708.4
500.576	720.4
500.973	710.2
501.39	707.6
501.787	696.4
502.205	698.8
502.623	696.4
503.02	684.8
503.438	691
503.856	701.6
504.253	696.8
504.671	696.8
505.068	692.2
505.486	684.8
505.905	704.4
506.302	680
506.72	688.4
507.118	676.4
507.536	685.2
507.955	685
508.352	690.8
508.771	687.8
509.169	676
509.587	676.6
510.006	672.4
510.404	671.4
510.823	663.4
511.221	666.2
511.64	668.4
512.038	666
512.457	662.4
512.877	662.8
513.275	655.2
513.694	662
514.092	651.2
514.512	655.6
514.91	664.6
515.33	661.8
515.749	650
516.148	657
516.568	653.2
516.966	650.6
517.386	637.6
517.785	642.2
518.205	646.4
518.603	636.2
519.024	649.4
519.444	639.2
519.843	645.6
520.263	642.8
520.662	636.6
521.082	642.2
521.481	642.8
521.902	640.6
522.301	631.4
522.722	634
523.121	630.4
523.542	626.8
523.963	626.8
524.362	631.4
524.783	623
525.183	625.6
525.604	618.6
526.003	619.2
526.425	622.4
526.824	619.8
527.246	620.8
527.646	628.2
528.067	618.8
528.467	615.2
528.888	620.4
529.289	606.8
529.71	608
530.11	607.2
530.532	594
530.932	593.8
531.354	599.2
531.755	627.6
532.176	605
532.577	600.2
532.999	603
533.4	600.6
533.822	604.2
534.223	596.2
534.645	598
535.046	587.2
535.468	591
535.869	596
536.292	591.8
536.693	615.6
537.115	588.4
537.516	590.4
537.939	580.2
538.34	610
538.742	600
539.165	591
539.566	586.4
539.989	579.4
540.391	585.8
540.814	585.8
541.216	590.8
541.639	588.4
542.041	596.4
542.464	574.6
542.866	585.8
543.268	581.2
543.691	579.8
544.093	584
544.517	599.8
544.919	572.2
545.343	597.8
545.745	576.6
546.147	588.2
546.571	573.8
546.974	576.4
547.398	576.8
547.8	583.8
548.224	578.8
548.627	560.8
549.03	581.4
549.454	572.8
549.857	566
550.281	572
550.684	559.4
551.087	576
551.512	568.4
551.915	574.2
552.34	567.6
552.743	572
553.146	568.2
553.571	566
553.975	584.2
554.399	556
554.803	603.8
555.207	561.8
555.632	554
556.036	570.2
556.461	555.8
556.865	561.2
557.268	560.2
557.694	552.2
558.098	568.2
558.502	558.8
558.927	551.8
559.332	554.6
559.736	558.6
560.162	554
560.566	554.8
560.992	552.2
561.396	549
561.801	548.4
562.227	549.8
562.631	549.2
563.036	544.2
563.462	552.4
563.867	543.4
564.272	538.6
564.698	552.8
565.103	535
565.508	557.6
565.935	547.2
566.34	550.8
566.745	561
567.172	545.6
567.577	561.4
567.982	555.6
568.409	550.8
568.815	534
569.22	539.8
569.626	541.6
570.053	533.8
570.459	547.4
570.865	547.8
571.292	548.6
571.698	542
572.104	528.6
572.531	532.4
572.937	550.2
573.343	541
573.75	541
574.177	536.8
574.583	543.4
574.99	536
575.396	552.6
575.824	526.8
576.231	542.6
576.637	531.4
577.065	554.2
577.472	530.8
577.879	537
578.286	547.6
578.714	523.8
579.121	535.6
579.528	533
579.935	541.4
580.364	537
580.771	520
581.178	524.4
581.585	527.2
582.014	529
582.421	525.4
582.829	531.2
583.236	535
583.644	519
584.073	526.2
584.481	531.6
584.889	519
585.296	530.4
585.726	517.8
586.134	519.4
586.542	518.8
586.95	543.2
587.358	518
587.787	523.2
588.196	524.8
588.604	519.8
589.012	527.2
589.421	513
589.851	514
590.259	525
590.668	518.6
591.076	548
591.485	511
591.894	519
592.324	533
592.733	535.8
593.142	510.8
593.551	518
593.96	519.6
594.369	518.2
594.8	513.8
595.209	514
595.618	513.2
596.028	503.8
596.437	514.2
596.847	507.2
597.256	527.8
597.687	516.8
598.097	509
598.507	509.6
598.917	514.8
599.327	522.2
599.736	521.2
600.146	518.6
600.556	516.4
600.988	524
601.398	510.6
601.808	516.2
602.219	508.6
602.629	512.4
603.039	506.8
603.45	527.8
603.86	505.6
604.271	527.8
604.703	513
605.114	512.8
605.525	519
605.935	519.2
606.346	535
606.757	520.2
607.168	512.4
607.579	502.4
607.99	517.4
608.402	518.4
608.813	510
609.224	510.2
609.636	510
610.047	507.4
610.48	515.6
610.892	518.6
611.303	524.8
611.715	514.8
612.127	504.6
612.539	510.6
612.95	511
613.362	507
613.774	496.8
614.186	505.8
614.599	507.4
615.011	522.8
615.423	509.6
615.835	514.2
616.248	510.8
616.66	517
617.073	506
617.485	510.8
617.898	523
618.311	512.4
618.723	518.2
619.136	537
619.549	521
619.962	532.6
620.375	510.6
620.788	515
621.201	512.6
621.614	516.6
622.028	505.2
622.441	514.2
622.854	535
623.268	510.8
623.681	519.4
624.095	516.6
624.509	518
624.922	514.2
625.336	502.6
625.728	510.2
626.142	523
626.556	526.6
626.97	525
627.384	507.2
627.799	514
628.213	523.2
628.627	516.6
629.041	511.6
629.456	517.2
629.87	512.2
630.285	518.6
630.699	515
631.093	515.2
631.507	513.4
631.922	513.2
632.337	526.2
632.752	505.8
633.167	516.6
633.582	507.2
633.997	508.6
634.412	501
634.806	509.2
635.221	504.4
635.637	513.4
636.052	495
636.468	508.2
636.883	525
637.299	512.2
637.715	501.8
638.109	512.8
638.525	502.4
638.941	519.6
639.357	507.6
639.773	519.2
640.189	504.6
640.584	512.2
641	512.4
641.416	502.4
641.832	511.4
642.249	504.6
642.665	509
643.06	514.2
643.477	513.6
643.894	498.4
644.31	502.2
644.727	512
645.123	501
645.54	501.6
645.957	508.2
646.374	517.2
646.77	503.2
647.187	533.2
647.604	506.4
648.021	501
648.439	499.8
648.835	507.8
649.252	504.2
649.67	502.8
650.088	506.8
650.484	509.4
650.902	518.6
651.32	511
651.738	507
652.134	505.6
652.552	511.2
652.971	506.4
653.389	498.4
653.786	518.8
654.204	511.6
654.622	496.8
655.019	502
655.438	502
655.857	505.6
656.275	507.2
656.673	499
657.091	509.6
657.51	500.6
657.908	512.6
658.327	524
658.746	490.8
659.144	503
659.563	513
659.982	504.4
660.38	493.2
660.8	502.6
661.219	519.2
661.617	508.4
662.037	495.6
662.457	511.8
662.855	485.8
663.275	531.2
663.695	502.4
664.094	505.8
664.514	500.8
664.934	500.6
665.333	511.8
665.753	500.6
666.152	500.2
666.572	503.8
666.993	514.4
667.392	507
667.812	497.4
668.212	501.4
668.632	511.6
669.053	499.2
669.453	506
669.874	509
670.273	504.4
670.694	501.2
671.116	516.6
671.515	507.4
671.937	502.8
672.337	501.6
672.758	499.4
673.158	509.4
673.58	499.6
673.98	501.4
674.402	514.4
674.824	500.6
675.224	506
675.646	497.2
676.047	498.4
676.469	508.4
676.869	505.8
677.292	508.8
677.693	496.4
678.115	494
678.516	508.6
678.939	503.8
679.34	492.6
679.762	506.2
680.164	505.8
680.586	499.6
680.988	493.2
681.411	518.4
681.812	491.4
682.236	490.2
682.637	494
683.061	489.4
683.462	494
683.864	494.6
684.288	514.8
684.69	482.4
685.114	500.2
685.516	505
685.94	488.2
686.342	494.8
686.766	494
687.168	494.8
687.571	509.4
687.995	497.4
688.398	490.4
688.822	497
689.225	501.2
689.628	509.8
690.052	501.2
690.456	505
690.88	503.6
691.284	494.8
691.687	503.6
692.112	492.6
692.515	489.6
692.919	494.6
693.344	500.6
693.747	496.6
694.173	491.8
694.577	505.6
694.98	499.6
695.406	496.4
695.81	500.8
696.214	496
696.64	494.4
697.044	498.6
697.448	508.6
697.874	503
698.279	488.6
698.684	494.2
699.11	485
699.514	490.2
699.919	497.4
700.324	485.2
700.75	493.2
701.156	496
701.561	504.6
701.987	493
702.393	515.2
702.798	502
703.203	503.8
703.63	491.8
704.036	495.8
704.442	501.4
704.847	493.6
705.274	498
705.68	497.2
706.086	503.4
706.492	503.2
706.92	500.6
707.326	499.8
707.732	491
708.139	490.2
708.545	483.6
708.973	502.2
709.38	496.8
709.786	491.8
710.193	504.2
710.6	500.8
711.028	484
711.435	489.8
711.842	501
712.249	490
712.656	500.6
713.064	504
713.492	498.2
713.9	495
714.307	503.4
714.715	491.6
715.123	494
715.53	504.8
715.938	513
716.367	502
716.775	493.4
717.184	497.8
717.592	497.8
718	509.4
718.408	527.8
718.816	527.2
719.225	497
719.633	498
720.042	491.6
720.472	495.4
720.881	512.6
721.29	501.6
721.699	487.8
722.108	500.4
722.517	494
722.926	493
723.335	498.4
723.744	489.6
724.154	494.8
724.563	499.2
724.973	494.2
725.382	496
725.792	496.2
726.202	482.4
726.612	505.2
727.022	493
727.432	485.8
779.813	483.6
780.223	535.4
780.634	484.2
781.044	490.4
781.454	489.6
781.865	509.2
782.276	486.2
782.686	505.6
783.097	496
783.508	484.4
783.919	493.4
784.33	505.4
784.741	503.8
785.152	496.4
785.563	486.6
785.974	490.6
786.386	501
786.776	494.8
787.188	496.2
787.599	488.4
788.011	494.8
788.423	490.4
788.835	495.4
789.247	492.6
789.659	491.2
790.071	490.8
790.483	522.2
790.874	492.8
791.286	500.2
791.699	490
792.111	495
792.524	490.8
792.937	494.4
793.349	486.8
793.741	492.2
794.154	482.8
794.567	504.4
794.98	489.8
795.393	479
795.785	508.4
796.198	488.8
796.612	495.6
797.026	495
797.439	476.2
797.831	488.6
798.245	486.2
798.659	493.8
799.073	500.8
799.487	493.8
799.88	495.6
800.294	491.8
800.708	498
801.123	493
801.516	506.8
801.93	484.2
802.345	482.6
802.76	496
803.153	501.4
803.568	503
803.983	499.8
804.377	493.8
804.792	477
805.207	481.4
805.601	494.6
806.016	513.8
806.432	480.2
806.826	520.6
807.242	507.8
807.658	500.2
808.052	486
808.468	488.2
808.884	484.8
809.279	495.6
809.695	494.4
810.111	511
810.506	496.6
810.922	501.4
811.339	489.2
811.734	495.8
812.151	493.6
812.546	491
812.963	487
813.38	497.8
813.776	492.2
814.193	510.8
814.589	489.6
815.006	489.2
815.402	492.2
815.82	484.6
816.237	493.2
816.633	498.4
817.051	488.2
817.448	497.4
817.866	487.6
818.262	511.4
818.68	492.6
819.077	487.2
819.495	493.6
819.892	515.2
820.311	479.6
820.708	493.8
821.127	494.2
821.524	508.4
821.943	495.8
822.34	511.2
822.759	499.6
823.157	495.8
823.576	507.2
823.974	500.2
824.393	579.6
824.791	491.8
825.189	485.2
825.609	493
826.007	495.8
826.427	481.2
826.826	495.6
827.246	489.2
827.644	481.6
828.043	498
828.463	489.2
828.862	498.4
829.261	487.4
829.682	474.8
830.081	494.6
830.502	479.6
830.901	487.4
831.301	482.6
831.722	484.4
832.121	488.6
832.521	483.2
832.943	490
833.342	496.6
833.742	483.2
834.164	486.2
834.564	486.4
834.965	489.4
835.386	485.8
835.787	489.8
836.188	490.8
836.588	495.8
837.01	500
837.411	485.8
837.812	494.4
838.213	494.8
838.636	490
839.037	542.8
839.438	493
839.84	498.8
840.263	505.4
840.664	496.6
841.066	485.8
841.468	497.4
841.891	492.4
842.293	505.4
842.695	488.4
843.098	493.8
843.5	490.4
843.902	496.4
844.326	486.2
844.729	490
845.131	494.4
845.534	489.8
845.937	500.4
846.34	505.2
846.764	487.4
847.167	497.8
847.571	478.2
847.974	489
848.377	486
848.781	527.8
849.184	507.8
849.588	493.6
849.992	483.8
850.396	494.2
850.821	502.2
851.225	500
851.63	499.8
852.034	495.8
852.438	483.4
852.843	518
853.247	489.4
853.652	484.2
854.057	512.8
854.462	486.8
854.867	496.2
855.272	519.8
855.677	496.4
856.082	490.6
856.487	487.2
856.893	493.8
