#lambda/nm	C1
208.295	462.6
208.67	430.6
209.045	394
209.419	401.8
209.794	535.2
210.169	506
210.544	611
210.919	534
211.295	519.6
211.67	538
212.045	518
212.421	522.6
212.796	557.2
213.172	517.4
213.547	524
213.923	517.2
214.299	515.6
214.675	530.8
215.051	534
215.427	541.2
215.803	538.6
216.179	521.4
216.555	520.4
216.932	534.6
217.308	529.4
217.684	528.8
218.061	536.8
218.438	529.2
218.814	521.4
219.191	540.4
219.568	522
219.945	525.6
220.322	533.4
220.699	533.2
221.076	535.2
221.453	526
221.83	522.6
222.208	527.8
222.585	518
222.962	523.2
223.34	538.4
223.717	523.6
224.095	523.2
224.473	529.6
224.851	522.2
225.229	518
225.607	540.6
225.985	527
226.363	522.2
226.741	522.2
227.119	526
227.497	534.4
227.876	516.8
228.254	530
228.633	524.4
229.011	523
229.39	526.8
229.769	525.2
230.148	539.6
230.527	539.4
230.905	530
231.284	528.6
231.664	529
232.043	532.8
232.422	533.8
232.801	531.4
233.181	535.6
233.56	525.4
233.94	525.6
234.319	517
234.699	526
235.079	551.8
235.458	557.2
235.838	540.4
236.218	522.8
236.598	512.4
236.978	527.8
237.358	526
237.738	527.2
238.119	534.2
238.499	518.2
238.88	536
239.26	546.2
239.641	519.8
240.021	529
240.402	535.4
240.783	522.6
241.163	524.4
241.544	525.6
241.925	531.6
242.306	540.4
242.687	529.8
243.069	541.2
243.45	529.4
243.831	522.4
244.212	522.4
244.594	555.2
244.975	536.8
245.357	528.4
245.739	526.6
246.12	526.6
246.502	534.2
246.884	520
247.266	525.2
247.648	525
248.03	545.4
248.412	529
248.794	532
249.176	520.6
249.559	534.8
249.941	519.2
250.323	509.6
250.706	523
251.089	525.4
251.471	527.6
251.854	530
252.237	524.8
252.62	531.2
253.002	528.8
253.385	529.4
253.769	542.8
254.152	531.4
254.535	538.2
254.918	523.4
255.301	525.8
255.685	529.2
256.068	525
256.452	548
256.835	537.8
257.219	539.6
257.603	540
257.986	520.4
258.37	533.2
258.754	511.8
259.138	532.4
259.522	535.6
259.906	528
260.29	533.2
260.675	524.8
261.059	525
261.443	519.2
261.828	527.2
262.212	530.4
262.597	519.8
262.981	522.6
263.366	530
263.751	534.4
264.136	525
264.521	530
264.906	515.6
265.291	535
265.676	526.2
266.061	530.6
266.446	540.8
266.831	532.6
267.217	547.6
267.602	529
267.987	536.6
268.373	525.8
268.759	542
269.144	525.2
269.53	528.4
269.916	522.2
270.302	523.8
270.688	535.8
271.074	533.8
271.46	538.4
271.846	555.4
272.232	527.4
272.618	518.4
273.004	521.6
273.391	538.2
273.777	538.2
274.164	524.4
274.55	536.8
274.937	525
275.324	521
275.71	528.4
276.097	535.4
276.484	519.4
276.871	525
277.258	534
277.645	513.2
278.032	525.8
278.419	523.8
278.807	537
279.194	529.2
279.581	521
279.969	531
280.356	532.6
280.744	525
281.131	549.6
281.519	537.8
281.907	528.2
282.295	522.6
282.682	539.2
283.07	533.4
283.458	539.8
283.846	535
284.235	538.6
284.623	538.8
285.011	521.4
285.399	530.8
285.788	527.4
286.176	518.8
286.565	540.4
286.953	518.6
287.342	532.4
287.731	520
288.119	522.2
288.508	528.4
288.897	530.8
289.286	516.2
289.675	531
290.064	536.4
290.453	527.4
290.821	525.2
291.21	531.6
291.599	531.4
291.989	529.4
292.378	533.4
292.768	542.4
293.157	530.8
293.547	535
293.936	524.6
294.326	526.2
294.716	529.8
295.106	520.6
295.496	527.4
295.886	538.6
296.276	536.6
296.666	522.8
297.056	531
297.446	515.6
297.836	540.6
298.227	532
298.617	532.6
299.008	536.6
299.398	524.6
299.789	520
300.179	526.8
300.57	538.2
300.961	530
301.352	531.8
301.742	533.4
302.133	529.2
302.524	529
302.915	527.2
303.307	522
303.698	533.2
304.089	532
304.48	524.6
304.872	533.6
305.263	528.4
305.655	521
306.046	543
306.438	530.4
306.829	526.4
307.221	541.2
307.613	531.6
308.005	535.8
308.397	544
308.789	550.6
309.181	543.8
309.573	545.8
309.965	536.4
310.357	520.2
310.749	538
311.142	519
311.534	526.6
311.926	531.2
312.319	530.2
312.711	525.4
313.104	536.4
313.497	526.8
313.889	556.8
314.282	546.6
314.675	551
315.068	525.4
315.461	530.6
315.854	549.8
316.247	529.4
316.64	529.4
317.033	529.2
317.405	530.4
317.798	522.8
318.192	533.6
318.585	518.6
318.979	538
319.372	516.8
319.766	518.2
320.16	526.8
320.553	537.8
320.947	537.2
321.341	528.6
321.735	530
322.129	511.4
322.523	548.4
322.917	521
323.311	542
323.705	530.8
324.099	533
324.494	538.8
324.888	530.4
325.282	528.2
325.677	536
326.071	524.2
326.466	538.4
326.861	532.2
327.255	532.4
327.65	540
328.045	537.4
328.44	530
328.835	520.2
329.23	517.2
329.625	544
330.02	529.4
330.415	539.8
330.81	523.2
331.206	527
331.601	525.2
331.996	531.8
332.37	534.4
332.766	526.2
333.161	548.8
333.557	536
333.953	531
334.348	777.2
334.744	536.4
335.14	527.4
335.536	522
335.932	536
336.328	534.8
336.724	541
337.12	527.8
337.516	536
337.913	535
338.309	539.6
338.705	531.8
339.102	537
339.498	532.2
339.895	539.6
340.291	528.8
340.688	526.8
341.085	520.2
341.481	527
341.878	523.6
342.275	533.8
342.672	519.2
343.069	517.2
343.466	515.6
343.842	523.4
344.239	519.2
344.636	528.6
345.033	516
345.431	517.4
345.828	528.2
346.225	513.2
346.623	557
347.02	529.4
347.418	521.8
347.816	537.8
348.213	514.6
348.611	536.4
349.009	520.4
349.407	532.8
349.805	519.6
350.203	518.2
350.601	536.4
350.999	516.6
351.397	569.8
351.795	521
352.193	534.6
352.57	528
352.969	523.8
353.367	518.6
353.766	520.2
354.164	522.6
354.563	533.4
354.961	526
355.36	526.4
355.759	524
356.158	523.2
356.557	520.2
356.956	519
357.355	516.4
357.754	529.8
358.153	525.2
358.552	547
358.951	522.6
359.35	531
359.75	522
360.149	520.4
360.527	515.2
360.926	513.6
361.326	521.8
361.726	522.6
362.125	522
362.525	527.4
362.925	523
363.325	523.2
363.724	520
364.124	516.6
364.524	519
364.924	517
365.324	527
365.725	511.8
366.125	532.4
366.525	527.6
366.904	519.2
367.304	508.2
367.705	531.8
368.105	528.8
368.506	512.6
368.906	520
369.307	520.2
369.708	525.2
370.108	503
370.509	528.2
370.91	520.8
371.311	522.2
371.712	517
372.113	520.4
372.514	509.4
372.894	520.6
373.295	510.4
373.696	522.2
374.097	524.6
374.499	537.6
374.9	520.2
375.301	509.2
375.703	522.4
376.105	521.4
376.506	521.4
376.908	522.8
377.309	520.6
377.711	515.8
378.113	516.6
378.493	526.4
378.895	517.4
379.297	529.8
379.699	509.8
380.102	523.2
380.504	520
380.906	517.2
381.308	538.2
381.71	517.8
382.113	525
382.515	519
382.918	526.6
383.299	525
383.701	526.4
384.104	529.2
384.507	509
384.909	515.6
385.312	510.4
385.715	513.6
386.118	526.8
386.521	506.8
386.924	526.8
387.327	518.4
387.709	507.8
388.112	508.4
388.515	522.8
388.918	516.6
389.322	521.6
389.725	511.2
390.129	533.4
390.532	520.2
390.936	523.4
391.339	507.2
391.743	527.4
392.125	510.6
392.529	526
392.933	537
393.337	518.8
393.74	523.6
394.144	523.4
394.548	511.8
394.953	523.8
395.357	532.4
395.761	516.2
396.144	521.6
396.548	516.2
396.952	528.8
397.357	526
397.761	516.6
398.166	522.4
398.57	521.2
398.975	511
399.379	519.8
399.763	553.2
400.168	512.6
400.572	525.6
400.977	518.4
401.382	537
401.787	526.6
402.192	528.2
402.597	531.8
403.002	508.4
403.386	533.2
403.791	530.8
404.197	512.8
404.602	518.6
405.007	517.6
405.413	516.6
405.818	517.6
406.224	511.2
406.608	518.6
407.014	512.2
407.42	531.8
407.825	516
408.231	534.2
408.637	528.4
409.043	535.6
409.449	517.4
409.834	513
410.24	515.6
410.646	519.8
411.052	521.6
411.458	518.2
411.865	526
412.271	524.6
412.677	518
413.062	530.8
413.469	509.8
413.875	531.4
414.282	530.8
414.689	525.2
415.095	530.8
415.502	519.4
415.888	521
416.294	506.4
416.701	555.4
417.108	517.6
417.515	527.2
417.923	523.2
418.33	533.8
418.715	530.6
419.123	515
419.53	519.6
419.937	520
420.345	528
420.752	517.8
421.16	531.6
421.546	512.4
421.953	525.4
422.361	510.6
422.769	516.2
423.177	511
423.585	539.8
423.992	536.6
424.379	529.4
424.787	528.2
425.195	534.2
425.603	525.2
426.011	535
426.419	533.8
426.806	519.4
427.214	526
427.623	530.4
428.031	537.4
428.44	530.2
428.848	529
429.235	530.4
429.644	521.4
430.053	518.8
430.461	528.8
430.87	541.2
431.279	529.8
431.666	516.4
432.075	522.8
432.484	535.8
432.893	525.2
433.302	530.4
433.711	559
434.099	532.4
434.508	529.6
434.918	519.2
435.327	543.8
435.737	528.6
436.125	536.6
436.534	547.2
436.944	548.6
437.353	547.6
437.763	569.6
438.173	549
438.561	567.4
438.971	549.6
439.381	568.4
439.791	577.2
440.201	568.4
440.589	586
440.999	594.8
441.409	601.4
441.819	592.6
442.23	605.4
442.619	611.4
443.029	612.8
443.439	632.4
443.85	634
444.26	642.4
444.649	631
445.06	636.8
445.471	648
445.881	651.6
446.292	662.6
446.682	673.6
447.092	651.4
447.503	704.4
447.914	676.4
448.325	674.2
448.715	683.2
449.126	678.2
449.537	690.4
449.948	686.2
450.338	691.2
450.75	696.4
451.161	693.8
451.572	702.2
451.984	690.4
452.374	682.6
452.786	708.8
453.197	709.6
453.609	721.4
453.999	698.2
454.411	706.8
454.823	719
455.235	715.4
455.647	713.8
456.037	727.6
456.449	715.6
456.862	723.8
457.274	726.2
457.665	714
458.077	731.2
458.489	752.2
458.902	727
459.293	735.6
459.705	741
460.118	733.8
460.53	747.8
460.921	744.4
461.334	742.6
461.747	743.2
462.16	757.6
462.551	774
462.964	772
463.377	739.6
463.79	754.4
464.182	772.2
464.595	750.6
465.008	770.6
465.421	771.2
465.813	767.4
466.226	773
466.64	760.2
467.053	801.2
467.445	786.2
467.859	794.2
468.272	786.4
468.686	800.8
469.078	780.4
469.492	774.6
469.906	775.8
470.298	802.6
470.712	788.2
471.126	811.6
471.54	780.2
471.933	786.4
472.347	787.2
472.761	790.4
473.175	793.2
473.568	788.2
473.982	791
474.397	796.8
474.79	787.4
475.204	796
475.619	793.8
476.033	797
476.426	801.2
476.841	786.8
477.256	809.4
477.649	794.2
478.064	788.6
478.479	801.6
478.872	784.6
479.287	776
479.702	782
480.118	795
480.511	793
480.927	792.2
481.342	795.4
481.736	786.8
482.151	784.8
482.566	793
482.96	783.6
483.376	796.2
483.792	773.8
484.186	795.2
484.602	780.4
485.017	788.2
485.412	776.8
485.827	788
486.243	784.4
486.638	805.8
487.054	790.2
487.47	790
487.865	790.4
488.281	774.6
488.697	773.8
489.092	779.8
489.508	764
489.925	786.6
490.32	767.4
490.736	775
491.153	769.8
491.548	768.6
491.964	784.8
492.381	752.2
492.776	777.2
493.193	765.2
493.61	763.8
494.006	759.8
494.422	772.2
494.84	755.8
495.235	764
495.652	751
496.069	751.2
496.465	738.2
496.883	748.2
497.3	769.4
497.696	736.6
498.113	747
498.509	727.2
498.927	729.4
499.344	730
499.741	732.4
500.158	739.4
500.576	741.8
500.973	730.2
501.39	715.2
501.787	725.6
502.205	716.4
502.623	714.4
503.02	708.6
503.438	720
503.856	715
504.253	700.8
504.671	719
505.068	703.6
505.486	710.6
505.905	725.6
506.302	708
506.72	715
507.118	693.8
507.536	701
507.955	698.6
508.352	703.8
508.771	704.6
509.169	697.8
509.587	689
510.006	685.2
510.404	685.6
510.823	687.4
511.221	690.4
511.64	667.8
512.038	701
512.457	677.2
512.877	677.6
513.275	670
513.694	671
514.092	667.4
514.512	675.8
514.91	674.4
515.33	672.4
515.749	679.6
516.148	668.2
516.568	661.6
516.966	658.6
517.386	654.4
517.785	665
518.205	652.6
518.603	648.2
519.024	641.8
519.444	662.6
519.843	660.4
520.263	660.8
520.662	649.4
521.082	663
521.481	656.4
521.902	648
522.301	652.2
522.722	642.2
523.121	650
523.542	633.6
523.963	637.4
524.362	639.2
524.783	632.6
525.183	628.6
525.604	634.4
526.003	638.6
526.425	626.4
526.824	639.2
527.246	636.6
527.646	630.8
528.067	622
528.467	630.4
528.888	634.6
529.289	617.4
529.71	623.6
530.11	613.8
530.532	611.6
530.932	612.8
531.354	612.8
531.755	645.4
532.176	613.4
532.577	607.6
532.999	608
533.4	607.4
533.822	616.6
534.223	608
534.645	607.4
535.046	601.8
535.468	601.4
535.869	623.8
536.292	593.6
536.693	625.8
537.115	605
537.516	599.6
537.939	595
538.34	608.2
538.742	609
539.165	596.2
539.566	596.6
539.989	597.6
540.391	588.8
540.814	597
541.216	596.6
541.639	599.2
542.041	602.8
542.464	591.6
542.866	591.6
543.268	577.8
543.691	588.2
544.093	596.4
544.517	611
544.919	585
545.343	608.6
545.745	585.2
546.147	590.2
546.571	581.2
546.974	579
547.398	577.8
547.8	592.6
548.224	577.4
548.627	577.6
549.03	591
549.454	575.6
549.857	570.2
550.281	575.4
550.684	579.2
551.087	582.4
551.512	576.4
551.915	586
552.34	572.4
552.743	567.6
553.146	574.4
553.571	574.4
553.975	584.8
554.399	562.8
554.803	607
555.207	563.8
555.632	563.8
556.036	565
556.461	555.6
556.865	564.6
557.268	570.4
557.694	560.4
558.098	573
558.502	574.4
558.927	564.6
559.332	563
559.736	555
560.162	564.8
560.566	551.2
560.992	569.6
561.396	562.4
561.801	558
562.227	553
562.631	555.4
563.036	549.6
563.462	560.8
563.867	549.8
564.272	546
564.698	557.4
565.103	539.2
565.508	560.2
565.935	548.4
566.34	552
566.745	553.6
567.172	538
567.577	558.8
567.982	553.6
568.409	554.2
568.815	541.8
569.22	549.4
569.626	554.8
570.053	533
570.459	540.6
570.865	549.6
571.292	545.8
571.698	538.4
572.104	536
572.531	545.6
572.937	551.4
573.343	541.2
573.75	545.4
574.177	538.4
574.583	544.8
574.99	535.8
575.396	543
575.824	541.4
576.231	542
576.637	534.8
577.065	559.8
577.472	532.2
577.879	536
578.286	543.4
578.714	526.6
579.121	535.4
579.528	539.4
579.935	545
580.364	532
580.771	526
581.178	530.6
581.585	539
582.014	539.8
582.421	538.2
582.829	534.2
583.236	542.8
583.644	530.4
584.073	534.2
584.481	527.2
584.889	537.6
585.296	537.4
585.726	539.4
586.134	522.4
586.542	534.2
586.95	544.2
587.358	517.4
587.787	534
588.196	521.4
588.604	519.6
589.012	528.2
589.421	520.4
589.851	518.4
590.259	527.8
590.668	521
591.076	555.8
591.485	513.8
591.894	529
592.324	536.6
592.733	536.4
593.142	520.4
593.551	524
593.96	525.4
594.369	513.8
594.8	516.2
595.209	522.8
595.618	507.2
596.028	520.6
596.437	507.6
596.847	519.8
597.256	528.8
597.687	523.8
598.097	514
598.507	509
598.917	524.4
599.327	518
599.736	526.4
600.146	529.4
600.556	523.2
600.988	529
601.398	521.6
601.808	525.6
602.219	511.4
602.629	517.8
603.039	521.6
603.45	534
603.86	512
604.271	526
604.703	509.6
605.114	511.4
605.525	518
605.935	515.6
606.346	526
606.757	510.4
607.168	510.2
607.579	503.8
607.99	521.2
608.402	509.8
608.813	518.4
609.224	510.4
609.636	502.8
610.047	508
610.48	518.6
610.892	511
611.303	520.6
611.715	512.8
612.127	507.2
612.539	507.6
612.95	510.4
613.362	503.8
613.774	509.2
614.186	505.2
614.599	505.4
615.011	519.2
615.423	513.8
615.835	511
616.248	503.8
616.66	515
617.073	507.6
617.485	510.8
617.898	519.4
618.311	515.2
618.723	520.4
619.136	536.2
619.549	523
619.962	529.2
620.375	504.2
620.788	514.2
621.201	504.2
621.614	524.6
622.028	516.8
622.441	518.8
622.854	525.4
623.268	515.2
623.681	511.2
624.095	516.4
624.509	525.2
624.922	515.4
625.336	500.6
625.728	514.4
626.142	523.8
626.556	534.6
626.97	520
627.384	506.6
627.799	513.2
628.213	521.2
628.627	507.4
629.041	507.6
629.456	524
629.87	511.4
630.285	511.8
630.699	516
631.093	513.8
631.507	515.6
631.922	516.8
632.337	521.8
632.752	502.8
633.167	508.2
633.582	501.2
633.997	515.2
634.412	499.4
634.806	506.8
635.221	497.2
635.637	516.6
636.052	491.4
636.468	512.8
636.883	523.4
637.299	500.8
637.715	498.2
638.109	504.8
638.525	502.6
638.941	521
639.357	513.8
639.773	510
640.189	497.4
640.584	506.8
641	504
641.416	498.6
641.832	505
642.249	503.6
642.665	502.4
643.06	515
643.477	519
643.894	510
644.31	512
644.727	505
645.123	499.2
645.54	500.4
645.957	509.2
646.374	516.8
646.77	510.4
647.187	531.2
647.604	502.4
648.021	492
648.439	504.8
648.835	507.8
649.252	507.2
649.67	500.8
650.088	498.6
650.484	501.2
650.902	507.4
651.32	517
651.738	503.2
652.134	503.2
652.552	520.6
652.971	512
653.389	505.2
653.786	517
654.204	506.2
654.622	497.8
655.019	505.4
655.438	516.4
655.857	503.4
656.275	504.6
656.673	507.6
657.091	506.8
657.51	500.8
657.908	512.8
658.327	519.8
658.746	500.6
659.144	501.2
659.563	515.2
659.982	505
660.38	494
660.8	501.2
661.219	516.6
661.617	507.6
662.037	498.2
662.457	508.2
662.855	488.6
663.275	531.8
663.695	502.2
664.094	505
664.514	499.2
664.934	497
665.333	501.4
665.753	500.8
666.152	500.2
666.572	494
666.993	513.2
667.392	496
667.812	501.8
668.212	501.2
668.632	505
669.053	496.6
669.453	503.2
669.874	503.6
670.273	502
670.694	492.8
671.116	507.4
671.515	510.2
671.937	505.2
672.337	501.8
672.758	497.4
673.158	505.8
673.58	494.8
673.98	506.4
674.402	506.8
674.824	503.4
675.224	504
675.646	491.2
676.047	496.4
676.469	501
676.869	501.2
677.292	498
677.693	498.8
678.115	498.8
678.516	509.2
678.939	504.6
679.34	501.2
679.762	507.2
680.164	500.6
680.586	487.6
680.988	504.2
681.411	523.8
681.812	500.8
682.236	490.4
682.637	489.8
683.061	491.6
683.462	501.6
683.864	494.6
684.288	507.4
684.69	495.4
685.114	503.4
685.516	513.8
685.94	489.2
686.342	509
686.766	495.8
687.168	499.4
687.571	516.6
687.995	497.4
688.398	492.6
688.822	499.6
689.225	508.8
689.628	509
690.052	493.2
690.456	500.2
690.88	509
691.284	486
691.687	504
692.112	488.4
692.515	492.2
692.919	495.8
693.344	502.6
693.747	499.6
694.173	498
694.577	506.6
694.98	496.8
695.406	496
695.81	503
696.214	505.8
696.64	498.2
697.044	506.4
697.448	507
697.874	502.4
698.279	501.8
698.684	492.8
699.11	492.8
699.514	491
699.919	489.4
700.324	492
700.75	488.8
701.156	496.4
701.561	503.8
701.987	499.2
702.393	506.2
702.798	508.2
703.203	491.8
703.63	502.8
704.036	490.6
704.442	490.2
704.847	490.2
705.274	492.2
705.68	499.2
706.086	507.2
706.492	487.2
706.92	493.8
707.326	500.4
707.732	489.8
708.139	502
708.545	493.6
708.973	494.6
709.38	491.4
709.786	487
710.193	505.6
710.6	498.6
711.028	483
711.435	490.4
711.842	501.6
712.249	495
712.656	496.6
713.064	510.6
713.492	490.6
713.9	492.6
714.307	497.4
714.715	493
715.123	501.2
715.53	500.2
715.938	500.8
716.367	498.6
716.775	501.4
717.184	493.8
717.592	497.2
718	507.6
718.408	522.6
718.816	541.2
719.225	503
719.633	494.6
720.042	479.6
720.472	505.6
720.881	515.6
721.29	498.4
721.699	497
722.108	503.2
722.517	500.4
722.926	493.8
723.335	506
723.744	507.2
724.154	497.4
724.563	497
724.973	502.6
725.382	497.4
725.792	502.2
726.202	493.4
726.612	506
727.022	494
727.432	489.8
779.813	491
780.223	529
780.634	492.4
781.044	486.6
781.454	495.4
781.865	504.8
782.276	481
782.686	496
783.097	491.8
783.508	499
783.919	492.8
784.33	493.4
784.741	493.6
785.152	493.6
785.563	477.8
785.974	492
786.386	499.4
786.776	494
787.188	495
787.599	478.2
788.011	502.4
788.423	493.8
788.835	492.2
789.247	484.2
789.659	489.6
790.071	493.8
790.483	521.2
790.874	496.6
791.286	497.6
791.699	494.2
792.111	496.2
792.524	500.6
792.937	489.6
793.349	487.8
793.741	486.8
794.154	486.4
794.567	507.8
794.98	492.4
795.393	493.6
795.785	504.2
796.198	495.6
796.612	499.6
797.026	492.8
797.439	475.4
797.831	495.6
798.245	491.6
798.659	497.6
799.073	498.2
799.487	483.8
799.88	492
800.294	496.6
800.708	495.8
801.123	495.4
801.516	510.8
801.93	489.8
802.345	481.8
802.76	496
803.153	507.2
803.568	497.2
803.983	498.4
804.377	498
804.792	480
805.207	492
805.601	496
806.016	521
806.432	484.6
806.826	519.8
807.242	509.2
807.658	492.6
808.052	488
808.468	496.6
808.884	492
809.279	488.8
809.695	507.4
810.111	503.4
810.506	493.6
810.922	503.4
811.339	492
811.734	488.2
812.151	485
812.546	489
812.963	488.2
813.38	490
813.776	489.8
814.193	492.8
814.589	488.4
815.006	492
815.402	492
815.82	488
816.237	496.2
816.633	493.4
817.051	490
817.448	494.4
817.866	489
818.262	505
818.68	488.8
819.077	496.8
819.495	497
819.892	524.8
820.311	485.2
820.708	488.6
821.127	488
821.524	505.4
821.943	489.4
822.34	504.4
822.759	496.2
823.157	493.8
823.576	503
823.974	496.2
824.393	578.8
824.791	491.6
825.189	484.4
825.609	486.8
826.007	491.8
826.427	480.4
826.826	496.8
827.246	492.4
827.644	480
828.043	498
828.463	487
828.862	495.6
829.261	498.8
829.682	490.4
830.081	492.2
830.502	481
830.901	491.2
831.301	492.8
831.722	486.2
832.121	497.8
832.521	490.2
832.943	489.4
833.342	493
833.742	485.8
834.164	493.2
834.564	484.2
834.965	489.4
835.386	488.6
835.787	495
836.188	488
836.588	491
837.01	485
837.411	484
837.812	498.2
838.213	500.6
838.636	483.4
839.037	547.2
839.438	490.6
839.84	493.4
840.263	489.8
840.664	495.4
841.066	486.4
841.468	491.8
841.891	484.4
842.293	503.2
842.695	499.2
843.098	504.8
843.5	489.4
843.902	486
844.326	495.2
844.729	498.8
845.131	503.6
845.534	490.4
845.937	503.2
846.34	506.2
846.764	491.8
847.167	488.6
847.571	487.2
847.974	499.2
848.377	489.8
848.781	529.2
849.184	501
849.588	481.6
849.992	488.2
850.396	486
850.821	502
851.225	494.6
851.63	487.4
852.034	503.4
852.438	488.8
852.843	553.2
853.247	483.2
853.652	489
854.057	508.8
854.462	500.2
854.867	488.8
855.272	516.6
855.677	489
856.082	486
856.487	486.2
856.893	500
857.298	492
857.704	484.8
