#lambda/nm	C1
208.295	466.4
208.67	432.4
209.045	395.2
209.419	399.2
209.794	536.4
210.169	518.4
210.544	617.6
210.919	527.8
211.295	522
211.67	525.4
212.045	514.6
212.421	517.8
212.796	549.4
213.172	518.4
213.547	527.4
213.923	521.8
214.299	520.4
214.675	535
215.051	533.6
215.427	540.6
215.803	542.8
216.179	533.4
216.555	519.8
216.932	533.8
217.308	533.2
217.684	525.2
218.061	529.8
218.438	529.2
218.814	526.4
219.191	533.6
219.568	522.8
219.945	524.8
220.322	533.4
220.699	523.8
221.076	532
221.453	530.8
221.83	530.4
222.208	530.6
222.585	529
222.962	531.4
223.34	532.8
223.717	523.8
224.095	527
224.473	536.2
224.851	528.2
225.229	522.8
225.607	546.4
225.985	513.6
226.363	532.8
226.741	527.4
227.119	535.8
227.497	546.6
227.876	524.8
228.254	540.8
228.633	534.8
229.011	534
229.39	532.4
229.769	532.4
230.148	531
230.527	545.6
230.905	526.2
231.284	536.8
231.664	533.4
232.043	535.2
232.422	532
232.801	521.2
233.181	527.6
233.56	528.6
233.94	532.6
234.319	520.8
234.699	526
235.079	552.2
235.458	560.6
235.838	536.8
236.218	526.6
236.598	517.8
236.978	518
237.358	518.6
237.738	532.2
238.119	523.8
238.499	514.2
238.88	520.6
239.26	540.2
239.641	524.4
240.021	525.2
240.402	535.2
240.783	521.6
241.163	529.6
241.544	529
241.925	531
242.306	545.4
242.687	526.8
243.069	525.4
243.45	528.6
243.831	532.2
244.212	517.6
244.594	558.8
244.975	540.8
245.357	534.6
245.739	518
246.12	524.8
246.502	530.4
246.884	526.8
247.266	528
247.648	527
248.03	544.2
248.412	531.4
248.794	534.8
249.176	530
249.559	536.4
249.941	516.8
250.323	518.4
250.706	524.2
251.089	529
251.471	533.4
251.854	528.4
252.237	530.2
252.62	541.6
253.002	530.4
253.385	531.6
253.769	537
254.152	525.4
254.535	520
254.918	524.8
255.301	532.8
255.685	536.2
256.068	526.2
256.452	546.4
256.835	540
257.219	537.8
257.603	536
257.986	525.4
258.37	537.6
258.754	517.6
259.138	526.6
259.522	535.8
259.906	533
260.29	529.4
260.675	528.4
261.059	531.2
261.443	517.8
261.828	534.4
262.212	527
262.597	522.8
262.981	522.4
263.366	529.2
263.751	528.8
264.136	511.2
264.521	524
264.906	521.4
265.291	532.4
265.676	519.6
266.061	530.8
266.446	544.4
266.831	527.2
267.217	542.8
267.602	528.2
267.987	526.4
268.373	521.4
268.759	537.8
269.144	538.2
269.53	522.2
269.916	523.2
270.302	528.2
270.688	536.4
271.074	529.6
271.46	532.8
271.846	553.2
272.232	532.8
272.618	521
273.004	520.6
273.391	533.2
273.777	540.4
274.164	530.2
274.55	540.6
274.937	530.4
275.324	528.8
275.71	531.8
276.097	537.6
276.484	520.8
276.871	522.2
277.258	529
277.645	518.4
278.032	524.8
278.419	532.8
278.807	528.4
279.194	519.8
279.581	516.4
279.969	531.4
280.356	530.2
280.744	530.4
281.131	553.2
281.519	534
281.907	523.6
282.295	527.6
282.682	541.4
283.07	532
283.458	530.6
283.846	537.2
284.235	534.4
284.623	528.6
285.011	519.8
285.399	533
285.788	530.6
286.176	526.2
286.565	537.4
286.953	519.6
287.342	528.6
287.731	525
288.119	517.8
288.508	528.6
288.897	524
289.286	518.6
289.675	529.6
290.064	535.4
290.453	522.8
290.821	528.6
291.21	538.6
291.599	525
291.989	532.2
292.378	536.2
292.768	540.8
293.157	530
293.547	535.6
293.936	526.6
294.326	534
294.716	535.8
295.106	524
295.496	533.6
295.886	531.6
296.276	534.8
296.666	520.6
297.056	524.4
297.446	521.2
297.836	546.8
298.227	523.8
298.617	527.8
299.008	533
299.398	523.6
299.789	518.8
300.179	532.4
300.57	534.6
300.961	535.4
301.352	517.6
301.742	535.8
302.133	529.8
302.524	533.6
302.915	532.4
303.307	517.2
303.698	531.8
304.089	535.4
304.48	523
304.872	533.2
305.263	530.8
305.655	522
306.046	527.2
306.438	524.8
306.829	527
307.221	534.4
307.613	530.6
308.005	532
308.397	540.2
308.789	549
309.181	550.6
309.573	539.2
309.965	540.4
310.357	526.4
310.749	536.4
311.142	525.2
311.534	521.6
311.926	528.2
312.319	524
312.711	520.6
313.104	537.6
313.497	528
313.889	559
314.282	538.4
314.675	543
315.068	527.6
315.461	533
315.854	554.2
316.247	535.2
316.64	524.8
317.033	530.6
317.405	529.2
317.798	531
318.192	532.6
318.585	524
318.979	537.8
319.372	524.8
319.766	531
320.16	535.6
320.553	534.8
320.947	543
321.341	522.6
321.735	539.4
322.129	517.8
322.523	548.8
322.917	524.8
323.311	539.4
323.705	521.8
324.099	529.8
324.494	538.4
324.888	539.4
325.282	527.6
325.677	543.2
326.071	527
326.466	540.2
326.861	534.8
327.255	539
327.65	538.6
328.045	542.8
328.44	537
328.835	538.4
329.23	538.8
329.625	542.2
330.02	523
330.415	547.2
330.81	537.6
331.206	525
331.601	528.2
331.996	533
332.37	544.6
332.766	520.8
333.161	551.2
333.557	527
333.953	529.4
334.348	780
334.744	532.6
335.14	528.4
335.536	525.6
335.932	537
336.328	524.6
336.724	532.8
337.12	536.8
337.516	532.8
337.913	536
338.309	531.8
338.705	521
339.102	544.2
339.498	518.4
339.895	536.6
340.291	522.8
340.688	541.4
341.085	521.6
341.481	522.2
341.878	527.2
342.275	539
342.672	520.6
343.069	525.2
343.466	516.4
343.842	527.2
344.239	520
344.636	519.6
345.033	521.8
345.431	524
345.828	520.8
346.225	517.8
346.623	549.8
347.02	528.8
347.418	529.2
347.816	534.8
348.213	527.6
348.611	524.2
349.009	521
349.407	536.4
349.805	523.8
350.203	517.4
350.601	533.2
350.999	519.2
351.397	564.8
351.795	527.4
352.193	537.2
352.57	530.4
352.969	544.8
353.367	519.2
353.766	520.6
354.164	524.4
354.563	534.8
354.961	520.6
355.36	523
355.759	526.6
356.158	515
356.557	518
356.956	526
357.355	515
357.754	518
358.153	524
358.552	534
358.951	514.4
359.35	538
359.75	521.2
360.149	520
360.527	516
360.926	522.6
361.326	522.6
361.726	526
362.125	516.4
362.525	529.6
362.925	519
363.325	532
363.724	525
364.124	520.6
364.524	515.2
364.924	522.2
365.324	529.4
365.725	513.6
366.125	518.4
366.525	519.2
366.904	511.8
367.304	505.6
367.705	531.6
368.105	529.2
368.506	516.6
368.906	511
369.307	517.2
369.708	523.2
370.108	509
370.509	526
370.91	514.6
371.311	521.2
371.712	522.6
372.113	521.6
372.514	509
372.894	522.4
373.295	523.2
373.696	523.2
374.097	531.2
374.499	546.4
374.9	517.8
375.301	513.8
375.703	518
376.105	512.4
376.506	527
376.908	524.2
377.309	524.8
377.711	518.4
378.113	523.4
378.493	524
378.895	521.4
379.297	527.8
379.699	509
380.102	528.6
380.504	520
380.906	512.6
381.308	539
381.71	510.4
382.113	528.2
382.515	515.4
382.918	527.6
383.299	521.2
383.701	530.8
384.104	518.2
384.507	510.6
384.909	521.4
385.312	505
385.715	515.2
386.118	515.8
386.521	514.6
386.924	529.2
387.327	512.6
387.709	513.2
388.112	512.6
388.515	522.2
388.918	506.8
389.322	520.8
389.725	514.2
390.129	537.8
390.532	526.8
390.936	526.8
391.339	508
391.743	520
392.125	523.4
392.529	524.6
392.933	531.6
393.337	518.2
393.74	516.4
394.144	522.2
394.548	514
394.953	517.2
395.357	529.4
395.761	519.6
396.144	521.2
396.548	518.2
396.952	512.8
397.357	525.8
397.761	517
398.166	512.6
398.57	519
398.975	509.4
399.379	519.8
399.763	561.6
400.168	525
400.572	515.2
400.977	516.2
401.382	531.2
401.787	515.2
402.192	531.8
402.597	521.4
403.002	511.8
403.386	533.4
403.791	534.8
404.197	521.4
404.602	525
405.007	515.6
405.413	512.8
405.818	512.2
406.224	520.2
406.608	509.2
407.014	514.8
407.42	531.6
407.825	506
408.231	528
408.637	522.6
409.043	530.6
409.449	515.8
409.834	509
410.24	523
410.646	526.4
411.052	529.6
411.458	522
411.865	525.6
412.271	523
412.677	523.6
413.062	523.2
413.469	504.8
413.875	533.4
414.282	533
414.689	523.8
415.095	527.6
415.502	512.8
415.888	525.6
416.294	514.6
416.701	553.4
417.108	511.8
417.515	534.4
417.923	519.8
418.33	537.6
418.715	526
419.123	520
419.53	520.6
419.937	519.8
420.345	535.4
420.752	525.2
421.16	534
421.546	524.2
421.953	524
422.361	520.6
422.769	512.8
423.177	512.4
423.585	537.6
423.992	538.2
424.379	530.2
424.787	528.6
425.195	532.6
425.603	518
426.011	537
426.419	542.2
426.806	527.6
427.214	528.8
427.623	524.2
428.031	532.6
428.44	523.2
428.848	531.2
429.235	532.8
429.644	522.4
430.053	524.6
430.461	532.6
430.87	543.6
431.279	528.4
431.666	519.8
432.075	523.6
432.484	522.4
432.893	516
433.302	535.8
433.711	562.2
434.099	526.8
434.508	532
434.918	514.6
435.327	540.2
435.737	531.8
436.125	532
436.534	533.8
436.944	541.8
437.353	547.6
437.763	568.8
438.173	543.4
438.561	567.8
438.971	548.2
439.381	560.4
439.791	568.2
440.201	564
440.589	577.6
440.999	591.4
441.409	598.8
441.819	586.2
442.23	603.2
442.619	611
443.029	612.6
443.439	618.8
443.85	638
444.26	643.2
444.649	634.6
445.06	635.2
445.471	642.8
445.881	652.4
446.292	675.2
446.682	666.4
447.092	649.8
447.503	700.8
447.914	668.6
448.325	672
448.715	675.2
449.126	672.4
449.537	672.2
449.948	682
450.338	681
450.75	700
451.161	690.6
451.572	700.8
451.984	694
452.374	692.2
452.786	709.4
453.197	709.6
453.609	705.6
453.999	698
454.411	703.6
454.823	725.6
455.235	711.4
455.647	720.2
456.037	723
456.449	707.4
456.862	724.8
457.274	729.6
457.665	725.4
458.077	730.8
458.489	761.8
458.902	736
459.293	736.6
459.705	729
460.118	737.4
460.53	739.8
460.921	749.2
461.334	751.6
461.747	748.4
462.16	765.6
462.551	761.4
462.964	760.8
463.377	747.8
463.79	761.4
464.182	773
464.595	754.8
465.008	773
465.421	773
465.813	758
466.226	768.2
466.64	771.4
467.053	817.6
467.445	796.8
467.859	801.8
468.272	787.6
468.686	796.2
469.078	792.8
469.492	781.8
469.906	800.4
470.298	802.8
470.712	788.8
471.126	817.8
471.54	787
471.933	792
472.347	793.4
472.761	795
473.175	796.2
473.568	800
473.982	796.2
474.397	803.8
474.79	800.2
475.204	807
475.619	792.4
476.033	799.8
476.426	800.4
476.841	788.4
477.256	808.6
477.649	797
478.064	791.6
478.479	799.8
478.872	790.6
479.287	785
479.702	779
480.118	798.2
480.511	797.6
480.927	805.4
481.342	796.4
481.736	795.6
482.151	789.6
482.566	806.8
482.96	793.6
483.376	803.4
483.792	793.6
484.186	793.2
484.602	790.2
485.017	789
485.412	803.6
485.827	805.4
486.243	804.6
486.638	814.6
487.054	791.4
487.47	800.4
487.865	784.4
488.281	784.6
488.697	782.8
489.092	770.8
489.508	777
489.925	787.2
490.32	776.4
490.736	777
491.153	776
491.548	775.6
491.964	779.8
492.381	758.2
492.776	769
493.193	758.8
493.61	770.4
494.006	762.2
494.422	776.6
494.84	753.8
495.235	770.6
495.652	766.8
496.069	766.2
496.465	737.2
496.883	761.8
497.3	769.2
497.696	748.6
498.113	752.4
498.509	740.2
498.927	742.8
499.344	737.8
499.741	736.6
500.158	756.6
500.576	742
500.973	738
501.39	733.2
501.787	722
502.205	738.2
502.623	732.8
503.02	721.2
503.438	721.6
503.856	722.8
504.253	719.8
504.671	722.8
505.068	717.4
505.486	705.4
505.905	729.2
506.302	709.6
506.72	712.6
507.118	697
507.536	701
507.955	698.6
508.352	707.8
508.771	699.4
509.169	700.6
509.587	696.8
510.006	698.6
510.404	685.6
510.823	692.4
511.221	690.6
511.64	694.2
512.038	700.4
512.457	685.2
512.877	686.8
513.275	677.2
513.694	685.6
514.092	683.8
514.512	675.6
514.91	682.6
515.33	676.6
515.749	680.8
516.148	679.4
516.568	676.8
516.966	664
517.386	666.6
517.785	669.2
518.205	669
518.603	655.8
519.024	658.6
519.444	663.4
519.843	666.8
520.263	666.2
520.662	661.6
521.082	656.6
521.481	661.2
521.902	654
522.301	654.2
522.722	648.2
523.121	643.4
523.542	643.8
523.963	641.2
524.362	640.8
524.783	646.6
525.183	636.2
525.604	644.2
526.003	634.4
526.425	645.8
526.824	645.8
527.246	635.4
527.646	636
528.067	628
528.467	635.2
528.888	636
529.289	615.8
529.71	625.6
530.11	623.6
530.532	616.8
530.932	613.4
531.354	613.2
531.755	643
532.176	627.8
532.577	619.6
532.999	616.8
533.4	611.6
533.822	604.6
534.223	604.4
534.645	614.6
535.046	602.2
535.468	605.4
535.869	617.6
536.292	603.8
536.693	635.8
537.115	615.4
537.516	600.6
537.939	601
538.34	609.8
538.742	608.6
539.165	598.2
539.566	604.4
539.989	597.4
540.391	596.4
540.814	593.8
541.216	598.6
541.639	595
542.041	597.6
542.464	585
542.866	588.2
543.268	586.2
543.691	601.4
544.093	598.2
544.517	617.8
544.919	586.6
545.343	611.6
545.745	585
546.147	591.6
546.571	585
546.974	579.4
547.398	582.8
547.8	592.2
548.224	582.4
548.627	583
549.03	589.4
549.454	579.6
549.857	567.8
550.281	581
550.684	580.6
551.087	594.6
551.512	584
551.915	571.4
552.34	579.2
552.743	569.4
553.146	589.2
553.571	566
553.975	594.4
554.399	563.6
554.803	604
555.207	564.8
555.632	564
556.036	578.6
556.461	571.4
556.865	571
557.268	568.6
557.694	565.2
558.098	563.2
558.502	566.6
558.927	565.6
559.332	565.6
559.736	563.4
560.162	565.6
560.566	563
560.992	574
561.396	558.4
561.801	551.4
562.227	560.8
562.631	557.8
563.036	555
563.462	561.4
563.867	554.8
564.272	544.6
564.698	560
565.103	541.6
565.508	565.6
565.935	544
566.34	554
566.745	558.4
567.172	552.2
567.577	567.6
567.982	556.8
568.409	550
568.815	540.8
569.22	549
569.626	548.6
570.053	537.2
570.459	551.4
570.865	546.8
571.292	544.8
571.698	551.8
572.104	536.6
572.531	545.8
572.937	557.2
573.343	542.8
573.75	540
574.177	538
574.583	545.4
574.99	538.4
575.396	552.4
575.824	541.2
576.231	544
576.637	532
577.065	557.8
577.472	534.2
577.879	530.2
578.286	552.6
578.714	528
579.121	535.8
579.528	541
579.935	546.6
580.364	536.8
580.771	523.4
581.178	540.6
581.585	541.8
582.014	536
582.421	538.2
582.829	532.4
583.236	547
583.644	522.4
584.073	534.6
584.481	531.2
584.889	526.2
585.296	535.6
585.726	531
586.134	526.6
586.542	525.6
586.95	542
587.358	521
587.787	527.4
588.196	526.2
588.604	527.6
589.012	523.8
589.421	523.6
589.851	522.8
590.259	524
590.668	515.6
591.076	553
591.485	525.6
591.894	530.2
592.324	540
592.733	533
593.142	513.6
593.551	524
593.96	525
594.369	520.6
594.8	510.8
595.209	522.2
595.618	516.8
596.028	506.6
596.437	518.4
596.847	523.8
597.256	522.4
597.687	523.4
598.097	520
598.507	507.4
598.917	518.8
599.327	519.2
599.736	515.4
600.146	523.8
600.556	521
600.988	532.8
601.398	509.8
601.808	524.8
602.219	497
602.629	522.6
603.039	516.2
603.45	527.8
603.86	511.8
604.271	521.6
604.703	516.8
605.114	516.4
605.525	516.6
605.935	519.8
606.346	530
606.757	522
607.168	522
607.579	515.4
607.99	523
608.402	514
608.813	516
609.224	513
609.636	511.6
610.047	519.4
610.48	524.4
610.892	520.8
611.303	525.6
611.715	518.6
612.127	502.8
612.539	530.8
612.95	522.8
613.362	516
613.774	520
614.186	517.2
614.599	517.2
615.011	517.4
615.423	522.4
615.835	519.8
616.248	512.6
616.66	531
617.073	524
617.485	524.4
617.898	531.4
618.311	527.6
618.723	520.8
619.136	550.2
619.549	530.4
619.962	534.2
620.375	518.6
620.788	533.2
621.201	521.2
621.614	532.8
622.028	522.2
622.441	525
622.854	532.6
623.268	521.8
623.681	524.4
624.095	526.4
624.509	527.6
624.922	523.2
625.336	512.4
625.728	523.2
626.142	521.8
626.556	534.2
626.97	527.8
627.384	511.4
627.799	521
628.213	532.6
628.627	524.4
629.041	524.2
629.456	520.8
629.87	522.6
630.285	535
630.699	530.2
631.093	527.6
631.507	523.8
631.922	520
632.337	527.8
632.752	508.2
633.167	511.8
633.582	507.8
633.997	505.6
634.412	517.2
634.806	518.2
635.221	522.4
635.637	524.8
636.052	514.4
636.468	521.6
636.883	531
637.299	514.8
637.715	508
638.109	513.8
638.525	502.4
638.941	525.8
639.357	522.8
639.773	521.4
640.189	521
640.584	507.2
641	519.8
641.416	508.4
641.832	515.4
642.249	506.2
642.665	522
643.06	528.2
643.477	523.8
643.894	501.4
644.31	511.6
644.727	509.8
645.123	513.4
645.54	505.6
645.957	512.6
646.374	522.6
646.77	510.6
647.187	533
647.604	508.8
648.021	502
648.439	507.4
648.835	514.8
649.252	511.8
649.67	515
650.088	515.2
650.484	517
650.902	526.8
651.32	519.8
651.738	507.6
652.134	514.6
652.552	526
652.971	519.2
653.389	514.8
653.786	512.4
654.204	517.2
654.622	501
655.019	512.8
655.438	512.6
655.857	510
656.275	507
656.673	503.8
657.091	515.2
657.51	505.6
657.908	516.6
658.327	516.6
658.746	495.2
659.144	515.6
659.563	511.8
659.982	506.8
660.38	499.6
660.8	505.2
661.219	503.4
661.617	507
662.037	502.2
662.457	516.8
662.855	491.4
663.275	526.2
663.695	503
664.094	512.2
664.514	515.4
664.934	501.4
665.333	510.4
665.753	496.2
666.152	497.8
666.572	495.6
666.993	518.6
667.392	503.6
667.812	506.4
668.212	508.8
668.632	516.2
669.053	501
669.453	510.2
669.874	506.8
670.273	508.8
670.694	499.2
671.116	507.2
671.515	510.8
671.937	500.8
672.337	505.6
672.758	501.2
673.158	516
673.58	497.4
673.98	506.2
674.402	513.4
674.824	496
675.224	496.6
675.646	497.6
676.047	500.2
676.469	507.8
676.869	510.4
677.292	509.6
677.693	495.2
678.115	497.2
678.516	506.4
678.939	504.4
679.34	493.4
679.762	507.4
680.164	506.8
680.586	491.8
680.988	511.2
681.411	529.4
681.812	497.8
682.236	497.2
682.637	501
683.061	498.4
683.462	505.4
683.864	496
684.288	500.6
684.69	496.6
685.114	507.2
685.516	506.8
685.94	497.4
686.342	504.4
686.766	496.8
687.168	495.6
687.571	517.2
687.995	494
688.398	494.6
688.822	502.6
689.225	504.2
689.628	515.4
690.052	499
690.456	501.4
690.88	491.6
691.284	481.6
691.687	502.8
692.112	494.8
692.515	491.6
692.919	499.8
693.344	506.2
693.747	494
694.173	496.4
694.577	504.4
694.98	497.4
695.406	496.4
695.81	504.6
696.214	492.6
696.64	497.4
697.044	491.6
697.448	504.6
697.874	496
698.279	497.4
698.684	488.4
699.11	485.2
699.514	498.8
699.919	494.2
700.324	490.4
700.75	497.6
701.156	493.4
701.561	502.6
701.987	497.6
702.393	498.6
702.798	507
703.203	497.4
703.63	489.8
704.036	493.8
704.442	488.2
704.847	492
705.274	498
705.68	502.2
706.086	514.2
706.492	487
706.92	502.4
707.326	507.4
707.732	490
708.139	488
708.545	483.2
708.973	492.8
709.38	503.2
709.786	487.2
710.193	508.2
710.6	495
711.028	489
711.435	496
711.842	491.8
712.249	492.2
712.656	494.4
713.064	506.2
713.492	491.2
713.9	496.6
714.307	501.2
714.715	499.2
715.123	499.4
715.53	496
715.938	507
716.367	507.4
716.775	498.6
717.184	497
717.592	496
718	504.8
718.408	524.2
718.816	535.6
719.225	500.8
719.633	494
720.042	488.8
720.472	497.2
720.881	504
721.29	492.4
721.699	497.6
722.108	493.8
722.517	489
722.926	492.2
723.335	503.6
723.744	493.4
724.154	496.6
724.563	497
724.973	490.2
725.382	492.2
725.792	494.2
726.202	484
726.612	499.4
727.022	492
727.432	490.6
779.813	496.8
780.223	528
780.634	495
781.044	493.8
781.454	489.6
781.865	498.4
782.276	488
782.686	501
783.097	496.2
783.508	489.2
783.919	499
784.33	504.8
784.741	505.8
785.152	487
785.563	478.8
785.974	488.6
786.386	501.2
786.776	490.8
787.188	498.8
787.599	487.6
788.011	494.4
788.423	497.4
788.835	488.4
789.247	492.6
789.659	493.8
790.071	495
790.483	528.8
790.874	493
791.286	494.2
791.699	496.8
792.111	498.6
792.524	500.6
792.937	494.2
793.349	487.8
793.741	489.2
794.154	496.8
794.567	509.2
794.98	496.8
795.393	484.2
795.785	510.8
796.198	495.4
796.612	501.4
797.026	490.8
797.439	482.6
797.831	492.8
798.245	486
798.659	496.6
799.073	495.4
799.487	488.8
799.88	494
800.294	499.4
800.708	496.2
801.123	498.2
801.516	501.8
801.93	482.4
802.345	478
802.76	494.4
803.153	509.2
803.568	497.4
803.983	499.6
804.377	499.8
804.792	489.4
805.207	481.8
805.601	496.2
806.016	521.8
806.432	496
806.826	513
807.242	501.8
807.658	494.4
808.052	481.4
808.468	491.6
808.884	492.6
809.279	499.4
809.695	503.2
810.111	501.6
810.506	504.6
810.922	509
811.339	486.8
811.734	500.2
812.151	485.2
812.546	485.4
812.963	492
813.38	500.4
813.776	496
814.193	515
814.589	496.6
815.006	485.6
815.402	483.6
815.82	492.4
816.237	490.2
816.633	502.8
817.051	485.2
817.448	496
817.866	482.4
818.262	507.2
818.68	487.6
819.077	488.4
819.495	498.4
819.892	532.2
820.311	486.8
820.708	491.2
821.127	483
821.524	504.2
821.943	499
822.34	503.4
822.759	500.8
823.157	485.4
823.576	501.8
823.974	500.8
824.393	577
824.791	490.4
825.189	487.8
825.609	489.6
826.007	496.4
826.427	486.2
826.826	486.2
827.246	492.4
827.644	485
828.043	502.2
828.463	495.6
828.862	495.6
829.261	491
829.682	483.6
830.081	503.4
830.502	488.4
830.901	497.2
831.301	488.8
831.722	483
832.121	490.8
832.521	490.6
832.943	492.6
833.342	495
833.742	483.8
834.164	484.4
834.564	483.4
834.965	487
835.386	487
835.787	488.6
836.188	492.6
836.588	488.8
837.01	489.6
837.411	490.2
837.812	494.6
838.213	492.6
838.636	490
839.037	543.4
839.438	493.4
839.84	499.8
840.263	492.8
840.664	497.8
841.066	487.6
841.468	499.2
841.891	490.6
842.293	494.2
842.695	502.2
843.098	496
843.5	491
843.902	486.8
844.326	491.6
844.729	498.8
845.131	505.2
845.534	488.6
845.937	501.4
846.34	499.8
846.764	479
847.167	488.2
847.571	479
847.974	486.4
848.377	484.8
848.781	530.8
849.184	494.8
849.588	488.8
849.992	483.2
850.396	489.4
850.821	513.8
851.225	498
851.63	491
852.034	500.6
852.438	489.8
852.843	561.4
853.247	487
853.652	493.8
854.057	509.4
854.462	499
854.867	495.6
855.272	512.6
855.677	491.8
856.082	486.6
