#lambda/nm	C1
208.295	464.8
208.67	431.8
209.045	403.6
209.419	395.6
209.794	530.8
210.169	514.2
210.544	616.4
210.919	532.6
211.295	520.6
211.67	530.4
212.045	518.6
212.421	520.4
212.796	550
213.172	520.2
213.547	523.4
213.923	530.2
214.299	529.4
214.675	527.6
215.051	532.2
215.427	532.6
215.803	539.6
216.179	538.6
216.555	527.2
216.932	538.6
217.308	530.4
217.684	533.2
218.061	539.8
218.438	536.6
218.814	531.2
219.191	539.2
219.568	518.8
219.945	520.6
220.322	538.6
220.699	526
221.076	539.4
221.453	526.8
221.83	521.8
222.208	522.8
222.585	526.4
222.962	527
223.34	530.4
223.717	538
224.095	520.8
224.473	526.8
224.851	523.2
225.229	521.4
225.607	537.6
225.985	526.4
226.363	528
226.741	521.4
227.119	533.4
227.497	530.2
227.876	519
228.254	532
228.633	530
229.011	523
229.39	537
229.769	524.6
230.148	538
230.527	539.4
230.905	531.2
231.284	533.6
231.664	525
232.043	530.8
232.422	535.2
232.801	514.8
233.181	527.6
233.56	527.4
233.94	532.2
234.319	516.6
234.699	524.4
235.079	560
235.458	559
235.838	542.4
236.218	526.2
236.598	519
236.978	523
237.358	526.6
237.738	529
238.119	531.4
238.499	518.8
238.88	523.6
239.26	544.6
239.641	514
240.021	523.6
240.402	522.4
240.783	532
241.163	525.6
241.544	531.4
241.925	521.8
242.306	538.6
242.687	524.8
243.069	524
243.45	532.2
243.831	516.2
244.212	523.6
244.594	556.6
244.975	525.6
245.357	529.8
245.739	523
246.12	532.4
246.502	536.8
246.884	527
247.266	526.4
247.648	533.4
248.03	549.8
248.412	527.6
248.794	539.2
249.176	531
249.559	533.2
249.941	524
250.323	524.4
250.706	521
251.089	528.6
251.471	531.6
251.854	530
252.237	523
252.62	537.4
253.002	525
253.385	527.2
253.769	537.6
254.152	529.2
254.535	530
254.918	524.2
255.301	527
255.685	526
256.068	519
256.452	549.6
256.835	530.8
257.219	535.4
257.603	536.4
257.986	521.4
258.37	535.4
258.754	519.8
259.138	529.4
259.522	531
259.906	517.8
260.29	529.2
260.675	527.4
261.059	522.4
261.443	521.6
261.828	531.8
262.212	532.2
262.597	530.8
262.981	517.4
263.366	536.4
263.751	530.4
264.136	524.8
264.521	530.8
264.906	521
265.291	536
265.676	525
266.061	538.8
266.446	544.8
266.831	530.2
267.217	538.4
267.602	527.8
267.987	524
268.373	528.6
268.759	536.2
269.144	527.6
269.53	536.4
269.916	524.2
270.302	528.4
270.688	526.8
271.074	524.4
271.46	539.4
271.846	560.6
272.232	529.2
272.618	521.8
273.004	528.4
273.391	532.4
273.777	537.2
274.164	527
274.55	532.8
274.937	528.6
275.324	522.8
275.71	534.2
276.097	534
276.484	523
276.871	527.8
277.258	525.2
277.645	517.2
278.032	525
278.419	524.2
278.807	533
279.194	519.8
279.581	520.8
279.969	537
280.356	532.8
280.744	534.4
281.131	545.2
281.519	528
281.907	519.6
282.295	519.6
282.682	534.4
283.07	526.2
283.458	534.6
283.846	536.6
284.235	530.6
284.623	531
285.011	525.6
285.399	531.8
285.788	525.2
286.176	515.8
286.565	534.4
286.953	520.8
287.342	527.8
287.731	518.8
288.119	516
288.508	516.4
288.897	525.2
289.286	521
289.675	525.6
290.064	535
290.453	521.2
290.821	514.2
291.21	532.8
291.599	526.6
291.989	533
292.378	531.2
292.768	540.6
293.157	530.6
293.547	524.2
293.936	522
294.326	520.8
294.716	529.2
295.106	523.6
295.496	532.6
295.886	534.4
296.276	515.2
296.666	524.2
297.056	523.8
297.446	514.2
297.836	544.4
298.227	527.4
298.617	527.2
299.008	542
299.398	531.6
299.789	523
300.179	532.2
300.57	543
300.961	523
301.352	525.4
301.742	527.4
302.133	527.6
302.524	524.8
302.915	530.8
303.307	525.8
303.698	533.8
304.089	531
304.48	526.2
304.872	528.6
305.263	522.8
305.655	523.6
306.046	534.2
306.438	536
306.829	526.8
307.221	551
307.613	531.4
308.005	539.2
308.397	540.8
308.789	549.8
309.181	546
309.573	540.8
309.965	531.2
310.357	527.4
310.749	543
311.142	517.6
311.534	523.2
311.926	542.4
312.319	529
312.711	521.6
313.104	540.2
313.497	524.2
313.889	559.8
314.282	538.6
314.675	545.6
315.068	531.4
315.461	539
315.854	552.6
316.247	534.8
316.64	528
317.033	531.2
317.405	537.4
317.798	526
318.192	530
318.585	521.8
318.979	528.4
319.372	522.2
319.766	531.4
320.16	539.4
320.553	546
320.947	545.2
321.341	530.6
321.735	523.2
322.129	523.2
322.523	547
322.917	519.6
323.311	536.6
323.705	532.2
324.099	539.2
324.494	538.2
324.888	535.6
325.282	522.4
325.677	539.4
326.071	537.6
326.466	539
326.861	530.6
327.255	537.2
327.65	539.2
328.045	542.4
328.44	536.6
328.835	531.6
329.23	520.2
329.625	542.2
330.02	524.8
330.415	545.2
330.81	543
331.206	532
331.601	531.4
331.996	536.4
332.37	545.8
332.766	518.6
333.161	546.2
333.557	529.2
333.953	526.4
334.348	858.4
334.744	531.8
335.14	527.4
335.536	527
335.932	537.2
336.328	533.6
336.724	534.8
337.12	522.2
337.516	527.4
337.913	528.8
338.309	536.8
338.705	528.4
339.102	528.6
339.498	517.4
339.895	534.4
340.291	520.4
340.688	534.4
341.085	524.2
341.481	529.8
341.878	519.6
342.275	546.4
342.672	515.8
343.069	516.4
343.466	516.6
343.842	527.6
344.239	518.4
344.636	522
345.033	517.6
345.431	513.6
345.828	527.4
346.225	525.6
346.623	549.4
347.02	521
347.418	538.8
347.816	544.6
348.213	517.8
348.611	529.6
349.009	522
349.407	534.2
349.805	516.8
350.203	513.6
350.601	536.2
350.999	513.8
351.397	580.6
351.795	527.4
352.193	537.2
352.57	530.4
352.969	536
353.367	517
353.766	517.2
354.164	522.6
354.563	529.2
354.961	524.4
355.36	522.4
355.759	516.6
356.158	521.4
356.557	516
356.956	521
357.355	513.6
357.754	526.8
358.153	522.6
358.552	533.8
358.951	518.4
359.35	526.6
359.75	519.8
360.149	519.2
360.527	513.4
360.926	519.2
361.326	526.2
361.726	524.6
362.125	522
362.525	529.2
362.925	522.2
363.325	519
363.724	525.2
364.124	513.8
364.524	521.2
364.924	522
365.324	537
365.725	512.2
366.125	525.2
366.525	522.8
366.904	510.6
367.304	511.4
367.705	537
368.105	527.8
368.506	524.4
368.906	520.4
369.307	517.8
369.708	527.8
370.108	512.4
370.509	528.8
370.91	514.2
371.311	526.8
371.712	519.8
372.113	516
372.514	510.4
372.894	526.8
373.295	516.6
373.696	526.4
374.097	532.8
374.499	546.4
374.9	520
375.301	507.2
375.703	525
376.105	521.2
376.506	524.6
376.908	522.2
377.309	523.4
377.711	520.2
378.113	519.6
378.493	518
378.895	515.8
379.297	529.4
379.699	505.2
380.102	516.2
380.504	519.2
380.906	515.4
381.308	534
381.71	522.6
382.113	525.8
382.515	515
382.918	515.8
383.299	525
383.701	523
384.104	530.8
384.507	506.2
384.909	507.2
385.312	508.8
385.715	510.8
386.118	520
386.521	505.2
386.924	516.8
387.327	522
387.709	505.6
388.112	502.2
388.515	511
388.918	509.2
389.322	516.8
389.725	519.8
390.129	531.8
390.532	524.2
390.936	519.2
391.339	514.2
391.743	518.6
392.125	519.8
392.529	526.6
392.933	527.4
393.337	517.2
393.74	515.8
394.144	520.2
394.548	516.8
394.953	522.4
395.357	528.6
395.761	519.2
396.144	521
396.548	514.8
396.952	515.6
397.357	521.2
397.761	517
398.166	510.4
398.57	512.4
398.975	518.8
399.379	521.6
399.763	563
400.168	519.4
400.572	512.2
400.977	509.2
401.382	528.4
401.787	530.4
402.192	531.4
402.597	528.4
403.002	499.6
403.386	532
403.791	539
404.197	505.4
404.602	527.6
405.007	524.4
405.413	514.4
405.818	521.6
406.224	512.8
406.608	512.8
407.014	515
407.42	529
407.825	517.4
408.231	530.8
408.637	527
409.043	532.2
409.449	517.2
409.834	509
410.24	520.8
410.646	528.8
411.052	519.8
411.458	520
411.865	531
412.271	523.2
412.677	522
413.062	525.6
413.469	511
413.875	544.8
414.282	525.4
414.689	520.6
415.095	530.6
415.502	519.2
415.888	520.4
416.294	515
416.701	556.6
417.108	514.2
417.515	523.2
417.923	524
418.33	530.2
418.715	529.4
419.123	516.4
419.53	515
419.937	517.8
420.345	540.4
420.752	514.6
421.16	532
421.546	524
421.953	530
422.361	518
422.769	519.8
423.177	520.4
423.585	541.4
423.992	542.8
424.379	526.2
424.787	526.8
425.195	534.8
425.603	519.4
426.011	535.4
426.419	529
426.806	525.2
427.214	528
427.623	533.2
428.031	539.6
428.44	531.6
428.848	540.4
429.235	542.6
429.644	540
430.053	538.4
430.461	557
430.87	571
431.279	568.2
431.666	569.6
432.075	579.6
432.484	589.8
432.893	603.4
433.302	624.4
433.711	654.4
434.099	644.8
434.508	660.2
434.918	676.4
435.327	699.2
435.737	716.4
436.125	737.8
436.534	764
436.944	792
437.353	794.4
437.763	842.2
438.173	835.4
438.561	872.6
438.971	873.6
439.381	904.2
439.791	927.4
440.201	931.2
440.589	965.4
440.999	991.8
441.409	1000.6
441.819	998.8
442.23	1048.4
442.619	1055.8
443.029	1048
443.439	1062.4
443.85	1090.2
444.26	1106
444.649	1116.6
445.06	1122.4
445.471	1135.2
445.881	1146.2
446.292	1169
446.682	1180.6
447.092	1178.4
447.503	1219.6
447.914	1185.6
448.325	1188.2
448.715	1193.2
449.126	1196
449.537	1213.8
449.948	1211.2
450.338	1211.4
450.75	1240.2
451.161	1245
451.572	1246.6
451.984	1244.2
452.374	1231.6
452.786	1247
453.197	1249.4
453.609	1254.8
453.999	1254.8
454.411	1261.8
454.823	1260.4
455.235	1276
455.647	1274.8
456.037	1278.2
456.449	1260.6
456.862	1258.8
457.274	1275.6
457.665	1267.4
458.077	1281.2
458.489	1298.8
458.902	1266.4
459.293	1267.4
459.705	1277.2
460.118	1271.2
460.53	1275.2
460.921	1292.4
461.334	1287.8
461.747	1299.2
462.16	1305
462.551	1289.6
462.964	1291.6
463.377	1278.4
463.79	1289.2
464.182	1305.6
464.595	1289.2
465.008	1292.4
465.421	1301.6
465.813	1269.2
466.226	1300.2
466.64	1301.6
467.053	1336
467.445	1304.6
467.859	1314
468.272	1305.8
468.686	1320.6
469.078	1299.6
469.492	1285.8
469.906	1298.2
470.298	1292
470.712	1281
471.126	1315.8
471.54	1287.4
471.933	1274
472.347	1281.6
472.761	1273.2
473.175	1271.4
473.568	1283
473.982	1265.4
474.397	1267.2
474.79	1267.4
475.204	1279.2
475.619	1270
476.033	1258.4
476.426	1256
476.841	1249.2
477.256	1269.8
477.649	1247.4
478.064	1232.2
478.479	1224
478.872	1235.8
479.287	1217.8
479.702	1228.8
480.118	1217.4
480.511	1224.2
480.927	1223
481.342	1203
481.736	1213.4
482.151	1192.4
482.566	1213.2
482.96	1195.4
483.376	1202.4
483.792	1180.6
484.186	1184.6
484.602	1178.8
485.017	1180.4
485.412	1177
485.827	1168
486.243	1180.4
486.638	1174.6
487.054	1165.6
487.47	1187.6
487.865	1154.4
488.281	1127.8
488.697	1135.2
489.092	1139
489.508	1134
489.925	1129.2
490.32	1114.4
490.736	1130.6
491.153	1112
491.548	1125
491.964	1130.2
492.381	1087.8
492.776	1103.6
493.193	1084.6
493.61	1085.8
494.006	1086.8
494.422	1079
494.84	1079.6
495.235	1070.2
495.652	1052.2
496.069	1071
496.465	1048.4
496.883	1049.2
497.3	1059.8
497.696	1055.6
498.113	1036.4
498.509	1013.4
498.927	1014.2
499.344	1022.4
499.741	1007.6
500.158	1015.8
500.576	1009.2
500.973	1007.2
501.39	984.2
501.787	985.2
502.205	989.8
502.623	986
503.02	967.6
503.438	975.6
503.856	960.8
504.253	961.4
504.671	963.6
505.068	959.4
505.486	941.4
505.905	963.4
506.302	946.8
506.72	942.6
507.118	918.2
507.536	923.4
507.955	936.4
508.352	927.4
508.771	932.8
509.169	910.8
509.587	908.4
510.006	921.6
510.404	896.8
510.823	903.6
511.221	890.8
511.64	886.8
512.038	895.8
512.457	873.8
512.877	875.8
513.275	872.4
513.694	862.8
514.092	865.4
514.512	866.2
514.91	861.8
515.33	857.4
515.749	855.4
516.148	854
516.568	848.4
516.966	840.8
517.386	824.6
517.785	834.8
518.205	836
518.603	810.8
519.024	805
519.444	831.6
519.843	828.8
520.263	828.2
520.662	820.6
521.082	816.6
521.481	801.2
521.902	804
522.301	801.8
522.722	787
523.121	792
523.542	767.8
523.963	782.8
524.362	782.4
524.783	779
525.183	776
525.604	774.2
526.003	765.4
526.425	767.6
526.824	773.4
527.246	762.2
527.646	766.2
528.067	759.4
528.467	748.6
528.888	750.6
529.289	736.6
529.71	741
530.11	738
530.532	731.4
530.932	723.4
531.354	718.8
531.755	753.4
532.176	743
532.577	717.6
532.999	724.6
533.4	713
533.822	723.8
534.223	711.2
534.645	705.8
535.046	718.2
535.468	715
535.869	709
536.292	696.4
536.693	725.2
537.115	696.2
537.516	700.4
537.939	690
538.34	705.6
538.742	706.8
539.165	693.8
539.566	693.6
539.989	690.8
540.391	691
540.814	692
541.216	689.4
541.639	679
542.041	687.8
542.464	682.6
542.866	664.8
543.268	661.8
543.691	678.8
544.093	691.4
544.517	689.4
544.919	668
545.343	685.4
545.745	661.6
546.147	671.2
546.571	659.4
546.974	652.6
547.398	650.2
547.8	664
548.224	649
548.627	639.6
549.03	654.2
549.454	646.8
549.857	641.4
550.281	634.2
550.684	639
551.087	646
551.512	631.8
551.915	640.4
552.34	631.4
552.743	629
553.146	628.6
553.571	621.4
553.975	644
554.399	620.8
554.803	668
555.207	617.2
555.632	617.2
556.036	619.4
556.461	613.2
556.865	625.4
557.268	613.8
557.694	613.2
558.098	629
558.502	623.4
558.927	612
559.332	607.6
559.736	611.4
560.162	616.8
560.566	601.2
560.992	608
561.396	611.4
561.801	608
562.227	603.8
562.631	597.2
563.036	593.4
563.462	602
563.867	601.4
564.272	589.6
564.698	592.6
565.103	588.6
565.508	607.6
565.935	592.8
566.34	589.8
566.745	594.6
567.172	584.6
567.577	597.6
567.982	600
568.409	586.4
568.815	578
569.22	584.4
569.626	585.6
570.053	578.4
570.459	576
570.865	579.6
571.292	578.8
571.698	583.2
572.104	558.2
572.531	578.2
572.937	574
573.343	570.6
573.75	569.6
574.177	577.8
574.583	568.6
574.99	564
575.396	580.2
575.824	566.2
576.231	573.6
576.637	564.8
577.065	587.4
577.472	559.4
577.879	557
578.286	576.6
578.714	553.8
579.121	558.6
579.528	566
579.935	558.4
580.364	562
580.771	545.6
581.178	553.6
581.585	555.4
582.014	560.4
582.421	553.4
582.829	543.6
583.236	563.8
583.644	552.4
584.073	542.2
584.481	554
584.889	556
585.296	558.6
585.726	553.2
586.134	544.2
586.542	548.8
586.95	564.8
587.358	543.2
587.787	551.2
588.196	535.8
588.604	538.6
589.012	537.2
589.421	535
589.851	538.6
590.259	542.4
590.668	545.8
591.076	569.6
591.485	544.6
591.894	540.8
592.324	557.6
592.733	555.6
593.142	531
593.551	535.2
593.96	564.6
594.369	526.2
594.8	539.4
595.209	537.4
595.618	533.2
596.028	532.4
596.437	530.2
596.847	536.4
597.256	543.6
597.687	544.2
598.097	530.8
598.507	531.8
598.917	538.8
599.327	539.8
599.736	533.6
600.146	540.6
600.556	536.8
600.988	548
601.398	524.8
601.808	539.6
602.219	527.2
602.629	526.6
603.039	527.6
603.45	542.2
603.86	529.4
604.271	537.4
604.703	533.4
605.114	517.6
605.525	519.8
605.935	524.4
606.346	543
606.757	524
607.168	522.8
607.579	521.2
607.99	532.6
608.402	525.4
608.813	529
609.224	521
609.636	514.2
610.047	520.4
610.48	528.6
610.892	533.8
611.303	534.4
611.715	528.6
612.127	515.8
612.539	516.2
612.95	515.8
613.362	521
613.774	512.2
614.186	522.6
614.599	517.4
615.011	530.4
615.423	525.4
615.835	518.4
616.248	508.4
616.66	521
617.073	518.6
617.485	527.4
617.898	526.8
618.311	525.2
618.723	520.6
619.136	542.2
619.549	537
619.962	537.2
620.375	521.6
620.788	529.6
621.201	517.2
621.614	531
622.028	516.4
622.441	519.8
622.854	535.4
623.268	514.2
623.681	521.6
624.095	534.4
624.509	529.4
624.922	520.6
625.336	511.2
625.728	518.4
626.142	518.2
626.556	526
626.97	526.2
627.384	513.2
627.799	512
628.213	528.8
628.627	514.4
629.041	510.8
629.456	516.2
629.87	509.8
630.285	515.8
630.699	525
631.093	516.2
631.507	525.8
631.922	521.6
632.337	530.6
632.752	506
633.167	517
633.582	519.8
633.997	514.6
634.412	514.8
634.806	523.2
635.221	515.6
635.637	519.8
636.052	504.6
636.468	513.4
636.883	530
637.299	509.8
637.715	500.2
638.109	510.8
638.525	508
638.941	520
639.357	521.6
639.773	519.6
640.189	507.4
640.584	521.2
641	513
641.416	498.6
641.832	511.2
642.249	517.4
642.665	511.4
643.06	515.2
643.477	515.4
643.894	497
644.31	512.2
644.727	501.6
645.123	513
645.54	497.6
645.957	510
646.374	518.6
646.77	510
647.187	536.2
647.604	506.4
648.021	497.6
648.439	507.4
648.835	509.6
649.252	509
649.67	510.2
650.088	509.6
650.484	508
650.902	505.4
651.32	520.6
651.738	508.6
652.134	514.2
652.552	532.2
652.971	519.4
653.389	507.4
653.786	521.2
654.204	509.6
654.622	498.8
655.019	501.2
655.438	510.4
655.857	507.2
656.275	511.6
656.673	503.8
657.091	520.4
657.51	503.6
657.908	511
658.327	517.8
658.746	502.8
659.144	504.8
659.563	507.2
659.982	503
660.38	498
660.8	501.2
661.219	512.2
661.617	506.6
662.037	508.2
662.457	513
662.855	490.6
663.275	527.2
663.695	503.8
664.094	503.6
664.514	500
664.934	496.6
665.333	507.2
665.753	504.4
666.152	497.2
666.572	505.6
666.993	515.2
667.392	499.2
667.812	504.8
668.212	496.2
668.632	510.2
669.053	500
669.453	511.6
669.874	497.4
670.273	506.2
670.694	494.6
671.116	514.4
671.515	508
671.937	505.2
672.337	496.4
672.758	505.4
673.158	510.6
673.58	494.8
673.98	499
674.402	499.4
674.824	496.8
675.224	495
675.646	494.8
676.047	497.6
676.469	503
676.869	511.4
677.292	502.4
677.693	494.6
678.115	494
678.516	499.2
678.939	509.4
679.34	496
679.762	510.4
680.164	502.2
680.586	493
680.988	505
681.411	512.4
681.812	497
682.236	496
682.637	498.6
683.061	489.6
683.462	505.6
683.864	490.4
684.288	500.6
684.69	494.2
685.114	505.6
685.516	508.6
685.94	487.8
686.342	512.2
686.766	492.6
687.168	505.6
687.571	512.8
687.995	503
688.398	490
688.822	495.4
689.225	507.8
689.628	512.2
690.052	502.4
690.456	509.2
690.88	499.4
691.284	490.4
691.687	500.8
692.112	495.2
692.515	496
692.919	501.2
693.344	506.2
693.747	501.4
694.173	499.2
694.577	503.2
694.98	495.6
695.406	494.8
695.81	499.8
696.214	503
696.64	501.4
697.044	495.6
697.448	505.4
697.874	500
698.279	499.2
698.684	494.4
699.11	496.8
699.514	505.4
699.919	493.4
700.324	489.2
700.75	502.4
701.156	495
701.561	502.4
701.987	493.2
702.393	507.8
702.798	506
703.203	495.4
703.63	499.4
704.036	490.2
704.442	494.8
704.847	487.4
705.274	497.4
705.68	505.2
706.086	498.2
706.492	486.2
706.92	491.8
707.326	505.4
707.732	495.8
708.139	493.8
708.545	490.2
708.973	484.2
709.38	503.4
709.786	491.2
710.193	510.2
710.6	491.6
711.028	490.2
711.435	488.4
711.842	493.2
712.249	494.4
712.656	491.6
713.064	504.8
713.492	494.8
713.9	499.2
714.307	494.6
714.715	504.4
715.123	502.4
715.53	500.8
715.938	500.6
716.367	496
716.775	490
717.184	494.2
717.592	492
718	507
718.408	528
718.816	541
719.225	495.6
719.633	503.2
720.042	484.8
720.472	494.4
720.881	513.4
721.29	501.4
721.699	487.8
722.108	500.8
722.517	493.2
722.926	492.4
723.335	504.4
723.744	497.2
724.154	501
724.563	500.8
724.973	498.6
725.382	491.4
725.792	493.8
726.202	490.2
726.612	503.8
727.022	492.8
727.432	495
779.813	487.6
780.223	531.2
780.634	485.4
781.044	488.4
781.454	496.6
781.865	508.2
782.276	486.8
782.686	510
783.097	494.4
783.508	492.4
783.919	495.2
784.33	499.8
784.741	514.4
785.152	492.4
785.563	481
785.974	494.2
786.386	504.8
786.776	491.8
787.188	496.8
787.599	492.2
788.011	502
788.423	494.6
788.835	492.2
789.247	479.8
789.659	486.4
790.071	492.4
790.483	538.8
790.874	500
791.286	506.6
791.699	492.4
792.111	492.2
792.524	499
792.937	493.8
793.349	481.4
793.741	490.8
794.154	491.6
794.567	504.2
794.98	498.4
795.393	480.4
795.785	503.8
796.198	489
796.612	492.8
797.026	486.4
797.439	488.4
797.831	490.6
798.245	483.6
798.659	498.4
799.073	494.8
799.487	491.4
799.88	500.2
800.294	493
800.708	500.4
801.123	497.6
801.516	519
801.93	492.2
802.345	489.4
802.76	497
803.153	507
803.568	502.2
803.983	506.4
804.377	500.8
804.792	484.4
805.207	480.6
805.601	496.8
806.016	519.4
806.432	488.4
806.826	526
807.242	501.6
807.658	495.4
808.052	486
808.468	492.6
808.884	485.6
809.279	491
809.695	502.6
810.111	509.8
810.506	491
810.922	514.4
811.339	493.2
811.734	496.4
812.151	492.4
812.546	492.4
812.963	494
813.38	492.6
813.776	485.8
814.193	506.8
814.589	490.2
815.006	491.2
815.402	483
815.82	486.2
816.237	492.6
816.633	496.2
817.051	481.2
817.448	493.6
817.866	477.6
818.262	503.8
818.68	484.4
819.077	489.2
819.495	491
819.892	522.4
820.311	479.4
820.708	487.4
821.127	486.2
821.524	501.4
821.943	492.2
822.34	502
822.759	495.4
823.157	497.6
823.576	503.6
823.974	495.6
824.393	582
824.791	487.4
825.189	483.6
825.609	492.8
826.007	487.2
826.427	487.6
826.826	486
827.246	497
827.644	475.6
828.043	487.8
828.463	484
828.862	502.2
829.261	491.4
829.682	480.8
830.081	487.2
830.502	478.2
830.901	490
831.301	484
831.722	484.6
832.121	488
832.521	486.6
832.943	487.8
833.342	488.8
833.742	493.6
834.164	487.6
834.564	485.4
834.965	499.2
835.386	488.4
835.787	492.8
836.188	486.8
836.588	493
837.01	493.4
837.411	492.2
837.812	492.8
838.213	494.4
838.636	487.2
839.037	547.8
839.438	495.4
839.84	493.4
840.263	501.2
840.664	499.2
841.066	489.6
841.468	485.8
841.891	489.8
842.293	498.6
842.695	497
843.098	501
843.5	493.8
843.902	499.2
844.326	495.2
844.729	486.6
845.131	501
845.534	493.8
845.937	499.4
846.34	507.8
846.764	477.6
847.167	490.4
847.571	481.4
847.974	492.6
848.377	498.2
848.781	524.6
849.184	496.8
849.588	481
849.992	485.4
850.396	489.2
850.821	505.4
851.225	497.2
