#lambda/nm	C1
208.295	468.4
208.67	436.6
209.045	396.2
209.419	404.4
209.794	534.4
210.169	523.6
210.544	614.8
210.919	530.8
211.295	523.2
211.67	532
212.045	525
212.421	531.8
212.796	555
213.172	524
213.547	524.4
213.923	521.2
214.299	528.4
214.675	540.6
215.051	530.8
215.427	530
215.803	541.8
216.179	537.2
216.555	521.4
216.932	539.8
217.308	527.8
217.684	530.8
218.061	530.6
218.438	530.2
218.814	523.4
219.191	538.4
219.568	524.8
219.945	527
220.322	537.8
220.699	533.4
221.076	531.6
221.453	529.6
221.83	524
222.208	528.8
222.585	525.8
222.962	530.8
223.34	531.6
223.717	527
224.095	524.2
224.473	532.6
224.851	522.6
225.229	525
225.607	539.8
225.985	521
226.363	523.8
226.741	522.6
227.119	524
227.497	531.4
227.876	510.8
228.254	530.8
228.633	526.8
229.011	523.6
229.39	532
229.769	519.2
230.148	534
230.527	538.4
230.905	526.8
231.284	528.8
231.664	524.6
232.043	530.4
232.422	535.6
232.801	524
233.181	529.8
233.56	534.4
233.94	521.8
234.319	509.2
234.699	523.8
235.079	558.4
235.458	554.6
235.838	539.2
236.218	514.2
236.598	516.6
236.978	520
237.358	528.4
237.738	520
238.119	533.2
238.499	516.2
238.88	526.6
239.26	534.2
239.641	519.8
240.021	521
240.402	519
240.783	521.8
241.163	526
241.544	524.8
241.925	528.6
242.306	539.8
242.687	516.2
243.069	523.2
243.45	534
243.831	524.6
244.212	519.2
244.594	556
244.975	534.2
245.357	528
245.739	525.2
246.12	525
246.502	540.6
246.884	520.6
247.266	528.8
247.648	528.4
248.03	545
248.412	524.4
248.794	534.2
249.176	526
249.559	544.2
249.941	517.2
250.323	515
250.706	519.6
251.089	524.4
251.471	527.8
251.854	525.2
252.237	529.4
252.62	535.2
253.002	527.2
253.385	520.8
253.769	537.8
254.152	523.2
254.535	535.2
254.918	526.6
255.301	523.8
255.685	531.2
256.068	522.4
256.452	545.8
256.835	534.8
257.219	539.8
257.603	534.6
257.986	520.8
258.37	527.8
258.754	522.4
259.138	534.6
259.522	530.6
259.906	523.8
260.29	532.8
260.675	527.6
261.059	527
261.443	529.6
261.828	528.6
262.212	536.2
262.597	519
262.981	528.2
263.366	534.4
263.751	526
264.136	527.6
264.521	523.4
264.906	520.6
265.291	540
265.676	524.6
266.061	524.2
266.446	539
266.831	523.4
267.217	545
267.602	529.2
267.987	532.8
268.373	526.8
268.759	536.2
269.144	530.2
269.53	528
269.916	525.4
270.302	523.2
270.688	528.8
271.074	533.8
271.46	534.2
271.846	553.2
272.232	528.8
272.618	523.4
273.004	531.4
273.391	535.2
273.777	538.8
274.164	531.4
274.55	531.8
274.937	522
275.324	523.2
275.71	531.6
276.097	522.2
276.484	517.8
276.871	536.2
277.258	533
277.645	515
278.032	524.2
278.419	522
278.807	531.4
279.194	516.4
279.581	525.8
279.969	528.6
280.356	529.2
280.744	521.8
281.131	548.6
281.519	537
281.907	528.8
282.295	521
282.682	533.8
283.07	524.6
283.458	536.6
283.846	536.6
284.235	542
284.623	532.6
285.011	524.2
285.399	534
285.788	522.8
286.176	523.2
286.565	537.4
286.953	528.2
287.342	525.4
287.731	520.6
288.119	516
288.508	529.2
288.897	521
289.286	514.6
289.675	529.8
290.064	540.2
290.453	530.4
290.821	526.2
291.21	541.6
291.599	524.6
291.989	522.6
292.378	526
292.768	542.2
293.157	533.4
293.547	535.8
293.936	526.2
294.326	523.4
294.716	531.6
295.106	527.6
295.496	532.8
295.886	530.8
296.276	528.2
296.666	526.2
297.056	528.2
297.446	523.6
297.836	544
298.227	529
298.617	527.6
299.008	535.4
299.398	525
299.789	515.2
300.179	525
300.57	542.6
300.961	529.4
301.352	528
301.742	530.6
302.133	537.4
302.524	528
302.915	524.6
303.307	527
303.698	540
304.089	526.4
304.48	524.2
304.872	533.4
305.263	525.4
305.655	525.4
306.046	536.4
306.438	527.2
306.829	521.8
307.221	541.6
307.613	529.4
308.005	540.2
308.397	541.2
308.789	542.2
309.181	545.2
309.573	545.8
309.965	536.6
310.357	524.4
310.749	535.6
311.142	524.8
311.534	520
311.926	529
312.319	526.4
312.711	522
313.104	539
313.497	536.2
313.889	561.4
314.282	535.2
314.675	549.8
315.068	538.4
315.461	532.8
315.854	552.8
316.247	538.4
316.64	529.2
317.033	534
317.405	531.4
317.798	522.6
318.192	531.8
318.585	519.4
318.979	535.8
319.372	530.4
319.766	532.6
320.16	537.6
320.553	533.8
320.947	544.6
321.341	524.8
321.735	532
322.129	516.8
322.523	549.8
322.917	523.4
323.311	531.8
323.705	529.8
324.099	531.8
324.494	537.8
324.888	544.8
325.282	526.2
325.677	538
326.071	538.6
326.466	535
326.861	530.4
327.255	539
327.65	537.8
328.045	540.8
328.44	526.4
328.835	528.8
329.23	527.6
329.625	541
330.02	521
330.415	537.2
330.81	526.8
331.206	529.8
331.601	522.8
331.996	532.4
332.37	543.8
332.766	518
333.161	550
333.557	518.6
333.953	534
334.348	747.2
334.744	529.4
335.14	525.4
335.536	521.2
335.932	531.8
336.328	527
336.724	540.8
337.12	521.4
337.516	527
337.913	524.4
338.309	538.2
338.705	523
339.102	534.2
339.498	521.6
339.895	543
340.291	525.2
340.688	537
341.085	522
341.481	525.4
341.878	528.6
342.275	541
342.672	516.8
343.069	523.4
343.466	510.8
343.842	532
344.239	526.2
344.636	525.8
345.033	520
345.431	523.8
345.828	532.8
346.225	519.2
346.623	554.8
347.02	529
347.418	533.8
347.816	534.6
348.213	519.2
348.611	531.4
349.009	525.6
349.407	535.8
349.805	518.2
350.203	519.8
350.601	529.6
350.999	522.4
351.397	573.6
351.795	528.6
352.193	531
352.57	529.2
352.969	538.2
353.367	523.2
353.766	524.8
354.164	522.6
354.563	530.4
354.961	527.6
355.36	519.4
355.759	518.8
356.158	520
356.557	514.8
356.956	508.6
357.355	508.6
357.754	525.8
358.153	528.6
358.552	543.2
358.951	523.4
359.35	531.4
359.75	518.6
360.149	518.6
360.527	514.8
360.926	518.6
361.326	523
361.726	517.6
362.125	516.4
362.525	531
362.925	520.6
363.325	522.8
363.724	522.6
364.124	514.6
364.524	510.8
364.924	521.4
365.324	528.8
365.725	515
366.125	527.8
366.525	524.8
366.904	516.4
367.304	513.6
367.705	533.2
368.105	522.8
368.506	514.2
368.906	525.6
369.307	525.2
369.708	526.2
370.108	512.4
370.509	531.4
370.91	513.4
371.311	515.4
371.712	518
372.113	518.4
372.514	513
372.894	523.6
373.295	516.6
373.696	530.2
374.097	527.4
374.499	546.6
374.9	518
375.301	524
375.703	523.4
376.105	510.2
376.506	519.8
376.908	519
377.309	517.6
377.711	518.8
378.113	519
378.493	525.6
378.895	514.8
379.297	527.6
379.699	508.8
380.102	522.4
380.504	522.8
380.906	519.4
381.308	543
381.71	521.2
382.113	519.2
382.515	523.4
382.918	518.2
383.299	515.8
383.701	519.2
384.104	519.8
384.507	505.4
384.909	526.8
385.312	509.6
385.715	513.8
386.118	516
386.521	508.8
386.924	525.2
387.327	509
387.709	510
388.112	501.8
388.515	527.2
388.918	519
389.322	527
389.725	514
390.129	535.2
390.532	519.8
390.936	514.6
391.339	515.8
391.743	520
392.125	511.8
392.529	525.8
392.933	530.8
393.337	514.4
393.74	517
394.144	518.6
394.548	515.2
394.953	523.6
395.357	525
395.761	515.4
396.144	517.8
396.548	512.6
396.952	510.8
397.357	521.4
397.761	514.8
398.166	514.4
398.57	513.6
398.975	510.8
399.379	520
399.763	561
400.168	522.8
400.572	521
400.977	518
401.382	532.8
401.787	527.4
402.192	527.6
402.597	532
403.002	509
403.386	533.4
403.791	530.8
404.197	509.6
404.602	519.4
405.007	517.8
405.413	518
405.818	521.6
406.224	514.2
406.608	520.4
407.014	516.8
407.42	532.4
407.825	515.6
408.231	526.4
408.637	522.6
409.043	526.4
409.449	511.4
409.834	511.8
410.24	517.4
410.646	529.2
411.052	527.4
411.458	520.8
411.865	533.8
412.271	527
412.677	518.6
413.062	521.4
413.469	510.6
413.875	533.4
414.282	533
414.689	528.4
415.095	535.2
415.502	509.4
415.888	524.4
416.294	508.4
416.701	560.2
417.108	519.6
417.515	535
417.923	519.8
418.33	532.4
418.715	529.8
419.123	527.6
419.53	520.6
419.937	522.4
420.345	540.2
420.752	511.4
421.16	524.8
421.546	524.4
421.953	526.2
422.361	512.2
422.769	520.8
423.177	517.4
423.585	540.6
423.992	529.8
424.379	523.8
424.787	521
425.195	534
425.603	523.6
426.011	525
426.419	527.8
426.806	524.2
427.214	516.8
427.623	528.8
428.031	535.8
428.44	525.8
428.848	524.4
429.235	529.2
429.644	521.2
430.053	522.4
430.461	533.4
430.87	539.4
431.279	530.4
431.666	516.6
432.075	521.8
432.484	529.8
432.893	530.6
433.302	531
433.711	558.2
434.099	532.8
434.508	526.4
434.918	526.2
435.327	546.6
435.737	541.8
436.125	542.4
436.534	546.2
436.944	557.2
437.353	555.6
437.763	567.2
438.173	553.4
438.561	570
438.971	550.4
439.381	565.2
439.791	577.4
440.201	560.6
440.589	582.6
440.999	589
441.409	590.8
441.819	585.2
442.23	601.2
442.619	607.8
443.029	607
443.439	613
443.85	617
444.26	626.8
444.649	628.8
445.06	617.4
445.471	630.6
445.881	634
446.292	651
446.682	650.6
447.092	632.8
447.503	677.6
447.914	647.6
448.325	646
448.715	656
449.126	643.6
449.537	656.2
449.948	660.2
450.338	659.4
450.75	664
451.161	660
451.572	666
451.984	661.4
452.374	662.6
452.786	663.2
453.197	670.2
453.609	677.6
453.999	663.6
454.411	667.8
454.823	679.2
455.235	683.8
455.647	671.8
456.037	680
456.449	666.8
456.862	685.8
457.274	689.2
457.665	672.2
458.077	688.8
458.489	707.2
458.902	678.2
459.293	686.4
459.705	692.2
460.118	685.8
460.53	694.2
460.921	685.4
461.334	687.8
461.747	699.4
462.16	696.6
462.551	713.6
462.964	694.4
463.377	692
463.79	701.4
464.182	704.4
464.595	698.4
465.008	705
465.421	713.2
465.813	707.6
466.226	710.4
466.64	703.6
467.053	747.4
467.445	717.2
467.859	729.8
468.272	716.6
468.686	721
469.078	711.8
469.492	702.8
469.906	715.2
470.298	723
470.712	718
471.126	739.8
471.54	704.4
471.933	717.2
472.347	720.4
472.761	718.4
473.175	713.8
473.568	722.4
473.982	719.2
474.397	722.4
474.79	726.8
475.204	726.8
475.619	725
476.033	716.2
476.426	723
476.841	726.2
477.256	729.6
477.649	720.6
478.064	711.4
478.479	719.2
478.872	720.4
479.287	701.4
479.702	710.4
480.118	711.2
480.511	707.4
480.927	712
481.342	705.6
481.736	715.4
482.151	711.4
482.566	715
482.96	721
483.376	716.6
483.792	701.2
484.186	715.8
484.602	700.8
485.017	704
485.412	708
485.827	709
486.243	717.4
486.638	726.2
487.054	711.4
487.47	718.4
487.865	695.6
488.281	700.6
488.697	705
489.092	700.4
489.508	690
489.925	709
490.32	683.8
490.736	703.8
491.153	701.4
491.548	701.2
491.964	713.6
492.381	686.6
492.776	702.6
493.193	700
493.61	688.8
494.006	685.4
494.422	693.6
494.84	679.4
495.235	701.8
495.652	692
496.069	686.4
496.465	676.8
496.883	678.4
497.3	692
497.696	673.4
498.113	680.8
498.509	671.4
498.927	670
499.344	669.8
499.741	672.4
500.158	674.4
500.576	677.8
500.973	679
501.39	663.6
501.787	662.2
502.205	666.8
502.623	661.6
503.02	646.4
503.438	656.8
503.856	651.4
504.253	668.6
504.671	667.4
505.068	651.2
505.486	656.4
505.905	672.2
506.302	656.4
506.72	670.4
507.118	639
507.536	650.6
507.955	645.2
508.352	652.4
508.771	643.6
509.169	650.6
509.587	635
510.006	641
510.404	627.8
510.823	633.2
511.221	640.6
511.64	640
512.038	645.6
512.457	645
512.877	629
513.275	627.4
513.694	633.4
514.092	627.8
514.512	633.6
514.91	625
515.33	624.2
515.749	629.2
516.148	621.4
516.568	631.8
516.966	630.6
517.386	619.8
517.785	616
518.205	619.2
518.603	606
519.024	611
519.444	609.8
519.843	621.8
520.263	625
520.662	615.8
521.082	609
521.481	609.8
521.902	602.4
522.301	602.8
522.722	609.2
523.121	612.6
523.542	599.6
523.963	598.8
524.362	607.6
524.783	604.8
525.183	602
525.604	607.4
526.003	601.2
526.425	592.4
526.824	598
527.246	599.8
527.646	597.6
528.067	595.8
528.467	595.4
528.888	594
529.289	589.4
529.71	586
530.11	587.6
530.532	585
530.932	574.2
531.354	572.2
531.755	606.2
532.176	594.4
532.577	587.8
532.999	582.2
533.4	576
533.822	595.6
534.223	584
534.645	569
535.046	579.6
535.468	582.2
535.869	599
536.292	572.8
536.693	603.8
537.115	581.8
537.516	573.4
537.939	573.4
538.34	597.8
538.742	588.2
539.165	577
539.566	572
539.989	570.6
540.391	572.6
540.814	574
541.216	580.2
541.639	576
542.041	582
542.464	569.4
542.866	569.2
543.268	557.4
543.691	576.2
544.093	577
544.517	578.6
544.919	564.4
545.343	581
545.745	562.6
546.147	572.4
546.571	559.4
546.974	558.8
547.398	572.4
547.8	581.2
548.224	566.6
548.627	561.8
549.03	562.6
549.454	552.8
549.857	554.4
550.281	558.6
550.684	561.4
551.087	570.6
551.512	566.6
551.915	570.4
552.34	559
552.743	547.4
553.146	559.6
553.571	558
553.975	564.4
554.399	543.6
554.803	597.4
555.207	551.4
555.632	546.2
556.036	552.2
556.461	547.4
556.865	554.8
557.268	546.8
557.694	546.2
558.098	555.2
558.502	546.8
558.927	539.6
559.332	551.2
559.736	543.6
560.162	549.4
560.566	540.8
560.992	545
561.396	547.8
561.801	540
562.227	554.4
562.631	541.6
563.036	553.2
563.462	552.2
563.867	541.8
564.272	535.6
564.698	543.6
565.103	537
565.508	558.2
565.935	539.2
566.34	531.6
566.745	547.8
567.172	528.6
567.577	549.6
567.982	550
568.409	537.4
568.815	528.2
569.22	535.8
569.626	538.4
570.053	526.2
570.459	544
570.865	543
571.292	546.6
571.698	529
572.104	529.8
572.531	531
572.937	540
573.343	537.2
573.75	534.8
574.177	534.6
574.583	543
574.99	535.6
575.396	543.2
575.824	526
576.231	529.6
576.637	527.2
577.065	554.6
577.472	525.2
577.879	526.6
578.286	539
578.714	520.6
579.121	526
579.528	530.4
579.935	536.6
580.364	527.6
580.771	516.8
581.178	523.4
581.585	534.2
582.014	527.4
582.421	516.4
582.829	520.4
583.236	529.2
583.644	522.4
584.073	523
584.481	519.2
584.889	521.4
585.296	525.8
585.726	530
586.134	517.2
586.542	516.2
586.95	537.2
587.358	513.4
587.787	524.6
588.196	519.8
588.604	522
589.012	526
589.421	515.8
589.851	520.6
590.259	535.8
590.668	519
591.076	549.6
591.485	519.8
591.894	526.4
592.324	525.8
592.733	528.4
593.142	510.4
593.551	512.6
593.96	543.4
594.369	511.2
594.8	513.6
595.209	518.4
595.618	500.8
596.028	509.8
596.437	503.2
596.847	518.6
597.256	515.4
597.687	522
598.097	513
598.507	508.6
598.917	512.4
599.327	519.6
599.736	514
600.146	525.2
600.556	515.4
600.988	521
601.398	505.6
601.808	518.4
602.219	503.4
602.629	520.6
603.039	513.4
603.45	533.6
603.86	518.6
604.271	530
604.703	515
605.114	511.8
605.525	514.8
605.935	518.2
606.346	530.6
606.757	517.8
607.168	513.2
607.579	506.2
607.99	508.6
608.402	520.8
608.813	515
609.224	510.6
609.636	506
610.047	506.6
610.48	513.6
610.892	513.6
611.303	510.6
611.715	512.6
612.127	508.2
612.539	510.4
612.95	508.2
613.362	498.6
613.774	499.6
614.186	510.8
614.599	512.8
615.011	513
615.423	511.2
615.835	505.8
616.248	500
616.66	505
617.073	503.4
617.485	503.4
617.898	512
618.311	501
618.723	497.2
619.136	526.2
619.549	519.4
619.962	525
620.375	512.2
620.788	511.4
621.201	496.2
621.614	511.6
622.028	512.4
622.441	508.8
622.854	521.4
623.268	509.4
623.681	515.2
624.095	513.4
624.509	517.4
624.922	512.6
625.336	500.4
625.728	505
626.142	518.8
626.556	524.2
626.97	520.6
627.384	507.8
627.799	511
628.213	518
628.627	512.6
629.041	502.2
629.456	507.6
629.87	509.2
630.285	512.6
630.699	511.6
631.093	501
631.507	509.6
631.922	510.6
632.337	527
632.752	506.2
633.167	501.4
633.582	513.4
633.997	503
634.412	502.6
634.806	507.2
635.221	504.8
635.637	512.4
636.052	498.2
636.468	500.2
636.883	521
637.299	501.4
637.715	497.4
638.109	504.6
638.525	496.8
638.941	517.4
639.357	503.4
639.773	519.2
640.189	507.8
640.584	503.6
641	507.6
641.416	504.4
641.832	509.2
642.249	507.4
642.665	507.8
643.06	508
643.477	514.6
643.894	494.4
644.31	499.4
644.727	506.6
645.123	505.2
645.54	495.8
645.957	506.4
646.374	516.4
646.77	503.6
647.187	530.2
647.604	508.4
648.021	497.6
648.439	499.8
648.835	515.6
649.252	502
649.67	492.8
650.088	499.4
650.484	514.4
650.902	509.4
651.32	505.6
651.738	504.2
652.134	510.4
652.552	514
652.971	504.6
653.389	505.2
653.786	507.6
654.204	498.4
654.622	499.4
655.019	496.4
655.438	506.6
655.857	507.2
656.275	497.6
656.673	496.4
657.091	512.4
657.51	495.8
657.908	508.6
658.327	510.8
658.746	488.8
659.144	503.4
659.563	514.4
659.982	504
660.38	498.4
660.8	505.8
661.219	507.2
661.617	505.8
662.037	501
662.457	514
662.855	483
663.275	523.4
663.695	500.4
664.094	497
664.514	501.6
664.934	490.2
665.333	499.4
665.753	496
666.152	493.6
666.572	495.8
666.993	508
667.392	495.8
667.812	499
668.212	500.4
668.632	508.6
669.053	497.6
669.453	510.4
669.874	506
670.273	505.6
670.694	487.6
671.116	501
671.515	507.2
671.937	501.2
672.337	501
672.758	495
673.158	504.8
673.58	499
673.98	501.8
674.402	508.6
674.824	493.2
675.224	496.4
675.646	495.2
676.047	498.8
676.469	498.8
676.869	499.2
677.292	506.8
677.693	491.2
678.115	497
678.516	507.8
678.939	501.4
679.34	496.8
679.762	499.8
680.164	507.8
680.586	497.4
680.988	508.2
681.411	524.4
681.812	500
682.236	494.6
682.637	488.2
683.061	493.4
683.462	495.4
683.864	497.4
684.288	500.6
684.69	491.8
685.114	505.6
685.516	504
685.94	496.2
686.342	509.8
686.766	490.6
687.168	491.6
687.571	508.4
687.995	496.8
688.398	489.2
688.822	497.4
689.225	518.4
689.628	517.6
690.052	499
690.456	506.2
690.88	497.8
691.284	488.2
691.687	506
692.112	492.6
692.515	488.6
692.919	499
693.344	498.6
693.747	498
694.173	491.6
694.577	504.4
694.98	497
695.406	503.2
695.81	505.6
696.214	502.8
696.64	498.2
697.044	507
697.448	504.2
697.874	499.6
698.279	503
698.684	485.4
699.11	488.4
699.514	500.8
699.919	495.8
700.324	491.6
700.75	497.4
701.156	498.8
701.561	510.6
701.987	505.4
702.393	508.8
702.798	502.4
703.203	500.4
703.63	489.4
704.036	489.2
704.442	506.6
704.847	498
705.274	490.4
705.68	500.8
706.086	499.8
706.492	486.8
706.92	498.6
707.326	501
707.732	500.6
708.139	490.8
708.545	485.8
708.973	496
709.38	503.6
709.786	484.6
710.193	505.6
710.6	494
711.028	489.8
711.435	495.2
711.842	494.2
712.249	490.8
712.656	490.8
713.064	506.4
713.492	487.2
713.9	491.4
714.307	496
714.715	485.6
715.123	501.8
715.53	497.2
715.938	500.4
716.367	489.2
716.775	497.6
717.184	490.4
717.592	496.2
718	501.8
718.408	521.8
718.816	525
719.225	496.8
719.633	496.8
720.042	481.8
720.472	496
720.881	511.4
721.29	496.2
721.699	492
722.108	501.2
722.517	489.8
722.926	489
723.335	495.2
723.744	496.4
724.154	504
724.563	502
724.973	498.8
725.382	496.2
725.792	498
726.202	484.8
726.612	502.8
727.022	490.4
727.432	486.4
779.813	489
780.223	531.2
780.634	494
781.044	492.6
781.454	494.4
781.865	501.4
782.276	485.4
782.686	494.8
783.097	497.8
783.508	493.6
783.919	497.4
784.33	504.6
784.741	506.2
785.152	489.6
785.563	483.6
785.974	483.8
786.386	505.6
786.776	491.4
787.188	499.8
787.599	485
788.011	498.6
788.423	506.8
788.835	490.2
789.247	489.2
789.659	486.4
790.071	491
790.483	532
790.874	486.6
791.286	501.4
791.699	482.8
792.111	494.2
792.524	494
792.937	488.4
793.349	490.4
793.741	491.2
794.154	492.6
794.567	505.2
794.98	498.6
795.393	486
795.785	510
796.198	492.8
796.612	490.2
797.026	491.2
797.439	484.8
797.831	488.4
798.245	483.2
798.659	489.4
799.073	491.2
799.487	490.2
799.88	492
800.294	493.2
800.708	492.4
801.123	492.6
801.516	510
801.93	486.6
802.345	481.8
802.76	491.8
803.153	500.6
803.568	500
803.983	496.6
804.377	494.8
804.792	482.4
805.207	484.4
805.601	498.6
806.016	520.4
806.432	488.6
806.826	513.8
807.242	505.4
807.658	490.8
808.052	493.2
808.468	491.6
808.884	489.8
809.279	498.2
809.695	502
810.111	506.6
810.506	492.8
810.922	505.4
811.339	483
811.734	498.6
812.151	485
812.546	488.6
812.963	488.6
813.38	491.8
813.776	489.4
814.193	513.6
814.589	483
815.006	488.4
815.402	485.6
815.82	480.2
816.237	497.4
816.633	494.2
817.051	488.4
817.448	495.6
817.866	486
818.262	509.2
818.68	497
819.077	487
819.495	500.2
819.892	519
820.311	486.2
820.708	494.6
821.127	494.4
821.524	500.4
821.943	491.8
822.34	507.8
822.759	498.4
823.157	484
823.576	502.8
823.974	494
824.393	572
824.791	493.6
825.189	488
825.609	486.6
826.007	495
826.427	486.4
826.826	489.8
827.246	503
827.644	485.4
828.043	508.8
828.463	490.6
828.862	497
829.261	492.6
829.682	482.6
830.081	494
830.502	482.6
830.901	491.4
831.301	487
831.722	482
832.121	491.6
832.521	487.8
832.943	495.4
833.342	489.6
833.742	490.2
834.164	490.2
834.564	482
834.965	493.4
835.386	491.4
835.787	491.4
836.188	488.2
836.588	491
837.01	489.8
837.411	486.4
837.812	497.8
838.213	500.2
838.636	483.2
839.037	547.4
839.438	492.2
839.84	494.8
840.263	496.8
840.664	495
841.066	495.4
841.468	492.8
841.891	486.2
842.293	500.8
842.695	497.8
843.098	496.6
843.5	486.8
843.902	497
844.326	493.8
844.729	501
845.131	500
845.534	495.6
845.937	499.2
846.34	506.6
846.764	488.8
847.167	490.4
847.571	485.2
847.974	491.8
848.377	485
848.781	536.4
849.184	498.2
849.588	489.4
849.992	493.2
850.396	491.2
850.821	510.8
851.225	496.2
851.63	491.8
852.034	505.6
852.438	491
852.843	553.4
853.247	487.2
853.652	489
854.057	502.6
854.462	492.6
854.867	493.6
855.272	513.4
855.677	493.8
856.082	489.6
856.487	485.8
