#lambda/nm	C1
208.295	465.4
208.67	433.8
209.045	395.2
209.419	398.4
209.794	531
210.169	519
210.544	620.8
210.919	530.8
211.295	517.8
211.67	527.4
212.045	524
212.421	524
212.796	548.4
213.172	527.2
213.547	522.6
213.923	528
214.299	511.8
214.675	533.8
215.051	533.2
215.427	532.6
215.803	540
216.179	534.6
216.555	518
216.932	533.2
217.308	533.6
217.684	528.4
218.061	533
218.438	527.8
218.814	526.4
219.191	536.2
219.568	516.8
219.945	521
220.322	541.6
220.699	531.6
221.076	534.6
221.453	522
221.83	524.6
222.208	519
222.585	524.6
222.962	529.4
223.34	531.6
223.717	534.8
224.095	522.8
224.473	525.6
224.851	528.2
225.229	519.6
225.607	548.4
225.985	527.2
226.363	528
226.741	530.2
227.119	525.2
227.497	538.6
227.876	526.4
228.254	540.8
228.633	535.8
229.011	530.6
229.39	532
229.769	524.2
230.148	531
230.527	541.6
230.905	526
231.284	528
231.664	525.8
232.043	532
232.422	531
232.801	526.6
233.181	527.8
233.56	526.8
233.94	523.8
234.319	517.4
234.699	528.4
235.079	557.2
235.458	561.2
235.838	541
236.218	526.8
236.598	517
236.978	522.6
237.358	530.4
237.738	524.4
238.119	532.2
238.499	524
238.88	531
239.26	540.2
239.641	519.2
240.021	527.2
240.402	529
240.783	525.8
241.163	519
241.544	524.2
241.925	526.8
242.306	533.4
242.687	524.2
243.069	529.8
243.45	540
243.831	532.6
244.212	513.2
244.594	554.8
244.975	530.2
245.357	531.4
245.739	522
246.12	531.6
246.502	546.6
246.884	532.4
247.266	532.8
247.648	532.8
248.03	545.4
248.412	526.2
248.794	525.8
249.176	526.2
249.559	537.6
249.941	524.6
250.323	519.8
250.706	516.6
251.089	527
251.471	531
251.854	534
252.237	527.6
252.62	538.8
253.002	527
253.385	519.6
253.769	537.4
254.152	525.6
254.535	521.8
254.918	521.6
255.301	519
255.685	525.6
256.068	516
256.452	548
256.835	533
257.219	530.4
257.603	532
257.986	514.4
258.37	539.6
258.754	519.4
259.138	526.2
259.522	532.6
259.906	528.2
260.29	531.2
260.675	529.6
261.059	525.8
261.443	513.6
261.828	534.2
262.212	527.4
262.597	523
262.981	531.4
263.366	531.6
263.751	530.2
264.136	530.4
264.521	526.6
264.906	522.2
265.291	539
265.676	527
266.061	532.6
266.446	539.2
266.831	530.8
267.217	549
267.602	529.2
267.987	528.2
268.373	522
268.759	533.6
269.144	539
269.53	528.8
269.916	528
270.302	528.4
270.688	529.2
271.074	527
271.46	546.2
271.846	565.4
272.232	528.2
272.618	520
273.004	520.4
273.391	547.6
273.777	536
274.164	523.2
274.55	540
274.937	527
275.324	528.6
275.71	532
276.097	532.4
276.484	525.6
276.871	529.6
277.258	537.2
277.645	523
278.032	528.6
278.419	522.8
278.807	527.6
279.194	521.4
279.581	526.6
279.969	529.4
280.356	532.6
280.744	529.6
281.131	554.4
281.519	533.4
281.907	526
282.295	523.6
282.682	534.2
283.07	527.6
283.458	535.8
283.846	532
284.235	536.4
284.623	532
285.011	523.6
285.399	532.4
285.788	524
286.176	521.4
286.565	538.8
286.953	524.6
287.342	519.4
287.731	522
288.119	515.2
288.508	530.6
288.897	527.4
289.286	516
289.675	536.4
290.064	540.2
290.453	527.2
290.821	535.4
291.21	538.4
291.599	518.2
291.989	532
292.378	531.2
292.768	546.4
293.157	527.4
293.547	534.2
293.936	521.4
294.326	524.4
294.716	527.8
295.106	523.4
295.496	531
295.886	541.6
296.276	522.2
296.666	516
297.056	523.6
297.446	522
297.836	539
298.227	527
298.617	534.2
299.008	537
299.398	522
299.789	523.4
300.179	530
300.57	544.6
300.961	523.2
301.352	532.6
301.742	527.8
302.133	525.6
302.524	525.6
302.915	531
303.307	519.8
303.698	532.4
304.089	533.2
304.48	524.8
304.872	531.8
305.263	525.6
305.655	521
306.046	531.4
306.438	533.4
306.829	526.8
307.221	538.8
307.613	521
308.005	526.6
308.397	537.4
308.789	548.8
309.181	542.2
309.573	539.6
309.965	530.6
310.357	528
310.749	538.2
311.142	520.8
311.534	520.8
311.926	536.6
312.319	533.4
312.711	517.2
313.104	540.6
313.497	527
313.889	558.6
314.282	539.4
314.675	540.2
315.068	530.8
315.461	529.2
315.854	540.2
316.247	529.6
316.64	531.6
317.033	531.8
317.405	531.6
317.798	530.8
318.192	541.6
318.585	524.2
318.979	529.2
319.372	523.8
319.766	529
320.16	540.8
320.553	541.6
320.947	540.8
321.341	525.2
321.735	531.4
322.129	519.8
322.523	553.8
322.917	521.8
323.311	539.6
323.705	532.6
324.099	527.6
324.494	539.8
324.888	533
325.282	528
325.677	541.4
326.071	537.6
326.466	535.2
326.861	533.4
327.255	537.4
327.65	536
328.045	542.6
328.44	538.4
328.835	522.8
329.23	523.6
329.625	553.6
330.02	536.6
330.415	550.8
330.81	530.6
331.206	531
331.601	529.4
331.996	538.2
332.37	543.2
332.766	516.4
333.161	548.2
333.557	520.6
333.953	534
334.348	745.8
334.744	532.4
335.14	524.4
335.536	532.2
335.932	544
336.328	525.4
336.724	531.2
337.12	521.8
337.516	526
337.913	524.6
338.309	544.4
338.705	533
339.102	530
339.498	526.4
339.895	543.2
340.291	524.2
340.688	533.4
341.085	522.8
341.481	527
341.878	531.8
342.275	542.8
342.672	517.8
343.069	527.4
343.466	513.4
343.842	532
344.239	520.8
344.636	522.6
345.033	524.8
345.431	515.8
345.828	527.6
346.225	524.4
346.623	556.6
347.02	527.2
347.418	536.4
347.816	537.2
348.213	518.8
348.611	539
349.009	518.6
349.407	532.8
349.805	518
350.203	515.4
350.601	527.6
350.999	520
351.397	572.8
351.795	530.2
352.193	536.2
352.57	526.2
352.969	528.2
353.367	512.2
353.766	512.6
354.164	524
354.563	532
354.961	520.8
355.36	519.4
355.759	520.4
356.158	516.6
356.557	525
356.956	517.6
357.355	515.4
357.754	531.2
358.153	531.8
358.552	540.6
358.951	522.4
359.35	533.6
359.75	522.2
360.149	515.2
360.527	504.8
360.926	515.6
361.326	520.8
361.726	517.6
362.125	515.6
362.525	528.4
362.925	525.6
363.325	523.2
363.724	525.4
364.124	518
364.524	516.2
364.924	520.2
365.324	521.2
365.725	505.6
366.125	526.6
366.525	519.4
366.904	517.4
367.304	507.6
367.705	529.6
368.105	530.4
368.506	521.4
368.906	526.6
369.307	524.4
369.708	523.2
370.108	512.2
370.509	529.4
370.91	519.2
371.311	518.6
371.712	525
372.113	527.2
372.514	514
372.894	519.8
373.295	514.6
373.696	534.4
374.097	528.8
374.499	549
374.9	514.2
375.301	509.6
375.703	529.2
376.105	509.8
376.506	524.6
376.908	528.2
377.309	518.6
377.711	511.8
378.113	515
378.493	514.8
378.895	510.8
379.297	520.4
379.699	514.8
380.102	518.4
380.504	517.2
380.906	508.6
381.308	540.8
381.71	515.6
382.113	526
382.515	520.4
382.918	519.6
383.299	518
383.701	525.4
384.104	521
384.507	502.6
384.909	519.4
385.312	504
385.715	514.2
386.118	513.8
386.521	517
386.924	528.2
387.327	514.8
387.709	510.8
388.112	513.4
388.515	510.4
388.918	517.8
389.322	520.8
389.725	505.4
390.129	531
390.532	518.8
390.936	516.4
391.339	508.2
391.743	518.6
392.125	517
392.529	524.6
392.933	531.4
393.337	515.2
393.74	512.8
394.144	517.4
394.548	510.6
394.953	516.6
395.357	518.6
395.761	517.2
396.144	517.2
396.548	523.6
396.952	521
397.357	518.6
397.761	515.4
398.166	515.8
398.57	515.4
398.975	508.2
399.379	522.4
399.763	561
400.168	529.8
400.572	517.8
400.977	511.2
401.382	531.6
401.787	528.8
402.192	533.2
402.597	529.8
403.002	511.4
403.386	528
403.791	526.2
404.197	515.4
404.602	519.8
405.007	523.6
405.413	523.2
405.818	512
406.224	518.6
406.608	517.6
407.014	516
407.42	532
407.825	524
408.231	530.6
408.637	524.6
409.043	533
409.449	516.4
409.834	513.6
410.24	528.4
410.646	537.6
411.052	533.8
411.458	528
411.865	529
412.271	528.4
412.677	518.4
413.062	529
413.469	515.6
413.875	542.4
414.282	535.8
414.689	517.2
415.095	528.4
415.502	512.6
415.888	532.8
416.294	513
416.701	558.6
417.108	519.8
417.515	526
417.923	520.8
418.33	541
418.715	529
419.123	526
419.53	521.6
419.937	518
420.345	532.2
420.752	514
421.16	529.6
421.546	517
421.953	526.6
422.361	515.8
422.769	521.2
423.177	515.4
423.585	538.2
423.992	538.8
424.379	526.6
424.787	528.8
425.195	536.8
425.603	527.4
426.011	532.8
426.419	536.8
426.806	525.6
427.214	525
427.623	531.2
428.031	545.8
428.44	525.6
428.848	536.6
429.235	552
429.644	546.2
430.053	541.6
430.461	561.2
430.87	573.2
431.279	572
431.666	562.6
432.075	587.6
432.484	600.8
432.893	617
433.302	624.2
433.711	674.8
434.099	655.8
434.508	661
434.918	687.4
435.327	723.4
435.737	733.6
436.125	756.6
436.534	792
436.944	795.6
437.353	829
437.763	861.8
438.173	849.6
438.561	886.6
438.971	897.6
439.381	925.8
439.791	961.6
440.201	967.6
440.589	995.2
440.999	1014.4
441.409	1029.6
441.819	1038.8
442.23	1061.6
442.619	1095.2
443.029	1100.4
443.439	1099.2
443.85	1119.6
444.26	1122
444.649	1145
445.06	1163.6
445.471	1165.4
445.881	1186.2
446.292	1195.8
446.682	1226.6
447.092	1203
447.503	1257.4
447.914	1238.8
448.325	1211.4
448.715	1238.8
449.126	1231.6
449.537	1251.8
449.948	1244.4
450.338	1261.2
450.75	1278.6
451.161	1284
451.572	1297.6
451.984	1276.6
452.374	1276
452.786	1286.4
453.197	1296.4
453.609	1310.2
453.999	1282.6
454.411	1296
454.823	1305
455.235	1320.4
455.647	1307.8
456.037	1326.2
456.449	1319.6
456.862	1326.4
457.274	1330.2
457.665	1305.8
458.077	1326.8
458.489	1339.8
458.902	1334.8
459.293	1319.4
459.705	1309.8
460.118	1310.2
460.53	1331.4
460.921	1332.8
461.334	1341.6
461.747	1319.2
462.16	1333.2
462.551	1359
462.964	1328.4
463.377	1320.8
463.79	1322.2
464.182	1345.2
464.595	1330.2
465.008	1337
465.421	1327.2
465.813	1331.2
466.226	1342.6
466.64	1346.4
467.053	1363
467.445	1355.8
467.859	1372.8
468.272	1360
468.686	1368.8
469.078	1363
469.492	1346.8
469.906	1345.6
470.298	1354.8
470.712	1325.4
471.126	1356.6
471.54	1326.2
471.933	1327.8
472.347	1332.4
472.761	1320.2
473.175	1310.6
473.568	1324.6
473.982	1330.8
474.397	1313.6
474.79	1304.4
475.204	1303.2
475.619	1295.4
476.033	1300.2
476.426	1287.4
476.841	1294
477.256	1298.4
477.649	1291
478.064	1286
478.479	1276
478.872	1286.4
479.287	1270.4
479.702	1283
480.118	1272.4
480.511	1260.6
480.927	1270.6
481.342	1253
481.736	1263.8
482.151	1237.4
482.566	1245.8
482.96	1238.6
483.376	1252.6
483.792	1233.4
484.186	1230.8
484.602	1218.8
485.017	1222.4
485.412	1205.2
485.827	1218.2
486.243	1212.6
486.638	1210.8
487.054	1201.4
487.47	1211.4
487.865	1184.8
488.281	1181.4
488.697	1174.2
489.092	1176.6
489.508	1175.8
489.925	1167.2
490.32	1154.4
490.736	1168.6
491.153	1154
491.548	1140.6
491.964	1138.6
492.381	1119
492.776	1133.6
493.193	1135.8
493.61	1128
494.006	1117.2
494.422	1107
494.84	1097.2
495.235	1120.4
495.652	1105.6
496.069	1103.6
496.465	1089.6
496.883	1085.8
497.3	1094
497.696	1066.6
498.113	1082.2
498.509	1053.4
498.927	1040
499.344	1041.6
499.741	1047.8
500.158	1055.8
500.576	1061
500.973	1041.8
501.39	1014.2
501.787	1016
502.205	1031.6
502.623	1008.8
503.02	1001
503.438	996.2
503.856	983.2
504.253	991.8
504.671	988
505.068	974.2
505.486	968.8
505.905	993.6
506.302	971.4
506.72	969.4
507.118	959.2
507.536	958.6
507.955	948.4
508.352	953.4
508.771	948.2
509.169	951.6
509.587	931.2
510.006	932.2
510.404	922.2
510.823	923.2
511.221	912.2
511.64	909.6
512.038	920.4
512.457	896.8
512.877	895.2
513.275	897.4
513.694	895.8
514.092	891.8
514.512	898.6
514.91	890.6
515.33	875.2
515.749	880.2
516.148	880.6
516.568	870.2
516.966	860.8
517.386	855.6
517.785	849
518.205	851.4
518.603	835
519.024	834.4
519.444	826.8
519.843	842
520.263	846.4
520.662	838.2
521.082	827
521.481	821.8
521.902	821.8
522.301	812.2
522.722	809
523.121	812.8
523.542	802.6
523.963	797
524.362	803.8
524.783	793.4
525.183	796.8
525.604	785
526.003	781.2
526.425	780.2
526.824	784.8
527.246	775.8
527.646	779.8
528.067	771.6
528.467	772.8
528.888	761.4
529.289	759.2
529.71	757.8
530.11	749.8
530.532	749.4
530.932	740.4
531.354	742.2
531.755	775.6
532.176	740.6
532.577	734.6
532.999	738.8
533.4	720.8
533.822	736.2
534.223	734.8
534.645	731.4
535.046	725
535.468	722.2
535.869	730.8
536.292	721.2
536.693	741.8
537.115	715.4
537.516	718.8
537.939	708.2
538.34	725.2
538.742	715.4
539.165	704.6
539.566	699.4
539.989	699.2
540.391	691
540.814	690.2
541.216	705.8
541.639	692.2
542.041	696.2
542.464	683.6
542.866	690.6
543.268	678.4
543.691	695.6
544.093	686.2
544.517	691.2
544.919	681.2
545.343	688
545.745	665.8
546.147	677
546.571	666.6
546.974	662.4
547.398	659.4
547.8	672.4
548.224	661.4
548.627	651.6
549.03	666.6
549.454	662.2
549.857	645.4
550.281	645.8
550.684	646.6
551.087	660
551.512	647.4
551.915	643.4
552.34	643.4
552.743	645.2
553.146	641.4
553.571	637.2
553.975	655.4
554.399	634.2
554.803	670.2
555.207	625
555.632	619.8
556.036	625.6
556.461	618
556.865	632.6
557.268	619.4
557.694	620
558.098	625.8
558.502	615.8
558.927	609.6
559.332	619.2
559.736	608.4
560.162	612.6
560.566	608.8
560.992	613
561.396	615.2
561.801	610.6
562.227	606.6
562.631	614
563.036	594.6
563.462	610.2
563.867	607.8
564.272	585.8
564.698	610.2
565.103	596.6
565.508	615.2
565.935	602.6
566.34	594.6
566.745	608.2
567.172	594.8
567.577	606.8
567.982	601.6
568.409	594
568.815	586.2
569.22	576.6
569.626	584
570.053	572.8
570.459	577.8
570.865	584
571.292	589.6
571.698	578.4
572.104	569.8
572.531	562.4
572.937	578.8
573.343	582.4
573.75	562.2
574.177	565
574.583	582.4
574.99	569.4
575.396	574.4
575.824	568
576.231	570.6
576.637	560.4
577.065	585.6
577.472	565.8
577.879	575.4
578.286	571.2
578.714	560.6
579.121	567.8
579.528	571.2
579.935	571.6
580.364	566.6
580.771	555
581.178	552.6
581.585	557.2
582.014	565
582.421	557.4
582.829	561.8
583.236	556.8
583.644	548.6
584.073	553.6
584.481	553.8
584.889	547
585.296	559.8
585.726	557
586.134	550.2
586.542	552.8
586.95	563.8
587.358	542.6
587.787	545.4
588.196	540.6
588.604	539.4
589.012	549.2
589.421	541
589.851	545
590.259	554.8
590.668	541.8
591.076	580.2
591.485	544.8
591.894	544.6
592.324	551.8
592.733	546.2
593.142	524.8
593.551	537.2
593.96	581.2
594.369	534.2
594.8	527.4
595.209	538
595.618	524.2
596.028	530.8
596.437	531.4
596.847	532
597.256	534
597.687	542.2
598.097	530.8
598.507	533.6
598.917	547.6
599.327	540
599.736	531.4
600.146	542.6
600.556	529.6
600.988	543.4
601.398	531.6
601.808	535.8
602.219	518
602.629	526.6
603.039	534.6
603.45	555
603.86	535
604.271	540.4
604.703	531.4
605.114	524.2
605.525	535.4
605.935	528.2
606.346	549.6
606.757	527
607.168	530.2
607.579	523.4
607.99	527.6
608.402	521.4
608.813	528.4
609.224	511.8
609.636	512.6
610.047	517.6
610.48	525.6
610.892	532
611.303	529.2
611.715	522
612.127	521.4
612.539	523.8
612.95	534.2
613.362	522.4
613.774	522.8
614.186	516.2
614.599	528.6
615.011	526.8
615.423	527.4
615.835	522.6
616.248	522.2
616.66	522.6
617.073	521
617.485	523
617.898	527.2
618.311	526.4
618.723	521.6
619.136	543.8
619.549	520.2
619.962	544.4
620.375	518.4
620.788	522.8
621.201	517.2
621.614	527
622.028	523.6
622.441	523.2
622.854	532.6
623.268	519.4
623.681	529.4
624.095	527.2
624.509	528.2
624.922	528.8
625.336	517
625.728	527.6
626.142	533.2
626.556	532.8
626.97	525.6
627.384	508
627.799	517.2
628.213	530.4
628.627	526.8
629.041	516.2
629.456	518
629.87	520.6
630.285	524.2
630.699	520.6
631.093	512
631.507	518
631.922	523
632.337	526
632.752	510
633.167	521.6
633.582	520.2
633.997	511.6
634.412	512.8
634.806	520.2
635.221	511.2
635.637	522.2
636.052	507.2
636.468	525
636.883	531.8
637.299	514.4
637.715	514
638.109	517
638.525	513.6
638.941	524.4
639.357	511.4
639.773	520.8
640.189	510.6
640.584	513.8
641	521
641.416	506.4
641.832	513.6
642.249	508.6
642.665	514.8
643.06	509.8
643.477	524.4
643.894	500.8
644.31	508.4
644.727	512.4
645.123	513.2
645.54	511.8
645.957	517.4
646.374	523.6
646.77	504.8
647.187	531.4
647.604	510.2
648.021	500.4
648.439	506.4
648.835	511
649.252	510.2
649.67	511.2
650.088	512.2
650.484	515.6
650.902	509
651.32	514.4
651.738	510.2
652.134	516.4
652.552	527
652.971	514.8
653.389	513
653.786	523.4
654.204	516.8
654.622	505.2
655.019	506.2
655.438	513.8
655.857	507.8
656.275	517.2
656.673	505.2
657.091	510.8
657.51	504.8
657.908	515.4
658.327	525
658.746	498
659.144	505.6
659.563	520.2
659.982	511.4
660.38	500.8
660.8	509.6
661.219	518
661.617	505.2
662.037	502.8
662.457	523.2
662.855	497.2
663.275	529
663.695	507
664.094	503.4
664.514	499.6
664.934	501
665.333	508.2
665.753	496
666.152	500.8
666.572	494.6
666.993	515.8
667.392	494.4
667.812	501
668.212	493.6
668.632	510.8
669.053	494.2
669.453	503.8
669.874	506
670.273	505.4
670.694	494
671.116	507.4
671.515	516.6
671.937	503
672.337	506.4
672.758	502.2
673.158	504.6
673.58	496.2
673.98	500.8
674.402	509.4
674.824	504.4
675.224	492.4
675.646	493.4
676.047	494
676.469	497.4
676.869	503.8
677.292	505.4
677.693	499.6
678.115	496.6
678.516	503.2
678.939	506.2
679.34	502.2
679.762	509
680.164	512.4
680.586	501
680.988	508.6
681.411	524.8
681.812	493.8
682.236	495.8
682.637	498
683.061	497
683.462	498.4
683.864	495
684.288	500.2
684.69	490
685.114	514.2
685.516	505.2
685.94	495.2
686.342	510
686.766	492.2
687.168	495.8
687.571	514
687.995	509.6
688.398	492.8
688.822	499.4
689.225	510.8
689.628	518.2
690.052	502
690.456	505.6
690.88	502.6
691.284	493.6
691.687	500.6
692.112	488.8
692.515	490.8
692.919	494.8
693.344	507.6
693.747	502.4
694.173	495.4
694.577	500.4
694.98	502.8
695.406	499.6
695.81	501
696.214	504.4
696.64	503.8
697.044	493.6
697.448	502.2
697.874	502.2
698.279	491.8
698.684	492.2
699.11	495.4
699.514	500
699.919	490.6
700.324	490.6
700.75	495.2
701.156	500.8
701.561	510
701.987	501.2
702.393	509.4
702.798	509.2
703.203	495.6
703.63	497.8
704.036	499
704.442	498.8
704.847	489.6
705.274	497.6
705.68	497.8
706.086	507.8
706.492	499.8
706.92	496.4
707.326	503.2
707.732	490
708.139	495.8
708.545	490.4
708.973	493.8
709.38	496.2
709.786	488
710.193	509.8
710.6	497.2
711.028	492.8
711.435	503.4
711.842	500.6
712.249	489.8
712.656	497.2
713.064	502.2
713.492	490
713.9	499
714.307	506.2
714.715	496.2
715.123	500
715.53	495.4
715.938	502.8
716.367	498.8
716.775	499.2
717.184	491
717.592	496
718	502.6
718.408	526.2
718.816	534.8
719.225	499.6
719.633	498.8
720.042	487.2
720.472	503.2
720.881	515.4
721.29	507.4
721.699	488
722.108	505
722.517	503.6
722.926	501.4
723.335	505
723.744	501
724.154	502.4
724.563	493
724.973	506
725.382	489.2
725.792	493
726.202	490.8
726.612	500.6
727.022	498.2
727.432	494.8
779.813	499.8
780.223	528.6
780.634	493
781.044	497.4
781.454	492.8
781.865	503.6
782.276	491.2
782.686	507.2
783.097	493
783.508	492
783.919	497
784.33	501.6
784.741	508.6
785.152	494.2
785.563	487
785.974	489.6
786.386	505.6
786.776	488.6
787.188	503.8
787.599	492
788.011	495.8
788.423	502.8
788.835	489.8
789.247	488.2
789.659	487.6
790.071	490
790.483	531.4
790.874	492
791.286	495.4
791.699	488.8
792.111	487.8
792.524	493.4
792.937	494
793.349	481.6
793.741	487.6
794.154	493.2
794.567	497.4
794.98	492.6
795.393	487.6
795.785	502
796.198	493.8
796.612	494
797.026	488
797.439	482
797.831	499.8
798.245	489.2
798.659	490.2
799.073	490.8
799.487	491.2
799.88	495.4
800.294	493.6
800.708	506.8
801.123	495.6
801.516	505.6
801.93	479.6
802.345	482.6
802.76	492.4
803.153	500.2
803.568	506.2
803.983	503.2
804.377	498.8
804.792	480.4
805.207	481.8
805.601	493.4
806.016	523
806.432	483.4
806.826	519
807.242	506.8
807.658	497.4
808.052	487
808.468	492.4
808.884	493.4
809.279	491.2
809.695	497.4
810.111	509.6
810.506	498.4
810.922	513.6
811.339	492.4
811.734	504.8
812.151	481.4
812.546	482.4
812.963	494.2
813.38	502.6
813.776	488.2
814.193	514.2
814.589	481.6
815.006	495.6
815.402	487.8
815.82	484
816.237	482
816.633	489
817.051	484.8
817.448	491.4
817.866	485.4
818.262	504.8
818.68	487.8
819.077	480.8
819.495	492.6
819.892	526
820.311	485
820.708	488.2
821.127	489.2
821.524	497.6
821.943	491.8
822.34	505
822.759	499.6
823.157	497.8
823.576	494.8
823.974	494.4
824.393	571.6
824.791	491.2
825.189	487
825.609	493.2
826.007	496.2
826.427	482
826.826	493.4
827.246	498.6
827.644	473.4
828.043	493.2
828.463	485.8
828.862	495.2
829.261	494.8
829.682	486.8
830.081	496.8
830.502	485.2
830.901	498.8
831.301	484.4
831.722	487.8
832.121	491
832.521	492.2
832.943	490.8
833.342	496
833.742	489.4
834.164	488.4
834.564	482.8
834.965	494.8
835.386	485.2
835.787	493.4
836.188	494.6
836.588	492
837.01	491
837.411	482.4
837.812	497.8
838.213	496.2
838.636	485.6
839.037	543.8
839.438	497.4
839.84	488.2
840.263	490
840.664	488
841.066	481.6
841.468	486.6
841.891	493.4
842.293	495.4
842.695	496.6
843.098	497.4
843.5	488.8
843.902	498.8
844.326	492.4
844.729	485.8
845.131	503.6
845.534	491.2
845.937	500.6
846.34	508.8
846.764	487.8
847.167	490.2
847.571	485.4
847.974	490
848.377	490.4
848.781	532.4
849.184	503.6
849.588	491.2
849.992	492.6
850.396	492.6
850.821	508.6
851.225	488.8
