#lambda/nm	C1
208.295	468
208.67	434.4
209.045	390.8
209.419	396.2
209.794	531.6
210.169	514.4
210.544	620.4
210.919	528
211.295	521.6
211.67	523.8
212.045	521.2
212.421	521.6
212.796	562.2
213.172	521.2
213.547	524.6
213.923	531.4
214.299	523.8
214.675	534.8
215.051	526
215.427	544.2
215.803	553.6
216.179	525.6
216.555	517.2
216.932	530.4
217.308	531.4
217.684	537
218.061	539
218.438	536
218.814	533
219.191	536.4
219.568	524.6
219.945	529.2
220.322	538
220.699	530.4
221.076	538.6
221.453	535.8
221.83	525.2
222.208	527.2
222.585	520.6
222.962	534.2
223.34	529.2
223.717	520.6
224.095	523.6
224.473	529.6
224.851	518.8
225.229	521.4
225.607	538.2
225.985	523.2
226.363	534
226.741	530.4
227.119	518.8
227.497	541
227.876	517.2
228.254	539.8
228.633	540
229.011	533.4
229.39	534.2
229.769	531.8
230.148	533
230.527	545.2
230.905	531.6
231.284	534.6
231.664	525
232.043	541.4
232.422	525.6
232.801	519.6
233.181	529
233.56	526.2
233.94	524.6
234.319	516.2
234.699	526.2
235.079	562.6
235.458	552.6
235.838	532.8
236.218	522.2
236.598	520.6
236.978	515
237.358	521.2
237.738	522.8
238.119	527.8
238.499	514
238.88	525.6
239.26	542.8
239.641	515
240.021	527.8
240.402	532.2
240.783	529.8
241.163	522.6
241.544	524
241.925	530.6
242.306	540.2
242.687	513.6
243.069	530
243.45	535.6
243.831	528.6
244.212	518.6
244.594	555.2
244.975	538.6
245.357	529
245.739	525.4
246.12	529
246.502	537.6
246.884	530.2
247.266	522.8
247.648	528.8
248.03	546.4
248.412	526
248.794	530.8
249.176	525
249.559	535.6
249.941	521.2
250.323	522.6
250.706	526.8
251.089	537
251.471	528.6
251.854	526.8
252.237	531.4
252.62	537.6
253.002	540
253.385	534.2
253.769	536.8
254.152	533.4
254.535	535.6
254.918	522.8
255.301	527.6
255.685	527
256.068	521.4
256.452	550.6
256.835	532.8
257.219	535.4
257.603	538.6
257.986	517.6
258.37	537.2
258.754	516.4
259.138	539.8
259.522	542
259.906	529
260.29	533.4
260.675	526.8
261.059	525.6
261.443	519
261.828	537.8
262.212	533
262.597	517.4
262.981	519.4
263.366	531
263.751	531.6
264.136	521.6
264.521	522.8
264.906	517.6
265.291	528.4
265.676	517.6
266.061	533
266.446	538.2
266.831	523.6
267.217	541.4
267.602	525.4
267.987	528.4
268.373	523.4
268.759	532
269.144	523.6
269.53	525.6
269.916	526.4
270.302	530.8
270.688	531.2
271.074	526.8
271.46	530.8
271.846	559.2
272.232	536.8
272.618	517.8
273.004	529.2
273.391	542.8
273.777	541
274.164	531.6
274.55	547.2
274.937	528.4
275.324	531.8
275.71	536
276.097	536.2
276.484	527.2
276.871	528.4
277.258	531.2
277.645	517.2
278.032	528.2
278.419	520
278.807	535.6
279.194	521.4
279.581	531.6
279.969	538
280.356	534
280.744	528.4
281.131	533.2
281.519	531.2
281.907	528.8
282.295	526.8
282.682	543
283.07	536.6
283.458	536
283.846	536.4
284.235	539.8
284.623	537
285.011	524.6
285.399	534.8
285.788	528.8
286.176	518.4
286.565	540
286.953	522.8
287.342	522.8
287.731	524.2
288.119	524.2
288.508	529.6
288.897	523.8
289.286	525.2
289.675	528.6
290.064	540.4
290.453	528.2
290.821	526.8
291.21	536
291.599	527.8
291.989	525.6
292.378	533.6
292.768	543
293.157	535.8
293.547	542
293.936	534
294.326	523
294.716	528.2
295.106	525.8
295.496	538
295.886	541.4
296.276	522.4
296.666	519.2
297.056	521.8
297.446	516.6
297.836	540.4
298.227	522.8
298.617	529.2
299.008	537.4
299.398	526.4
299.789	526.6
300.179	531.6
300.57	538.6
300.961	526.2
301.352	524.2
301.742	535.6
302.133	536.8
302.524	526.8
302.915	524.6
303.307	518.6
303.698	541
304.089	528
304.48	523.6
304.872	532.2
305.263	526.8
305.655	525.6
306.046	531.4
306.438	528.4
306.829	520
307.221	535.2
307.613	530.8
308.005	542
308.397	542.6
308.789	540.6
309.181	544.2
309.573	544.4
309.965	536.2
310.357	520.6
310.749	531.6
311.142	523.2
311.534	520.6
311.926	532.2
312.319	533.6
312.711	528.4
313.104	539
313.497	522.8
313.889	563.2
314.282	533.6
314.675	552
315.068	533.2
315.461	542
315.854	558.2
316.247	532
316.64	533
317.033	531
317.405	534.8
317.798	525.8
318.192	533.6
318.585	524.4
318.979	537
319.372	519
319.766	526
320.16	537.4
320.553	537.2
320.947	543.8
321.341	530.2
321.735	525.4
322.129	519.8
322.523	552
322.917	526.6
323.311	532.6
323.705	527.2
324.099	532
324.494	545
324.888	538.6
325.282	527.8
325.677	537
326.071	531
326.466	537
326.861	535.6
327.255	539.6
327.65	534.6
328.045	546.8
328.44	527.4
328.835	538.6
329.23	529.6
329.625	552
330.02	522.8
330.415	546
330.81	526
331.206	529.4
331.601	526.8
331.996	534
332.37	546
332.766	518.6
333.161	549.2
333.557	521.2
333.953	522.2
334.348	819.4
334.744	522.8
335.14	524
335.536	520.2
335.932	537
336.328	523.8
336.724	535.6
337.12	525.6
337.516	522
337.913	533.4
338.309	540.6
338.705	530.4
339.102	538.6
339.498	523.4
339.895	537.8
340.291	524.8
340.688	537.4
341.085	524.2
341.481	525.8
341.878	521.4
342.275	540
342.672	525.6
343.069	524.4
343.466	512.8
343.842	533.2
344.239	529.6
344.636	534.8
345.033	524.8
345.431	521.2
345.828	524.2
346.225	526.6
346.623	558.6
347.02	523.2
347.418	534.6
347.816	535.2
348.213	523
348.611	530.2
349.009	527
349.407	536.8
349.805	517.4
350.203	519.6
350.601	527
350.999	526.2
351.397	571.2
351.795	525.8
352.193	534.4
352.57	533.4
352.969	530.4
353.367	522.6
353.766	521.8
354.164	518
354.563	534.2
354.961	523
355.36	524
355.759	521.4
356.158	515.8
356.557	520.4
356.956	518
357.355	514
357.754	525.2
358.153	528.2
358.552	547.2
358.951	521.2
359.35	532
359.75	526.8
360.149	523.4
360.527	511.6
360.926	512.2
361.326	523.6
361.726	514.4
362.125	516.6
362.525	528.8
362.925	513
363.325	519
363.724	525.6
364.124	510.4
364.524	511
364.924	516.6
365.324	523.8
365.725	508.8
366.125	520
366.525	519
366.904	517.6
367.304	510.4
367.705	533.8
368.105	524.8
368.506	517.6
368.906	514
369.307	523.2
369.708	520.6
370.108	514
370.509	529.4
370.91	516.8
371.311	518.8
371.712	518.4
372.113	520
372.514	509.8
372.894	522.8
373.295	517.4
373.696	526.8
374.097	529.2
374.499	541.8
374.9	518.8
375.301	513.6
375.703	521.6
376.105	516
376.506	518.4
376.908	528
377.309	523.2
377.711	516.6
378.113	522.4
378.493	526.4
378.895	519.6
379.297	525.2
379.699	510.2
380.102	527.2
380.504	521
380.906	518.2
381.308	541.6
381.71	524.6
382.113	534
382.515	519
382.918	522.2
383.299	519
383.701	532.8
384.104	528.8
384.507	504.8
384.909	514
385.312	512.4
385.715	512.8
386.118	518
386.521	510.6
386.924	528.6
387.327	518.4
387.709	512.6
388.112	511.8
388.515	514.8
388.918	520.6
389.322	515.4
389.725	517.4
390.129	534.8
390.532	521.6
390.936	518
391.339	517.4
391.743	521.6
392.125	516
392.529	525.8
392.933	533.8
393.337	523.6
393.74	520.8
394.144	518.2
394.548	514
394.953	509.6
395.357	515.2
395.761	516.8
396.144	516.2
396.548	517.4
396.952	515.8
397.357	523.6
397.761	514.2
398.166	526.2
398.57	522.2
398.975	511.8
399.379	523.2
399.763	552.8
400.168	516.6
400.572	515.8
400.977	518.6
401.382	522.8
401.787	523.6
402.192	537.8
402.597	525.8
403.002	509.8
403.386	530.6
403.791	531
404.197	518.4
404.602	518.2
405.007	515.4
405.413	509.2
405.818	505.4
406.224	508.2
406.608	517
407.014	513.2
407.42	532.2
407.825	513.6
408.231	522
408.637	515.8
409.043	526.6
409.449	519
409.834	516.2
410.24	515.2
410.646	534.6
411.052	527.2
411.458	515
411.865	527.4
412.271	524.6
412.677	520.8
413.062	523.2
413.469	507.8
413.875	546.2
414.282	525.6
414.689	528.2
415.095	523.6
415.502	511.2
415.888	520.4
416.294	505.4
416.701	558.8
417.108	528
417.515	529
417.923	523.8
418.33	543.2
418.715	526.4
419.123	517.4
419.53	518.4
419.937	524.2
420.345	532.8
420.752	519.2
421.16	527.4
421.546	528.2
421.953	526.8
422.361	514.4
422.769	517.6
423.177	523
423.585	539.2
423.992	542
424.379	531.2
424.787	531.6
425.195	533.2
425.603	521.8
426.011	532.2
426.419	526.4
426.806	521.4
427.214	522.4
427.623	532.2
428.031	533.8
428.44	521.4
428.848	535.8
429.235	540.2
429.644	526
430.053	522.6
430.461	539
430.87	550
431.279	537.4
431.666	523.8
432.075	526.4
432.484	531.6
432.893	524.6
433.302	541.2
433.711	558.4
434.099	547
434.508	543.2
434.918	529.2
435.327	548.6
435.737	549.4
436.125	558
436.534	566.6
436.944	577.6
437.353	579.4
437.763	596.8
438.173	580.8
438.561	594.6
438.971	588.8
439.381	597.4
439.791	603.6
440.201	603.2
440.589	612.2
440.999	640
441.409	639
441.819	631.8
442.23	654.4
442.619	665.4
443.029	661.6
443.439	671.2
443.85	679
444.26	693.8
444.649	692.4
445.06	695.8
445.471	689
445.881	708.6
446.292	717.2
446.682	729.4
447.092	701.6
447.503	763.2
447.914	721.2
448.325	728
448.715	717.4
449.126	724.6
449.537	726.8
449.948	730.2
450.338	731
450.75	749.4
451.161	740.2
451.572	748.4
451.984	750
452.374	719.4
452.786	748
453.197	759.8
453.609	761
453.999	752
454.411	752
454.823	780.8
455.235	762.2
455.647	767.8
456.037	766.6
456.449	759.4
456.862	768.8
457.274	777.6
457.665	772
458.077	783
458.489	795.2
458.902	775.2
459.293	783
459.705	782
460.118	775.8
460.53	779.6
460.921	789.8
461.334	792.2
461.747	791.8
462.16	810.2
462.551	798.6
462.964	800
463.377	783.2
463.79	808.6
464.182	807.2
464.595	790.2
465.008	792.8
465.421	804.2
465.813	801.2
466.226	816
466.64	810.2
467.053	852.4
467.445	834.6
467.859	836.6
468.272	820.8
468.686	832.8
469.078	817.2
469.492	830.8
469.906	823.6
470.298	822.8
470.712	820
471.126	852.2
471.54	819.4
471.933	823.6
472.347	833.2
472.761	823.6
473.175	821.4
473.568	835.6
473.982	822.8
474.397	833
474.79	826.6
475.204	835
475.619	826.8
476.033	833.4
476.426	826.4
476.841	821
477.256	845.8
477.649	820
478.064	814.8
478.479	821
478.872	813.8
479.287	814.6
479.702	817.8
480.118	818
480.511	819.6
480.927	810.8
481.342	820.2
481.736	821.8
482.151	820.6
482.566	815.6
482.96	812.6
483.376	808.8
483.792	810.8
484.186	814.6
484.602	809.4
485.017	815
485.412	805.8
485.827	816.6
486.243	808
486.638	826.6
487.054	811.2
487.47	821.8
487.865	805
488.281	803.6
488.697	806.4
489.092	810
489.508	801.8
489.925	809.8
490.32	787.8
490.736	806.4
491.153	803.2
491.548	791
491.964	805.6
492.381	781.6
492.776	788.4
493.193	788.2
493.61	789.4
494.006	786.2
494.422	784.6
494.84	773
495.235	787.6
495.652	769.4
496.069	765.8
496.465	761.8
496.883	776.6
497.3	793.8
497.696	764.6
498.113	757.4
498.509	741.6
498.927	758
499.344	742.6
499.741	743.6
500.158	761.6
500.576	760.6
500.973	750.6
501.39	743.2
501.787	749
502.205	733.6
502.623	735.4
503.02	725
503.438	731.6
503.856	733.4
504.253	733.6
504.671	727.4
505.068	726
505.486	715
505.905	739.6
506.302	723.2
506.72	729.2
507.118	711.6
507.536	718.4
507.955	720.4
508.352	706.2
508.771	714
509.169	711.4
509.587	700.4
510.006	702.2
510.404	685
510.823	695.8
511.221	692.4
511.64	693.6
512.038	704
512.457	686.2
512.877	689
513.275	689.4
513.694	686.4
514.092	683
514.512	687.6
514.91	695.6
515.33	687.4
515.749	682
516.148	675.6
516.568	675.4
516.966	671.6
517.386	674.8
517.785	675.4
518.205	664.6
518.603	665.2
519.024	659.8
519.444	675.2
519.843	669.8
520.263	665
520.662	671
521.082	660.8
521.481	667.6
521.902	648.4
522.301	659
522.722	652.4
523.121	651.8
523.542	646.8
523.963	653.2
524.362	649.2
524.783	643
525.183	643
525.604	648.6
526.003	639.6
526.425	629.6
526.824	647
527.246	637.6
527.646	637.6
528.067	636.6
528.467	632.4
528.888	636.2
529.289	631.8
529.71	636.2
530.11	617.2
530.532	622
530.932	616.4
531.354	603.6
531.755	643.6
532.176	620.4
532.577	621.4
532.999	617.4
533.4	619.2
533.822	619.6
534.223	609.8
534.645	608.2
535.046	611.2
535.468	606.4
535.869	621.6
536.292	607
536.693	633.8
537.115	606.2
537.516	605.8
537.939	614.2
538.34	619.6
538.742	608.8
539.165	606
539.566	598.2
539.989	597.4
540.391	599.8
540.814	600.2
541.216	605.6
541.639	595.6
542.041	607
542.464	600
542.866	591
543.268	587.4
543.691	595
544.093	598.8
544.517	604.4
544.919	576
545.343	609.4
545.745	588.4
546.147	593
546.571	585
546.974	586.2
547.398	591.8
547.8	596.4
548.224	579.4
548.627	585.6
549.03	584.8
549.454	577
549.857	575.8
550.281	578
550.684	573.2
551.087	579.6
551.512	582.2
551.915	580
552.34	575.6
552.743	577.2
553.146	575
553.571	565.2
553.975	578.4
554.399	559.2
554.803	605.6
555.207	567.6
555.632	566.6
556.036	565.4
556.461	566.4
556.865	565.4
557.268	555.4
557.694	569.2
558.098	570.8
558.502	563.2
558.927	552
559.332	563.2
559.736	567.6
560.162	568
560.566	556.6
560.992	555.2
561.396	552.4
561.801	557
562.227	559.2
562.631	559
563.036	553.8
563.462	554.8
563.867	560.2
564.272	543
564.698	562
565.103	545.6
565.508	564.8
565.935	550
566.34	553.2
566.745	569.2
567.172	556
567.577	570
567.982	553.8
568.409	557.8
568.815	549
569.22	556
569.626	550.8
570.053	541.6
570.459	550.4
570.865	559.6
571.292	551.8
571.698	550
572.104	536.2
572.531	542.2
572.937	553.8
573.343	541.8
573.75	539
574.177	541.6
574.583	547
574.99	540.2
575.396	551
575.824	537.4
576.231	544.4
576.637	541.4
577.065	558
577.472	539.6
577.879	538.8
578.286	551.4
578.714	526.2
579.121	535
579.528	537
579.935	547.4
580.364	540.6
580.771	528.4
581.178	524.2
581.585	537.8
582.014	542.2
582.421	530
582.829	529
583.236	542.4
583.644	528.4
584.073	540
584.481	533.2
584.889	522.8
585.296	533.2
585.726	533.4
586.134	527.4
586.542	527.6
586.95	541.4
587.358	524.4
587.787	529.4
588.196	523
588.604	530.6
589.012	530
589.421	521.6
589.851	520
590.259	534.8
590.668	524.4
591.076	557.8
591.485	526.8
591.894	529
592.324	535.4
592.733	530.8
593.142	516.2
593.551	530.4
593.96	530
594.369	510.8
594.8	524.4
595.209	521.4
595.618	513
596.028	520.8
596.437	518.2
596.847	517.6
597.256	520
597.687	523
598.097	524.2
598.507	511.2
598.917	520.8
599.327	518.8
599.736	517.4
600.146	528.4
600.556	514
600.988	524.6
601.398	513.6
601.808	521
602.219	502.8
602.629	520.4
603.039	517.2
603.45	536
603.86	517.8
604.271	534.8
604.703	506.4
605.114	511.2
605.525	519.6
605.935	514
606.346	528.8
606.757	520.8
607.168	509
607.579	506.6
607.99	519.6
608.402	511.2
608.813	522.6
609.224	508.2
609.636	513.8
610.047	512.2
610.48	512.6
610.892	515.8
611.303	524.4
611.715	507.2
612.127	511.2
612.539	515.8
612.95	520.4
613.362	505
613.774	501.2
614.186	510.8
614.599	508
615.011	523.2
615.423	517
615.835	513
616.248	511.4
616.66	518.8
617.073	513.6
617.485	523.4
617.898	513
618.311	511.6
618.723	509.2
619.136	534.8
619.549	522.4
619.962	527.6
620.375	508.4
620.788	508
621.201	500.2
621.614	516.2
622.028	509.4
622.441	510.8
622.854	521.6
623.268	503.8
623.681	504.4
624.095	508.6
624.509	516.8
624.922	517.6
625.336	502.4
625.728	504.6
626.142	515.4
626.556	521.8
626.97	508.6
627.384	503.4
627.799	515.4
628.213	519.6
628.627	504.4
629.041	502.2
629.456	504.6
629.87	512.4
630.285	516.4
630.699	512
631.093	511
631.507	513.2
631.922	514.4
632.337	513.4
632.752	502.2
633.167	509.4
633.582	508.2
633.997	504.2
634.412	510.4
634.806	507.2
635.221	500.8
635.637	524.4
636.052	499.2
636.468	514
636.883	523.8
637.299	507.4
637.715	497
638.109	508.4
638.525	504
638.941	516
639.357	504.2
639.773	519.4
640.189	508.8
640.584	507.8
641	513.6
641.416	502.2
641.832	511.8
642.249	500.8
642.665	509.4
643.06	506.6
643.477	510.2
643.894	495.6
644.31	498.2
644.727	502.8
645.123	504.4
645.54	501
645.957	509.6
646.374	511
646.77	503.8
647.187	537.6
647.604	512.6
648.021	497.8
648.439	502.8
648.835	508.2
649.252	501.4
649.67	497.4
650.088	504.2
650.484	504.6
650.902	506.8
651.32	503.8
651.738	501.6
652.134	511.6
652.552	511.8
652.971	508
653.389	493.6
653.786	514.8
654.204	500.8
654.622	496.8
655.019	490.6
655.438	510.4
655.857	504.2
656.275	510
656.673	498.2
657.091	508.6
657.51	499.2
657.908	500.4
658.327	519.4
658.746	490.2
659.144	502.6
659.563	511.2
659.982	507.6
660.38	495.6
660.8	504.4
661.219	514.2
661.617	511.4
662.037	513.6
662.457	509.2
662.855	491.4
663.275	530.8
663.695	501.6
664.094	501.8
664.514	497.6
664.934	496.4
665.333	510
665.753	496
666.152	499.4
666.572	503.8
666.993	505.8
667.392	496.2
667.812	498.4
668.212	497.8
668.632	514.4
669.053	498
669.453	509
669.874	503.2
670.273	507
670.694	496
671.116	505.6
671.515	510
671.937	497
672.337	499.8
672.758	503.4
673.158	508
673.58	495.4
673.98	499
674.402	516
674.824	496.6
675.224	496
675.646	489.2
676.047	495.6
676.469	508.4
676.869	510.6
677.292	504.2
677.693	496.2
678.115	499.2
678.516	505.2
678.939	507
679.34	507
679.762	512.8
680.164	507
680.586	497.8
680.988	501.4
681.411	519
681.812	498.2
682.236	498
682.637	495.6
683.061	495.4
683.462	502.6
683.864	504.6
684.288	508.8
684.69	496.2
685.114	509.6
685.516	494.8
685.94	494.4
686.342	503.6
686.766	494.6
687.168	498.8
687.571	509.8
687.995	504.8
688.398	490.2
688.822	498
689.225	514.4
689.628	516.2
690.052	493.4
690.456	503.8
690.88	494.6
691.284	483.2
691.687	499.8
692.112	486.6
692.515	490.6
692.919	494.4
693.344	497.6
693.747	500.2
694.173	492.6
694.577	506.8
694.98	494.8
695.406	493.4
695.81	503.4
696.214	500
696.64	495.6
697.044	501.6
697.448	505.2
697.874	496.6
698.279	495.2
698.684	489.6
699.11	497
699.514	491.2
699.919	487.2
700.324	490
700.75	493.6
701.156	492.4
701.561	512.8
701.987	504.2
702.393	509
702.798	502.2
703.203	501.8
703.63	497
704.036	501.2
704.442	489.8
704.847	496
705.274	496.6
705.68	503.8
706.086	507
706.492	496
706.92	492.8
707.326	496.6
707.732	491.8
708.139	491.4
708.545	496.8
708.973	492.4
709.38	498.8
709.786	487.8
710.193	510.4
710.6	500
711.028	496.6
711.435	497.2
711.842	499.4
712.249	497.2
712.656	498
713.064	504
713.492	486.8
713.9	495.8
714.307	498.6
714.715	494.8
715.123	499.6
715.53	502.2
715.938	511.6
716.367	494
716.775	494.8
717.184	491.6
717.592	487.4
718	503.8
718.408	529.4
718.816	530.2
719.225	497.4
719.633	489.8
720.042	487.8
720.472	500.4
720.881	502.4
721.29	496
721.699	482.4
722.108	493.4
722.517	498.6
722.926	492
723.335	501.8
723.744	494.2
724.154	490
724.563	498.2
724.973	486.6
725.382	500.6
725.792	501.2
726.202	490.8
726.612	506.8
727.022	496.2
727.432	498.2
779.813	491.2
780.223	529.6
780.634	499
781.044	489
781.454	494
781.865	501
782.276	490.6
782.686	508.4
783.097	493
783.508	494
783.919	497.4
784.33	495.6
784.741	506.8
785.152	489
785.563	480.4
785.974	490.6
786.386	504.2
786.776	492.6
787.188	498.6
787.599	488.4
788.011	502
788.423	503
788.835	489.8
789.247	487.8
789.659	487
790.071	496
790.483	528.2
790.874	497.2
791.286	503.2
791.699	494
792.111	498.4
792.524	491.8
792.937	493.2
793.349	486
793.741	493.4
794.154	487
794.567	511.8
794.98	486.6
795.393	488.8
795.785	504.2
796.198	499.8
796.612	491.8
797.026	485.2
797.439	484.2
797.831	489.4
798.245	487.8
798.659	487.2
799.073	488.4
799.487	490.8
799.88	492.4
800.294	499.4
800.708	490.8
801.123	492.2
801.516	506.8
801.93	481
802.345	486.2
802.76	495.2
803.153	503.6
803.568	501.8
803.983	506
804.377	494.2
804.792	487.2
805.207	486
805.601	495
806.016	526.8
806.432	492.6
806.826	524.8
807.242	501.6
807.658	494.4
808.052	489.6
808.468	489.2
808.884	484.4
809.279	490.8
809.695	503.8
810.111	507
810.506	499.6
810.922	510.8
811.339	493
811.734	500
812.151	492.2
812.546	491.8
812.963	490.2
813.38	497.4
813.776	496.8
814.193	511
814.589	492.2
815.006	496.2
815.402	493.2
815.82	495.4
816.237	497.8
816.633	495
817.051	489.4
817.448	492.4
817.866	493.4
818.262	508
818.68	491.6
819.077	483.4
819.495	489
819.892	536
820.311	479.6
820.708	489.8
821.127	486
821.524	499.2
821.943	499.8
822.34	501.6
822.759	502.6
823.157	502.6
823.576	503
823.974	506.6
824.393	577.6
824.791	490
825.189	490.4
825.609	490.2
826.007	486.4
826.427	475.6
826.826	486.4
827.246	499.6
827.644	489.4
828.043	503.6
828.463	493.8
828.862	505.8
829.261	496
829.682	485.2
830.081	493.4
830.502	488.2
830.901	488.8
831.301	488.2
831.722	487.8
832.121	493.6
832.521	492
832.943	489.8
833.342	503.2
833.742	489.6
834.164	499
834.564	483.6
834.965	494.6
835.386	488.2
835.787	494.8
836.188	487.4
836.588	491
837.01	492
837.411	486
837.812	492
838.213	492.6
838.636	484.2
839.037	543.6
839.438	495
839.84	487
840.263	494.8
840.664	496.2
841.066	490.4
841.468	494
841.891	485.2
842.293	500.2
842.695	494.4
843.098	490.4
843.5	484
843.902	491.6
844.326	492.6
844.729	486.2
845.131	502.6
845.534	494
845.937	497.2
846.34	498.6
846.764	482.4
847.167	498.4
847.571	479.8
847.974	491.4
848.377	486.2
848.781	524.4
849.184	493.4
849.588	475.6
849.992	480.6
850.396	496
850.821	498.2
851.225	490
851.63	496
852.034	494.4
852.438	484.8
852.843	514.2
853.247	490.4
853.652	477
854.057	505
854.462	487.6
854.867	491.2
855.272	513.2
855.677	499.2
856.082	485.2
856.487	483.8
856.893	492.2
857.298	491
