#lambda/nm	C1
208.295	462.6
208.67	430.6
209.045	393
209.419	404.8
209.794	530.8
210.169	512.6
210.544	610.6
210.919	532.2
211.295	518.6
211.67	535.6
212.045	525
212.421	526.2
212.796	559.2
213.172	528
213.547	531
213.923	526.8
214.299	522.4
214.675	532
215.051	535
215.427	532.2
215.803	541.2
216.179	538.6
216.555	522.2
216.932	539.4
217.308	536.6
217.684	528.2
218.061	533.2
218.438	526.8
218.814	520.4
219.191	532
219.568	527.4
219.945	534.4
220.322	532.8
220.699	537.6
221.076	535.2
221.453	522.4
221.83	527
222.208	530.6
222.585	520.6
222.962	526.6
223.34	529.4
223.717	526.2
224.095	521.2
224.473	523.4
224.851	524.2
225.229	512.4
225.607	539.2
225.985	518.2
226.363	532.6
226.741	530.4
227.119	523.6
227.497	536.2
227.876	509
228.254	538
228.633	524.8
229.011	530.6
229.39	534
229.769	537
230.148	538.2
230.527	546
230.905	529.6
231.284	531.8
231.664	517.4
232.043	535
232.422	533.6
232.801	522.4
233.181	540.2
233.56	524.6
233.94	528.8
234.319	519.8
234.699	525.8
235.079	556.6
235.458	553.8
235.838	538.2
236.218	526.8
236.598	518.8
236.978	519.6
237.358	519.2
237.738	523.8
238.119	538.2
238.499	521.2
238.88	528.8
239.26	538.2
239.641	518.4
240.021	527.6
240.402	526.2
240.783	531
241.163	524.6
241.544	530.6
241.925	527.4
242.306	544.6
242.687	530
243.069	527.2
243.45	538.2
243.831	521
244.212	528.2
244.594	551.4
244.975	535.8
245.357	528.4
245.739	516.4
246.12	532.8
246.502	534.4
246.884	530.6
247.266	541.6
247.648	522.8
248.03	546.4
248.412	533.2
248.794	535.6
249.176	529
249.559	532.2
249.941	526.2
250.323	524.2
250.706	521.2
251.089	529.2
251.471	527.6
251.854	527.6
252.237	529
252.62	538.2
253.002	529.6
253.385	527.6
253.769	541.4
254.152	527.6
254.535	533.8
254.918	527.6
255.301	526.2
255.685	522.2
256.068	525.8
256.452	544.6
256.835	529.2
257.219	535.4
257.603	546.8
257.986	517
258.37	536.4
258.754	523
259.138	527.2
259.522	530.8
259.906	524.2
260.29	533.4
260.675	524.2
261.059	522.4
261.443	519.6
261.828	528.6
262.212	537.2
262.597	524.2
262.981	523.2
263.366	531.2
263.751	531.2
264.136	523.2
264.521	527.8
264.906	525
265.291	533.8
265.676	532.2
266.061	532.4
266.446	536.8
266.831	524.4
267.217	537.6
267.602	527.4
267.987	530
268.373	525.6
268.759	536
269.144	531.4
269.53	534
269.916	527.4
270.302	524.8
270.688	527
271.074	534.6
271.46	540.4
271.846	549.4
272.232	530.8
272.618	519.8
273.004	526.2
273.391	536.4
273.777	538.2
274.164	529
274.55	538.8
274.937	529.8
275.324	532.6
275.71	533.2
276.097	523.6
276.484	519.2
276.871	530
277.258	532.6
277.645	519.4
278.032	524
278.419	524.8
278.807	540
279.194	518.4
279.581	516
279.969	537.6
280.356	529.6
280.744	531.8
281.131	550
281.519	535.8
281.907	527.4
282.295	530.4
282.682	537.6
283.07	531.4
283.458	535.8
283.846	540.6
284.235	539.2
284.623	535.2
285.011	516.4
285.399	534.8
285.788	519.4
286.176	524.2
286.565	542.4
286.953	515.2
287.342	531.4
287.731	519.6
288.119	519.4
288.508	530.4
288.897	518.6
289.286	516.8
289.675	532
290.064	532.2
290.453	520
290.821	525.4
291.21	536
291.599	522.8
291.989	535.2
292.378	532
292.768	547.6
293.157	530.6
293.547	537.4
293.936	519.8
294.326	525.4
294.716	525.6
295.106	527.2
295.496	529.8
295.886	534
296.276	530
296.666	525
297.056	515.4
297.446	516
297.836	545
298.227	524.4
298.617	524.8
299.008	540.2
299.398	528.4
299.789	519.2
300.179	530.2
300.57	538.6
300.961	524
301.352	524.6
301.742	529.6
302.133	531.6
302.524	523.8
302.915	531.2
303.307	522.8
303.698	541.2
304.089	530.2
304.48	533.2
304.872	530.8
305.263	530
305.655	518.4
306.046	536.2
306.438	527.2
306.829	525.4
307.221	532.2
307.613	543.2
308.005	535.2
308.397	539.6
308.789	547.6
309.181	545.8
309.573	539.8
309.965	537.6
310.357	528.2
310.749	540.8
311.142	516.2
311.534	516.4
311.926	536.4
312.319	530.8
312.711	526.4
313.104	538
313.497	526.4
313.889	568.2
314.282	543.4
314.675	546.6
315.068	530.8
315.461	534
315.854	556.8
316.247	536.2
316.64	533
317.033	535.8
317.405	536.2
317.798	528.4
318.192	531
318.585	524.2
318.979	532.4
319.372	531.4
319.766	525.8
320.16	533.8
320.553	541.4
320.947	544.2
321.341	523
321.735	530.4
322.129	518.8
322.523	547.6
322.917	519.6
323.311	535.6
323.705	534.4
324.099	532
324.494	539.6
324.888	540.6
325.282	520.8
325.677	532.4
326.071	525.8
326.466	537
326.861	528.4
327.255	536.2
327.65	544.4
328.045	530.8
328.44	521.8
328.835	525.6
329.23	519
329.625	548.4
330.02	523.8
330.415	544.8
330.81	525.6
331.206	527.6
331.601	527.6
331.996	534.8
332.37	540.2
332.766	532.8
333.161	539.2
333.557	517.4
333.953	521.8
334.348	704.4
334.744	530
335.14	522
335.536	522.8
335.932	535
336.328	516.4
336.724	536.4
337.12	528.2
337.516	532.4
337.913	527.2
338.309	536.4
338.705	529.2
339.102	532.2
339.498	521.6
339.895	540.2
340.291	525.4
340.688	534
341.085	529.6
341.481	528.8
341.878	528.6
342.275	540.8
342.672	524.8
343.069	526.8
343.466	517.2
343.842	530
344.239	522.2
344.636	522
345.033	520.4
345.431	522.6
345.828	529.6
346.225	523.6
346.623	557
347.02	525.4
347.418	535.8
347.816	544.4
348.213	523
348.611	532.2
349.009	521
349.407	538.8
349.805	513.2
350.203	511
350.601	532.2
350.999	525.8
351.397	561.8
351.795	523.4
352.193	531.4
352.57	535.4
352.969	533.2
353.367	519
353.766	516.6
354.164	524.4
354.563	528.2
354.961	527.6
355.36	519
355.759	530.2
356.158	513.6
356.557	518
356.956	518.4
357.355	519.6
357.754	522.8
358.153	526.4
358.552	546
358.951	522.6
359.35	535.6
359.75	516.4
360.149	514.8
360.527	516.6
360.926	517
361.326	524.8
361.726	529.4
362.125	521.4
362.525	526.8
362.925	515.4
363.325	527.2
363.724	524.8
364.124	519.8
364.524	511
364.924	520.4
365.324	526
365.725	512.2
366.125	533.4
366.525	522
366.904	516.2
367.304	507.4
367.705	533.4
368.105	531.4
368.506	527.6
368.906	511.4
369.307	512.8
369.708	527.8
370.108	512.6
370.509	528.2
370.91	520.4
371.311	525.8
371.712	523
372.113	521.6
372.514	510.6
372.894	524.4
373.295	516
373.696	537
374.097	524.6
374.499	553.6
374.9	520.8
375.301	517.4
375.703	526.4
376.105	506.6
376.506	524
376.908	520.4
377.309	530
377.711	520.2
378.113	511.6
378.493	520
378.895	514
379.297	527.2
379.699	515
380.102	523
380.504	520.6
380.906	522.2
381.308	545.6
381.71	524.2
382.113	517.6
382.515	517.8
382.918	520.2
383.299	512.4
383.701	532.6
384.104	522.4
384.507	507.6
384.909	519.2
385.312	509
385.715	509.6
386.118	520.8
386.521	514.2
386.924	531.4
387.327	519.4
387.709	516.6
388.112	505.6
388.515	521.4
388.918	518.4
389.322	518.6
389.725	514.6
390.129	542
390.532	519.8
390.936	512.4
391.339	515.2
391.743	521
392.125	517.8
392.529	516.8
392.933	531
393.337	518
393.74	519.4
394.144	519
394.548	513.6
394.953	518.6
395.357	528.6
395.761	517.4
396.144	517.6
396.548	511.8
396.952	515.6
397.357	516.2
397.761	510.4
398.166	510
398.57	518.8
398.975	513.2
399.379	521.2
399.763	555
400.168	521.8
400.572	516.2
400.977	509.4
401.382	527.6
401.787	528.6
402.192	535.6
402.597	527.8
403.002	510
403.386	533
403.791	529.4
404.197	507.8
404.602	520.6
405.007	517.8
405.413	508.8
405.818	518.4
406.224	514.8
406.608	520.2
407.014	521.4
407.42	527.2
407.825	514.4
408.231	521.4
408.637	519.2
409.043	528.8
409.449	524
409.834	518.6
410.24	527.2
410.646	526.8
411.052	524.4
411.458	525
411.865	522.4
412.271	531.6
412.677	514.8
413.062	530
413.469	519
413.875	541.8
414.282	534.6
414.689	523.8
415.095	526
415.502	522.2
415.888	526.2
416.294	508.8
416.701	557.4
417.108	514.2
417.515	526.2
417.923	519.2
418.33	532.2
418.715	521.4
419.123	512.6
419.53	515.8
419.937	516
420.345	528
420.752	524.6
421.16	531.6
421.546	527.8
421.953	531.2
422.361	510.4
422.769	518.6
423.177	514.4
423.585	537.2
423.992	529.2
424.379	520
424.787	537.4
425.195	535.8
425.603	513.6
426.011	521
426.419	535.4
426.806	521.8
427.214	524.8
427.623	526.8
428.031	528.8
428.44	522.6
428.848	530.4
429.235	530
429.644	519.4
430.053	520
430.461	533.4
430.87	542
431.279	534
431.666	514.6
432.075	518
432.484	525.2
432.893	517.2
433.302	529.8
433.711	562
434.099	533.8
434.508	521
434.918	516
435.327	528.6
435.737	526
436.125	534.6
436.534	536.4
436.944	535.6
437.353	535
437.763	547.6
438.173	526.6
438.561	555.2
438.971	537
439.381	544.4
439.791	551
440.201	534.8
440.589	553.4
440.999	560.2
441.409	558
441.819	557
442.23	564.4
442.619	569
443.029	564.6
443.439	568.6
443.85	584.4
444.26	583.8
444.649	588
445.06	582.6
445.471	574.2
445.881	587
446.292	592.8
446.682	603.2
447.092	581.8
447.503	624.6
447.914	591.4
448.325	589.4
448.715	593.4
449.126	588.6
449.537	599.4
449.948	599
450.338	598
450.75	595.4
451.161	606.6
451.572	604
451.984	593.2
452.374	594.8
452.786	609.4
453.197	607.6
453.609	607
453.999	605.8
454.411	599.2
454.823	611.4
455.235	616.2
455.647	606.4
456.037	618.2
456.449	603.6
456.862	609
457.274	611.4
457.665	612
458.077	620.2
458.489	639.8
458.902	619.2
459.293	623.2
459.705	612.8
460.118	609.8
460.53	632.4
460.921	621.8
461.334	619.2
461.747	626.2
462.16	633.4
462.551	624.4
462.964	629.4
463.377	605.8
463.79	621.6
464.182	635.6
464.595	619.4
465.008	630.6
465.421	627
465.813	624
466.226	641.2
466.64	633.8
467.053	663.4
467.445	647
467.859	642.8
468.272	634
468.686	646
469.078	638.8
469.492	630
469.906	638.2
470.298	644
470.712	644.6
471.126	666
471.54	628.4
471.933	629.4
472.347	633
472.761	635.6
473.175	635.2
473.568	638.6
473.982	632.6
474.397	645.8
474.79	635.8
475.204	647.2
475.619	634.2
476.033	642.8
476.426	641.6
476.841	638
477.256	657.2
477.649	630.8
478.064	628
478.479	629.2
478.872	631
479.287	626.2
479.702	625
480.118	634.8
480.511	635.2
480.927	637.2
481.342	644.4
481.736	645.8
482.151	636.2
482.566	643.2
482.96	632.4
483.376	653.2
483.792	628.4
484.186	639.4
484.602	631
485.017	636
485.412	642.2
485.827	646.8
486.243	639.4
486.638	644.2
487.054	647.8
487.47	647.2
487.865	636.6
488.281	622.4
488.697	626
489.092	631
489.508	616.4
489.925	629.2
490.32	617
490.736	632.6
491.153	627.2
491.548	633
491.964	633.8
492.381	611.6
492.776	629.4
493.193	623
493.61	624.6
494.006	624.8
494.422	630.2
494.84	609
495.235	634.8
495.652	622
496.069	630.2
496.465	611.6
496.883	623
497.3	638
497.696	617
498.113	633
498.509	610.4
498.927	615.8
499.344	613.2
499.741	618.6
500.158	626
500.576	624.8
500.973	619.2
501.39	605.4
501.787	600.8
502.205	619
502.623	612.6
503.02	599.6
503.438	606.6
503.856	604.8
504.253	602.6
504.671	610.6
505.068	595
505.486	609.4
505.905	616.8
506.302	604
506.72	607.2
507.118	590.8
507.536	600
507.955	600.6
508.352	599.8
508.771	607.6
509.169	596.8
509.587	579.6
510.006	599.8
510.404	588.8
510.823	591.4
511.221	588.4
511.64	590.2
512.038	604.4
512.457	595
512.877	586
513.275	590.6
513.694	591.2
514.092	583.2
514.512	600.2
514.91	601
515.33	582.2
515.749	581.6
516.148	585.8
516.568	584.2
516.966	581.2
517.386	576.4
517.785	579.4
518.205	576.8
518.603	581.8
519.024	575.6
519.444	577.8
519.843	585.6
520.263	587.6
520.662	580.8
521.082	570.2
521.481	573.6
521.902	583.8
522.301	572.8
522.722	570.4
523.121	568.6
523.542	575.6
523.963	565.6
524.362	566.4
524.783	570
525.183	564
525.604	568.8
526.003	564.2
526.425	561.2
526.824	570.8
527.246	574.6
527.646	567.8
528.067	563.2
528.467	557.2
528.888	565.8
529.289	562.2
529.71	557.2
530.11	553.8
530.532	561.2
530.932	554.2
531.354	549.2
531.755	582.4
532.176	568.8
532.577	556
532.999	555.2
533.4	554.2
533.822	562.2
534.223	559
534.645	553.4
535.046	547.4
535.468	558
535.869	563.6
536.292	555.4
536.693	575.6
537.115	559.2
537.516	551.4
537.939	557
538.34	566.2
538.742	562.4
539.165	547.2
539.566	563
539.989	553
540.391	549.6
540.814	552.8
541.216	548.8
541.639	549.2
542.041	555.6
542.464	550
542.866	549.2
543.268	541.2
543.691	552.4
544.093	556.6
544.517	570.4
544.919	552.6
545.343	567.4
545.745	540.2
546.147	549.6
546.571	542
546.974	535.6
547.398	545.8
547.8	558
548.224	543.4
548.627	535.8
549.03	546.2
549.454	540
549.857	539
550.281	539.8
550.684	539.8
551.087	551.6
551.512	546.8
551.915	548.2
552.34	542.2
552.743	538.2
553.146	540.6
553.571	541
553.975	549.6
554.399	530.2
554.803	575.4
555.207	536.6
555.632	531.8
556.036	534.4
556.461	531
556.865	544
557.268	530.6
557.694	534.2
558.098	540.2
558.502	536.6
558.927	530.8
559.332	531.4
559.736	531.6
560.162	531.8
560.566	537
560.992	534.6
561.396	536.2
561.801	533.6
562.227	531.4
562.631	533.6
563.036	534
563.462	534.2
563.867	530.2
564.272	520.4
564.698	534.6
565.103	522.8
565.508	546.2
565.935	528.4
566.34	527
566.745	535.4
567.172	524.6
567.577	540.4
567.982	540.6
568.409	534.4
568.815	524.6
569.22	532.4
569.626	532.6
570.053	513.4
570.459	527
570.865	532.4
571.292	532.2
571.698	523
572.104	517.6
572.531	522.8
572.937	526.8
573.343	528.4
573.75	519
574.177	529.4
574.583	522.6
574.99	519.8
575.396	525.8
575.824	505.6
576.231	526.2
576.637	511.8
577.065	546.2
577.472	517.2
577.879	522.2
578.286	528.6
578.714	514.2
579.121	518
579.528	518.6
579.935	531.4
580.364	512.6
580.771	506.4
581.178	517.2
581.585	526.4
582.014	530.4
582.421	514.8
582.829	517.6
583.236	523
583.644	513.4
584.073	517.2
584.481	518.6
584.889	513.2
585.296	523
585.726	513.6
586.134	514.8
586.542	510
586.95	527.8
587.358	507.8
587.787	520.4
588.196	507
588.604	512
589.012	507
589.421	505.4
589.851	502
590.259	515.8
590.668	517.6
591.076	539.4
591.485	506
591.894	510.4
592.324	524.4
592.733	526
593.142	500.8
593.551	501.6
593.96	518.2
594.369	502.4
594.8	503
595.209	515.6
595.618	502.6
596.028	512
596.437	502
596.847	506.8
597.256	509.8
597.687	514
598.097	505.8
598.507	502.6
598.917	515
599.327	517
599.736	520.2
600.146	515.8
600.556	508
600.988	524.2
601.398	510.6
601.808	509.6
602.219	498.4
602.629	508
603.039	513
603.45	526.2
603.86	508.8
604.271	525.2
604.703	507.2
605.114	510.4
605.525	508.4
605.935	511
606.346	526.4
606.757	509.2
607.168	503.4
607.579	505.8
607.99	512
608.402	510
608.813	507.8
609.224	499.8
609.636	498.6
610.047	497.4
610.48	509
610.892	511.2
611.303	511.8
611.715	508.4
612.127	505.4
612.539	496.8
612.95	509.2
613.362	497.8
613.774	504.4
614.186	502.6
614.599	501
615.011	509.4
615.423	513.2
615.835	503.4
616.248	498.8
616.66	509.8
617.073	503.6
617.485	507.2
617.898	509.4
618.311	508.4
618.723	503.4
619.136	526
619.549	517.4
619.962	522
620.375	507.6
620.788	507.6
621.201	500.8
621.614	511.2
622.028	517.6
622.441	505.4
622.854	517.8
623.268	496.8
623.681	507.2
624.095	503
624.509	510
624.922	501.6
625.336	491.2
625.728	498.6
626.142	513
626.556	519.2
626.97	515
627.384	498.6
627.799	499
628.213	504.4
628.627	501.6
629.041	501.8
629.456	506.2
629.87	510
630.285	516.4
630.699	518.2
631.093	503.2
631.507	508.2
631.922	516
632.337	523.4
632.752	507
633.167	505.2
633.582	500.8
633.997	508.8
634.412	498
634.806	506.2
635.221	504.6
635.637	511
636.052	499.6
636.468	513.2
636.883	518.6
637.299	507.2
637.715	496.8
638.109	494.2
638.525	498
638.941	518.8
639.357	511.4
639.773	515
640.189	510
640.584	500.6
641	505.8
641.416	495.4
641.832	500.2
642.249	497
642.665	507.2
643.06	517.8
643.477	516.6
643.894	494.2
644.31	503.2
644.727	502.2
645.123	500.6
645.54	493.4
645.957	504.6
646.374	519.8
646.77	507.8
647.187	523.4
647.604	510.8
648.021	491
648.439	494.4
648.835	509.6
649.252	500
649.67	504.4
650.088	503.2
650.484	509
650.902	506
651.32	515.4
651.738	504.6
652.134	508.8
652.552	524.4
652.971	518.6
653.389	502.2
653.786	517.2
654.204	510.2
654.622	501
655.019	507
655.438	508.4
655.857	503.8
656.275	510.4
656.673	491.6
657.091	515.8
657.51	499.6
657.908	504.6
658.327	518.4
658.746	491.2
659.144	501.4
659.563	503.2
659.982	510
660.38	503.4
660.8	500
661.219	516.6
661.617	502.8
662.037	503.4
662.457	503.8
662.855	494
663.275	528.4
663.695	500.4
664.094	503.6
664.514	512
664.934	499.2
665.333	507.2
665.753	495.2
666.152	493.4
666.572	493.8
666.993	516.4
667.392	496
667.812	502.2
668.212	501.2
668.632	512.4
669.053	500.8
669.453	509.8
669.874	494.8
670.273	504
670.694	491
671.116	508.4
671.515	511.2
671.937	499.2
672.337	493.4
672.758	501.8
673.158	507.6
673.58	491.4
673.98	504.6
674.402	507.4
674.824	500.4
675.224	499
675.646	492.2
676.047	492.8
676.469	493.4
676.869	500.4
677.292	500
677.693	502.2
678.115	499.2
678.516	500.2
678.939	498.6
679.34	496.2
679.762	505
680.164	500.2
680.586	493.6
680.988	496.4
681.411	517
681.812	501.4
682.236	491.8
682.637	487
683.061	489.8
683.462	489.4
683.864	495.6
684.288	501
684.69	493.4
685.114	508
685.516	506.6
685.94	488.6
686.342	509.6
686.766	488.6
687.168	494
687.571	514.8
687.995	505.4
688.398	491.2
688.822	493.2
689.225	504.8
689.628	509
690.052	500.6
690.456	502
690.88	492.4
691.284	498.8
691.687	500.8
692.112	490.4
692.515	500.2
692.919	506.6
693.344	505.6
693.747	488.2
694.173	488.2
694.577	505.2
694.98	494.8
695.406	493
695.81	498
696.214	498
696.64	505
697.044	504.2
697.448	511.4
697.874	496.4
698.279	494.6
698.684	488.8
699.11	492.8
699.514	495.6
699.919	502.4
700.324	492
700.75	502.4
701.156	496.2
701.561	507
701.987	497
702.393	503.6
702.798	501.6
703.203	496
703.63	490.2
704.036	494.4
704.442	500
704.847	484.4
705.274	496.8
705.68	501.8
706.086	500.4
706.492	488
706.92	491.2
707.326	494.6
707.732	485.6
708.139	480.8
708.545	479.4
708.973	490.8
709.38	500.2
709.786	490
710.193	503.6
710.6	495.8
711.028	489.8
711.435	496.2
711.842	498
712.249	489.8
712.656	494.4
713.064	508.4
713.492	487.6
713.9	500.4
714.307	499.4
714.715	487
715.123	499.2
715.53	497.8
715.938	504
716.367	496.8
716.775	493.6
717.184	488.2
717.592	496.4
718	495.2
718.408	520
718.816	530
719.225	501.2
719.633	494.8
720.042	487.8
720.472	487.6
720.881	502.8
721.29	491.8
721.699	490.2
722.108	490.8
722.517	492
722.926	480.8
723.335	501.8
723.744	497
724.154	489.2
724.563	494.2
724.973	492
725.382	494.6
725.792	499.4
726.202	496.6
726.612	505.4
727.022	490.6
727.432	487.8
779.813	492
780.223	533.4
780.634	493.2
781.044	490.6
781.454	491.8
781.865	500.2
782.276	486.4
782.686	496.6
783.097	495.8
783.508	495
783.919	502.6
784.33	503.2
784.741	508.4
785.152	490.2
785.563	484.4
785.974	494.2
786.386	502.2
786.776	490.6
787.188	498.2
787.599	487.2
788.011	499.8
788.423	498.4
788.835	490.4
789.247	485.6
789.659	491.8
790.071	492
790.483	522.6
790.874	487.8
791.286	500.4
791.699	490
792.111	489.8
792.524	491.8
792.937	494.8
793.349	490.6
793.741	485.6
794.154	495.2
794.567	516.2
794.98	487.8
795.393	486.2
795.785	509.6
796.198	495.8
796.612	498.4
797.026	489.4
797.439	486.6
797.831	495
798.245	484.4
798.659	487.6
799.073	492
799.487	483.6
799.88	495.4
800.294	493.6
800.708	494.4
801.123	494.2
801.516	507
801.93	488.4
802.345	491.2
802.76	491.2
803.153	508.4
803.568	506
803.983	504.4
804.377	496
804.792	483
805.207	486.6
805.601	495.8
806.016	519
806.432	493
806.826	515.2
807.242	507.8
807.658	491.6
808.052	493
808.468	492.8
808.884	492
809.279	490.4
809.695	500.8
810.111	515.4
810.506	496
810.922	510
811.339	496.2
811.734	502.4
812.151	491.8
812.546	491
812.963	490.4
813.38	492.6
813.776	494.6
814.193	512
814.589	488.4
815.006	491.2
815.402	488
815.82	486
816.237	489
816.633	498
817.051	488.6
817.448	489.6
817.866	485.4
818.262	514
818.68	488.2
819.077	486.2
819.495	494.6
819.892	523
820.311	482.4
820.708	485.2
821.127	491.8
821.524	501
821.943	493.8
822.34	499.6
822.759	489.4
823.157	498.4
823.576	507.8
823.974	500.6
824.393	549
824.791	491.2
825.189	492.4
825.609	487.4
826.007	497.4
826.427	480.8
826.826	491.4
827.246	494.8
827.644	488.2
828.043	507.2
828.463	485.4
828.862	495
829.261	495.2
829.682	481
830.081	496.8
830.502	482.8
830.901	493.2
831.301	484.4
831.722	489.4
832.121	486.4
832.521	485.2
832.943	487.8
833.342	484.4
833.742	482.2
834.164	487
834.564	480.8
834.965	490.4
835.386	494.4
835.787	490.4
836.188	488.6
836.588	491.6
837.01	488.6
837.411	489.4
837.812	492.4
838.213	499
838.636	487.4
839.037	533
839.438	495.6
839.84	494
840.263	500
840.664	491.2
841.066	494
841.468	490.8
841.891	490.2
842.293	497.4
842.695	497
843.098	501.2
843.5	485.8
843.902	490.2
844.326	499.2
844.729	486.4
845.131	507.2
845.534	488
845.937	510.4
846.34	507
846.764	491.6
847.167	508.4
847.571	488
847.974	487.4
848.377	487
848.781	528.2
849.184	501.2
849.588	491.6
849.992	489.4
850.396	490.8
850.821	506.6
851.225	494.2
851.63	489
852.034	491.2
852.438	495.8
852.843	515.4
853.247	482.8
853.652	487.2
854.057	508.8
854.462	490.6
854.867	489.6
855.272	512.2
855.677	495.2
856.082	488.2
856.487	483.8
856.893	492.8
