#lambda/nm	C1
208.295	468.6
208.67	431.2
209.045	398.8
209.419	401.6
209.794	529
210.169	519.4
210.544	612.6
210.919	533.2
211.295	525
211.67	527.4
212.045	523
212.421	529.6
212.796	557
213.172	522.8
213.547	529.8
213.923	528.2
214.299	526
214.675	538.8
215.051	530.2
215.427	538.6
215.803	546
216.179	530.2
216.555	521.6
216.932	537.2
217.308	524.4
217.684	525.8
218.061	534.2
218.438	520.6
218.814	523.2
219.191	547.4
219.568	526.4
219.945	535
220.322	535.8
220.699	531.4
221.076	538
221.453	522.2
221.83	520
222.208	528.2
222.585	526
222.962	537
223.34	536
223.717	531.2
224.095	530.2
224.473	531.2
224.851	534
225.229	516.8
225.607	539.6
225.985	518
226.363	531.4
226.741	534
227.119	526
227.497	534
227.876	515.8
228.254	537.2
228.633	528.2
229.011	530.6
229.39	541.8
229.769	531.8
230.148	531.2
230.527	539.8
230.905	534.8
231.284	530.6
231.664	523.4
232.043	538.8
232.422	531.6
232.801	519.6
233.181	539.6
233.56	531.2
233.94	522.6
234.319	526.2
234.699	522.6
235.079	559.6
235.458	563.4
235.838	542
236.218	521.2
236.598	519.2
236.978	517.2
237.358	520.2
237.738	523.4
238.119	525
238.499	517
238.88	530.4
239.26	531.4
239.641	519.2
240.021	522.8
240.402	525.6
240.783	528.6
241.163	528
241.544	528.4
241.925	528.8
242.306	531.6
242.687	516.4
243.069	532.6
243.45	538.6
243.831	523.8
244.212	521.6
244.594	549.2
244.975	535.6
245.357	526.6
245.739	523.2
246.12	529.8
246.502	544.4
246.884	530.2
247.266	524.6
247.648	531.2
248.03	549
248.412	528.4
248.794	535.8
249.176	526.2
249.559	538.4
249.941	522.4
250.323	515.4
250.706	524.6
251.089	533
251.471	523.8
251.854	531.2
252.237	531.2
252.62	534.4
253.002	529.4
253.385	527.6
253.769	541.4
254.152	528.2
254.535	541
254.918	527.8
255.301	521.4
255.685	528.6
256.068	520.6
256.452	545.8
256.835	534.6
257.219	538
257.603	537
257.986	521.2
258.37	534.6
258.754	518.2
259.138	529.8
259.522	529.6
259.906	524.8
260.29	522.8
260.675	521.2
261.059	523
261.443	523.4
261.828	533.4
262.212	530
262.597	520.4
262.981	529.2
263.366	535
263.751	521.4
264.136	521.8
264.521	522.4
264.906	521
265.291	529.8
265.676	527.4
266.061	529.2
266.446	540
266.831	526.8
267.217	545
267.602	529.8
267.987	533.4
268.373	528.2
268.759	535.8
269.144	532.2
269.53	530
269.916	527
270.302	524.8
270.688	527.6
271.074	530
271.46	537.2
271.846	552.4
272.232	525.8
272.618	522
273.004	525
273.391	537.2
273.777	539.6
274.164	533.2
274.55	549
274.937	530
275.324	533.6
275.71	529.4
276.097	531.8
276.484	522.8
276.871	532.8
277.258	539.6
277.645	520.8
278.032	535.8
278.419	515.4
278.807	533.6
279.194	521
279.581	520.8
279.969	528.4
280.356	529.4
280.744	523.6
281.131	549
281.519	539.6
281.907	529.4
282.295	525
282.682	535
283.07	532.8
283.458	535.2
283.846	540.4
284.235	534
284.623	534.6
285.011	520
285.399	529.8
285.788	532.4
286.176	515.2
286.565	537.6
286.953	522.8
287.342	520.6
287.731	522
288.119	524.2
288.508	526.2
288.897	532.8
289.286	516.2
289.675	527.2
290.064	535.4
290.453	521.2
290.821	526.8
291.21	540.2
291.599	525.6
291.989	523.4
292.378	529.6
292.768	540.4
293.157	527.2
293.547	530.2
293.936	535.4
294.326	521.6
294.716	534.4
295.106	521
295.496	534.6
295.886	534.6
296.276	530.2
296.666	524.6
297.056	523
297.446	516.2
297.836	534.4
298.227	534.8
298.617	531
299.008	542.8
299.398	528
299.789	523.6
300.179	531.2
300.57	535.4
300.961	524
301.352	526.4
301.742	537.4
302.133	523
302.524	528.4
302.915	534.2
303.307	520.8
303.698	532.4
304.089	533.4
304.48	526.2
304.872	531.2
305.263	533.2
305.655	527.8
306.046	533
306.438	529.6
306.829	520
307.221	548.6
307.613	532.4
308.005	530.4
308.397	534.6
308.789	544.6
309.181	550.8
309.573	538.6
309.965	542.8
310.357	530.6
310.749	539.8
311.142	520
311.534	528.4
311.926	532.4
312.319	526.2
312.711	527.6
313.104	543.2
313.497	530.8
313.889	561
314.282	538.4
314.675	547.8
315.068	529.4
315.461	538
315.854	556.2
316.247	532.6
316.64	523.6
317.033	530.2
317.405	531.8
317.798	531.6
318.192	539
318.585	521
318.979	530.2
319.372	520.6
319.766	525
320.16	537.4
320.553	540.2
320.947	548
321.341	527.4
321.735	532.8
322.129	527.6
322.523	541.2
322.917	519.2
323.311	533.2
323.705	530
324.099	535
324.494	535.6
324.888	535
325.282	528.2
325.677	532.2
326.071	528.4
326.466	538.2
326.861	532.2
327.255	534.4
327.65	536.4
328.045	530.6
328.44	531.4
328.835	527
329.23	519
329.625	544.6
330.02	523.8
330.415	543.2
330.81	533.8
331.206	530.2
331.601	525.6
331.996	531.4
332.37	544.8
332.766	513
333.161	543.8
333.557	523.6
333.953	530.6
334.348	770
334.744	526.8
335.14	515.4
335.536	511.6
335.932	528.2
336.328	520.4
336.724	534.4
337.12	522.8
337.516	525.2
337.913	521.4
338.309	536.8
338.705	521.6
339.102	538.2
339.498	523.4
339.895	531.4
340.291	517.4
340.688	534.2
341.085	517.2
341.481	523.6
341.878	531.2
342.275	532.4
342.672	519
343.069	524
343.466	517.6
343.842	534.6
344.239	517.2
344.636	522.2
345.033	523.6
345.431	523
345.828	530.2
346.225	521.8
346.623	559
347.02	527
347.418	534.4
347.816	541.4
348.213	511
348.611	531.2
349.009	518.2
349.407	532.8
349.805	517.8
350.203	516.6
350.601	529.4
350.999	518.4
351.397	568.4
351.795	524.2
352.193	533.2
352.57	529.4
352.969	532.4
353.367	514.8
353.766	517.8
354.164	524
354.563	526.2
354.961	524.4
355.36	522.2
355.759	518
356.158	513
356.557	516.6
356.956	512
357.355	515.4
357.754	527.4
358.153	525.2
358.552	538
358.951	521
359.35	528.4
359.75	518
360.149	512.2
360.527	515.6
360.926	516.4
361.326	517.4
361.726	524.8
362.125	524.6
362.525	537.8
362.925	520.8
363.325	525.8
363.724	521.4
364.124	519.2
364.524	512.8
364.924	518.8
365.324	534.8
365.725	516
366.125	520.8
366.525	523.2
366.904	519.2
367.304	505.6
367.705	537.4
368.105	532.2
368.506	525.6
368.906	526
369.307	516.4
369.708	531.6
370.108	506.8
370.509	540.8
370.91	510.6
371.311	519.8
371.712	527.2
372.113	513.4
372.514	512.8
372.894	524.4
373.295	517.8
373.696	530.4
374.097	525.8
374.499	546
374.9	528.2
375.301	518.6
375.703	522.2
376.105	515.4
376.506	528.4
376.908	528
377.309	525.6
377.711	515.2
378.113	515
378.493	524.4
378.895	523.4
379.297	527.2
379.699	507.6
380.102	518.4
380.504	529.4
380.906	523.4
381.308	536.6
381.71	518.4
382.113	527
382.515	515.8
382.918	521
383.299	521.8
383.701	526.2
384.104	527.2
384.507	506
384.909	521.2
385.312	522.6
385.715	516.2
386.118	520.4
386.521	513
386.924	525.2
387.327	516.8
387.709	515.4
388.112	510.2
388.515	512.4
388.918	513.4
389.322	525.8
389.725	514.4
390.129	534.6
390.532	516.8
390.936	518.4
391.339	511.4
391.743	521.6
392.125	516.8
392.529	525.8
392.933	527.4
393.337	517
393.74	517.6
394.144	513.8
394.548	517.8
394.953	522
395.357	526.8
395.761	516.6
396.144	522.4
396.548	521
396.952	517.4
397.357	523
397.761	510.6
398.166	521.6
398.57	519
398.975	507.6
399.379	522
399.763	558.4
400.168	521.4
400.572	516.2
400.977	518
401.382	527.8
401.787	530.8
402.192	527.4
402.597	530.8
403.002	508.4
403.386	531.4
403.791	530.2
404.197	512.2
404.602	519.2
405.007	515
405.413	511.2
405.818	519.6
406.224	522
406.608	522.8
407.014	506.8
407.42	533
407.825	521
408.231	527.4
408.637	522.6
409.043	531
409.449	520
409.834	517.8
410.24	522.6
410.646	527.4
411.052	527.2
411.458	529.6
411.865	524
412.271	522
412.677	516.8
413.062	525
413.469	513
413.875	541
414.282	531.6
414.689	519.6
415.095	524.6
415.502	521
415.888	521.2
416.294	503.2
416.701	546.6
417.108	514.4
417.515	531.2
417.923	521.6
418.33	538.2
418.715	526.6
419.123	524.4
419.53	516.8
419.937	519.6
420.345	537
420.752	518
421.16	535
421.546	523
421.953	526
422.361	515.2
422.769	515.6
423.177	515
423.585	543
423.992	539.6
424.379	528.2
424.787	528.4
425.195	537.6
425.603	515.6
426.011	525.8
426.419	529
426.806	516.6
427.214	522
427.623	531.6
428.031	528.2
428.44	524.8
428.848	531.8
429.235	532.2
429.644	523
430.053	528.2
430.461	534.6
430.87	536.2
431.279	529
431.666	513
432.075	522.6
432.484	523.6
432.893	524.8
433.302	526.4
433.711	560.6
434.099	523.4
434.508	518.8
434.918	512.8
435.327	525.6
435.737	530.4
436.125	537.4
436.534	538.6
436.944	541
437.353	548.8
437.763	560.4
438.173	549.2
438.561	557
438.971	548.4
439.381	564.4
439.791	570.4
440.201	558.8
440.589	587.6
440.999	597.2
441.409	595.8
441.819	589.8
442.23	606
442.619	618.8
443.029	621
443.439	635.4
443.85	636.8
444.26	645.2
444.649	646
445.06	640.2
445.471	642.8
445.881	655.2
446.292	666.4
446.682	671.6
447.092	665.8
447.503	696.4
447.914	675
448.325	670.2
448.715	685
449.126	685
449.537	687.8
449.948	687
450.338	689
450.75	703
451.161	700.4
451.572	708.4
451.984	693.8
452.374	697.6
452.786	705.6
453.197	710.2
453.609	714.6
453.999	703.4
454.411	706.4
454.823	719.2
455.235	717.4
455.647	720.8
456.037	729.6
456.449	710.8
456.862	728.6
457.274	721
457.665	717.2
458.077	748.6
458.489	760.6
458.902	736.8
459.293	733.4
459.705	745.8
460.118	738.2
460.53	737
460.921	749.4
461.334	761.8
461.747	755
462.16	771.2
462.551	763
462.964	762.2
463.377	751.2
463.79	758
464.182	785.2
464.595	767.8
465.008	767
465.421	782.8
465.813	769.4
466.226	792.4
466.64	766.8
467.053	812.6
467.445	805
467.859	803
468.272	792.4
468.686	807.8
469.078	802.2
469.492	791
469.906	798.2
470.298	803.6
470.712	801.4
471.126	830.8
471.54	796.4
471.933	792.4
472.347	800.4
472.761	796.2
473.175	794.8
473.568	813
473.982	804
474.397	806.2
474.79	813.6
475.204	808.6
475.619	806.6
476.033	820.4
476.426	815
476.841	814.2
477.256	816.6
477.649	809.8
478.064	806.4
478.479	808.4
478.872	800.2
479.287	795.6
479.702	792.4
480.118	800
480.511	807.8
480.927	805.2
481.342	798
481.736	796.8
482.151	791.8
482.566	803.8
482.96	805.2
483.376	813.4
483.792	795.4
484.186	805.6
484.602	798
485.017	792.6
485.412	800.2
485.827	796
486.243	797.8
486.638	812
487.054	799.8
487.47	806.4
487.865	784.6
488.281	790.4
488.697	778.8
489.092	778.6
489.508	778.6
489.925	796.4
490.32	766
490.736	791.6
491.153	782.6
491.548	775
491.964	779.6
492.381	760.4
492.776	773.8
493.193	777
493.61	773
494.006	774.6
494.422	784.2
494.84	766.2
495.235	779.8
495.652	759.4
496.069	761.8
496.465	758.4
496.883	754.8
497.3	778.6
497.696	752.2
498.113	761.6
498.509	747.6
498.927	751.6
499.344	746.8
499.741	744.6
500.158	754.2
500.576	747
500.973	741.2
501.39	734.2
501.787	721
502.205	741.2
502.623	735.6
503.02	718.8
503.438	728.4
503.856	723.2
504.253	730.6
504.671	722
505.068	713.8
505.486	716.4
505.905	736
506.302	719.8
506.72	725
507.118	713
507.536	709.4
507.955	714.8
508.352	715
508.771	708.6
509.169	715.8
509.587	706.4
510.006	703.6
510.404	689.8
510.823	687.6
511.221	698.8
511.64	690
512.038	699.6
512.457	699.8
512.877	688.2
513.275	682.4
513.694	683.2
514.092	681
514.512	693.8
514.91	687.2
515.33	676
515.749	676.8
516.148	684.8
516.568	677
516.966	676.8
517.386	680
517.785	669.4
518.205	659.6
518.603	663.2
519.024	667.8
519.444	661.8
519.843	669.2
520.263	670.6
520.662	670.6
521.082	653.2
521.481	647.8
521.902	651.2
522.301	651.8
522.722	654.8
523.121	650.6
523.542	644.2
523.963	642.6
524.362	637.6
524.783	635.4
525.183	644.2
525.604	634.8
526.003	633.6
526.425	630.2
526.824	635
527.246	640
527.646	637.4
528.067	625.6
528.467	632
528.888	637.6
529.289	613.8
529.71	618.8
530.11	618.8
530.532	618.4
530.932	608.4
531.354	614.4
531.755	642.4
532.176	624.4
532.577	613.8
532.999	612
533.4	616.2
533.822	609.4
534.223	607
534.645	610.6
535.046	604.8
535.468	605.8
535.869	622.6
536.292	603.8
536.693	626
537.115	607
537.516	596.4
537.939	609.4
538.34	618
538.742	602.4
539.165	609.6
539.566	608.6
539.989	600
540.391	597.4
540.814	606.6
541.216	606.4
541.639	605.4
542.041	609.6
542.464	593.4
542.866	593
543.268	591.8
543.691	599.8
544.093	599.4
544.517	604.6
544.919	582.6
545.343	601.6
545.745	586
546.147	588.6
546.571	586.4
546.974	583.6
547.398	584.6
547.8	590.6
548.224	569.8
548.627	580.2
549.03	583.2
549.454	575.8
549.857	567.8
550.281	570.6
550.684	576.8
551.087	580.8
551.512	580.8
551.915	586.2
552.34	583
552.743	568
553.146	578
553.571	574.8
553.975	582.6
554.399	566.4
554.803	602
555.207	567.6
555.632	561.8
556.036	570
556.461	556
556.865	566
557.268	558.6
557.694	570
558.098	564.2
558.502	569.4
558.927	564.2
559.332	560.8
559.736	563.8
560.162	567
560.566	557.6
560.992	563.2
561.396	561.8
561.801	559.8
562.227	557.2
562.631	560.2
563.036	564.8
563.462	559.6
563.867	558.2
564.272	538.8
564.698	564
565.103	548.8
565.508	569.6
565.935	555.4
566.34	543.4
566.745	563.8
567.172	547.6
567.577	569.6
567.982	561.4
568.409	554.4
568.815	546
569.22	549.8
569.626	549
570.053	534.6
570.459	549
570.865	558.8
571.292	546.6
571.698	550
572.104	536.6
572.531	542
572.937	555.8
573.343	545.2
573.75	537.2
574.177	536.6
574.583	544.2
574.99	534.2
575.396	547.4
575.824	536.4
576.231	541.8
576.637	539
577.065	561.6
577.472	533.4
577.879	537.6
578.286	558.2
578.714	531.2
579.121	533
579.528	541.6
579.935	541
580.364	535.6
580.771	523
581.178	522
581.585	539
582.014	536.4
582.421	534
582.829	525.6
583.236	537.8
583.644	523
584.073	535.4
584.481	526
584.889	529.8
585.296	531.2
585.726	528.4
586.134	520.8
586.542	527.2
586.95	538.6
587.358	521.8
587.787	526
588.196	516.6
588.604	523.6
589.012	517.6
589.421	519.8
589.851	517.6
590.259	531.4
590.668	523.6
591.076	558
591.485	518
591.894	523
592.324	537.6
592.733	526.4
593.142	511.2
593.551	519.6
593.96	550.8
594.369	516.8
594.8	511.2
595.209	526.8
595.618	512.4
596.028	520.8
596.437	510.2
596.847	521.6
597.256	525.8
597.687	519
598.097	512.2
598.507	510
598.917	529.4
599.327	519
599.736	518.4
600.146	529.2
600.556	517.6
600.988	530.2
601.398	516.6
601.808	527.4
602.219	508.8
602.629	517.8
603.039	521.4
603.45	540.6
603.86	516.6
604.271	532.2
604.703	516
605.114	518.4
605.525	519.2
605.935	522.6
606.346	533.6
606.757	523
607.168	512.8
607.579	507.4
607.99	528.6
608.402	513
608.813	512.2
609.224	517.8
609.636	507.6
610.047	509.8
610.48	524
610.892	522.2
611.303	529.2
611.715	523.4
612.127	506.2
612.539	519.4
612.95	520.2
613.362	510.8
613.774	511.2
614.186	510.4
614.599	521.8
615.011	527.2
615.423	508.4
615.835	524.6
616.248	514.6
616.66	517.6
617.073	510.2
617.485	518.2
617.898	526
618.311	528
618.723	523
619.136	548.4
619.549	536.6
619.962	543
620.375	516.8
620.788	524.6
621.201	516.6
621.614	526.2
622.028	518.8
622.441	523
622.854	537.8
623.268	517.2
623.681	525.8
624.095	522.2
624.509	522.4
624.922	526
625.336	516
625.728	526.6
626.142	531.8
626.556	529.6
626.97	518.2
627.384	516.2
627.799	521
628.213	522.2
628.627	520
629.041	511.6
629.456	518.8
629.87	518.6
630.285	523.2
630.699	532
631.093	515.8
631.507	520.8
631.922	521.6
632.337	529.8
632.752	511.8
633.167	519.4
633.582	510.4
633.997	524.8
634.412	512.2
634.806	519.4
635.221	516.2
635.637	521.8
636.052	517.8
636.468	526
636.883	532.2
637.299	526
637.715	512
638.109	524.8
638.525	502.4
638.941	522.4
639.357	523.2
639.773	522
640.189	518.2
640.584	519.2
641	518.4
641.416	505.6
641.832	515.4
642.249	515.8
642.665	515.6
643.06	520
643.477	527
643.894	499.6
644.31	515
644.727	515.6
645.123	511.2
645.54	507.2
645.957	511.2
646.374	517
646.77	511.8
647.187	529
647.604	509.8
648.021	494
648.439	501.8
648.835	512.2
649.252	508
649.67	512.4
650.088	509.4
650.484	514.6
650.902	502.2
651.32	515.4
651.738	498.4
652.134	503.2
652.552	520.2
652.971	510.4
653.389	507.8
653.786	516.2
654.204	510.4
654.622	511
655.019	505.2
655.438	514.6
655.857	516.6
656.275	514.4
656.673	499.4
657.091	521.4
657.51	509
657.908	511.8
658.327	521.6
658.746	497.4
659.144	510.6
659.563	523.8
659.982	504.6
660.38	497.8
660.8	515
661.219	511.4
661.617	503.2
662.037	513.2
662.457	516.2
662.855	490.8
663.275	526.2
663.695	504.6
664.094	506.8
664.514	510.6
664.934	501.8
665.333	507.4
665.753	503
666.152	503
666.572	503.2
666.993	520
667.392	502
667.812	506.6
668.212	506
668.632	516.2
669.053	501.8
669.453	509
669.874	503.8
670.273	511
670.694	501.2
671.116	510
671.515	512.2
671.937	502.8
672.337	499.4
672.758	506.8
673.158	504.4
673.58	495
673.98	513
674.402	511.6
674.824	503.6
675.224	495.6
675.646	495
676.047	498
676.469	504
676.869	512.2
677.292	497.4
677.693	500.4
678.115	492.8
678.516	513.4
678.939	511
679.34	498.6
679.762	508.8
680.164	505.6
680.586	492
680.988	501.4
681.411	516.4
681.812	497.2
682.236	494.4
682.637	492
683.061	494.6
683.462	505.6
683.864	494.8
684.288	501.6
684.69	494.8
685.114	504.6
685.516	496.6
685.94	492.2
686.342	506.8
686.766	497.4
687.168	500.8
687.571	515.8
687.995	496.8
688.398	496.6
688.822	495.8
689.225	515.8
689.628	520.2
690.052	502.6
690.456	506.8
690.88	499.2
691.284	495.2
691.687	507.4
692.112	489.6
692.515	484.8
692.919	501.4
693.344	498.6
693.747	491.2
694.173	494.6
694.577	505.2
694.98	497.2
695.406	492.4
695.81	497.4
696.214	500.8
696.64	500.4
697.044	504.6
697.448	504.4
697.874	497.6
698.279	501.6
698.684	503.6
699.11	497.6
699.514	495.2
699.919	493.6
700.324	498
700.75	500.2
701.156	495.6
701.561	507.6
701.987	496.4
702.393	509.2
702.798	510
703.203	500.8
703.63	496.8
704.036	494.6
704.442	493.2
704.847	490.2
705.274	499.2
705.68	498.4
706.086	512.2
706.492	489.6
706.92	495.2
707.326	511.8
707.732	491.2
708.139	493
708.545	494.6
708.973	500.6
709.38	497.4
709.786	484.2
710.193	514.6
710.6	498.8
711.028	487.4
711.435	492.6
711.842	489.2
712.249	492.8
712.656	487.8
713.064	505.2
713.492	489.8
713.9	495.6
714.307	496.2
714.715	492.8
715.123	499.4
715.53	491.4
715.938	504.2
716.367	490
716.775	490.8
717.184	481
717.592	492.8
718	507.2
718.408	523.8
718.816	536
719.225	501.2
719.633	496.4
720.042	481.8
720.472	491.6
720.881	510
721.29	503.2
721.699	484.4
722.108	490
722.517	493.2
722.926	497.6
723.335	499.6
723.744	499.6
724.154	496.2
724.563	493.6
724.973	498
725.382	493.2
725.792	490
726.202	485.2
726.612	512.6
727.022	492.6
727.432	491.4
779.813	492
780.223	530.8
780.634	494.8
781.044	489.8
781.454	491
781.865	507.2
782.276	487
782.686	501.6
783.097	493.8
783.508	497.2
783.919	499.8
784.33	508.8
784.741	506.4
785.152	488.6
785.563	484
785.974	487.4
786.386	506.4
786.776	495.8
787.188	498
787.599	493.2
788.011	499.6
788.423	500.6
788.835	493.8
789.247	487.2
789.659	489
790.071	490
790.483	529.8
790.874	495.4
791.286	510.6
791.699	492
792.111	495.2
792.524	495
792.937	482.6
793.349	487
793.741	478.4
794.154	485
794.567	500.8
794.98	493.8
795.393	479.8
795.785	505.4
796.198	491
796.612	491
797.026	484
797.439	479.8
797.831	494.4
798.245	482
798.659	486.6
799.073	487
799.487	484.8
799.88	492.2
800.294	491.6
800.708	498.6
801.123	490
801.516	507.4
801.93	484
802.345	485.8
802.76	489.4
803.153	503.4
803.568	493.4
803.983	508.2
804.377	498.8
804.792	488
805.207	478
805.601	498
806.016	523.2
806.432	488.6
806.826	521.2
807.242	508.4
807.658	499.6
808.052	496
808.468	488
808.884	489
809.279	498.2
809.695	503.4
810.111	508.8
810.506	504.2
810.922	510.6
811.339	493
811.734	500.6
812.151	489.8
812.546	492.2
812.963	488.6
813.38	494.2
813.776	493
814.193	511.8
814.589	482.6
815.006	491.6
815.402	490.2
815.82	486.4
816.237	492.4
816.633	492
817.051	485.8
817.448	499.2
817.866	479.4
818.262	506
818.68	487.8
819.077	489.2
819.495	488.4
819.892	527.8
820.311	492.2
820.708	494.6
821.127	494
821.524	498.8
821.943	496.2
822.34	509
822.759	499.2
823.157	497.2
823.576	507.6
823.974	505.2
824.393	575
824.791	496.4
825.189	489
825.609	493
826.007	495.8
826.427	486.4
826.826	501
827.246	498.8
827.644	484.2
828.043	500.4
828.463	489.2
828.862	503.4
829.261	495
829.682	483.8
830.081	500.6
830.502	491.8
830.901	496.4
831.301	487.2
831.722	473.4
832.121	492.2
832.521	483.8
832.943	491.6
833.342	491.6
833.742	482.8
834.164	482.6
834.564	485.6
834.965	489.8
835.386	487
835.787	485
836.188	488.4
836.588	494.6
837.01	487.6
837.411	482.6
837.812	500.6
838.213	493.4
838.636	492.6
839.037	537.8
839.438	497.8
839.84	488.8
840.263	497.2
840.664	496.6
841.066	490.4
841.468	494.6
841.891	487.8
842.293	497.6
842.695	495.6
843.098	493.6
843.5	488.6
843.902	494
844.326	496.6
844.729	495.8
845.131	500.2
845.534	490.6
845.937	501
846.34	507
846.764	485.2
847.167	495.2
847.571	483.4
847.974	493.8
848.377	495
848.781	525.2
849.184	499.4
849.588	488.4
849.992	491.4
850.396	492.8
850.821	512.2
851.225	492.8
851.63	487.4
852.034	500.8
852.438	499.4
852.843	555
853.247	483.4
853.652	478.4
854.057	502.2
854.462	490.8
854.867	493.2
855.272	509.8
855.677	500.8
856.082	492.2
856.487	488.4
856.893	493.2
