#lambda/nm	C1
208.295	469.2
208.67	432.6
209.045	388.8
209.419	393.6
209.794	532.8
210.169	516.4
210.544	607.4
210.919	533.4
211.295	521.4
211.67	533.4
212.045	526.4
212.421	525.6
212.796	556.6
213.172	523
213.547	526
213.923	526.6
214.299	520.6
214.675	527.8
215.051	534.4
215.427	531.4
215.803	540.4
216.179	534
216.555	526
216.932	531
217.308	535.4
217.684	530.2
218.061	537.6
218.438	526.8
218.814	521.6
219.191	534.6
219.568	515.8
219.945	527
220.322	530
220.699	532.2
221.076	535.2
221.453	529.8
221.83	522.6
222.208	532.8
222.585	528
222.962	527.4
223.34	535.2
223.717	525.2
224.095	522.8
224.473	520.6
224.851	518.4
225.229	519.8
225.607	542.8
225.985	516
226.363	532.4
226.741	529.8
227.119	532.8
227.497	537
227.876	524
228.254	531.2
228.633	536.4
229.011	534.2
229.39	535.6
229.769	532.4
230.148	532.8
230.527	544.2
230.905	532.6
231.284	527
231.664	529.6
232.043	536.4
232.422	535
232.801	526.6
233.181	530.6
233.56	529.6
233.94	525.2
234.319	522.8
234.699	524.2
235.079	554.4
235.458	565.4
235.838	540.4
236.218	523.6
236.598	519.8
236.978	527.4
237.358	525.6
237.738	532.8
238.119	531.8
238.499	520.2
238.88	532
239.26	539.2
239.641	516.6
240.021	530.6
240.402	535
240.783	532
241.163	535.4
241.544	536
241.925	523
242.306	546
242.687	524.4
243.069	530.6
243.45	535.6
243.831	536.2
244.212	527
244.594	553
244.975	533.8
245.357	528.2
245.739	526.6
246.12	532.8
246.502	548.4
246.884	528.2
247.266	524.8
247.648	534.4
248.03	551.4
248.412	528.4
248.794	533.2
249.176	525.8
249.559	533
249.941	520.4
250.323	521.2
250.706	527
251.089	535
251.471	530.2
251.854	526.2
252.237	524.8
252.62	537
253.002	528.6
253.385	519.6
253.769	539.2
254.152	524.2
254.535	534.8
254.918	525.8
255.301	528.6
255.685	527.4
256.068	515.8
256.452	543
256.835	534
257.219	532.8
257.603	540.6
257.986	511.8
258.37	537.4
258.754	516.6
259.138	529.2
259.522	539.4
259.906	524.2
260.29	531
260.675	535.6
261.059	531
261.443	517
261.828	531.6
262.212	533.4
262.597	520
262.981	528
263.366	531.2
263.751	538.2
264.136	526.2
264.521	525.6
264.906	528.2
265.291	535.4
265.676	527.2
266.061	532.6
266.446	544.8
266.831	532.4
267.217	540.2
267.602	531.8
267.987	538.2
268.373	527
268.759	528.2
269.144	536.4
269.53	527.4
269.916	522.2
270.302	531
270.688	534.6
271.074	528.2
271.46	535.4
271.846	546.4
272.232	518.8
272.618	518
273.004	529.2
273.391	533.2
273.777	533.2
274.164	526
274.55	541.6
274.937	529
275.324	526.4
275.71	527.4
276.097	532.8
276.484	527.6
276.871	528.6
277.258	522.6
277.645	524
278.032	517.2
278.419	522.6
278.807	527.4
279.194	522.4
279.581	517.6
279.969	530.2
280.356	523.6
280.744	531.6
281.131	546.4
281.519	536.4
281.907	527
282.295	516.2
282.682	536.2
283.07	523.4
283.458	538.8
283.846	540.4
284.235	540.2
284.623	533.2
285.011	519.4
285.399	531.8
285.788	532.2
286.176	514.4
286.565	538
286.953	525.4
287.342	529.6
287.731	520.6
288.119	517.4
288.508	521
288.897	532.2
289.286	516.4
289.675	526
290.064	537.6
290.453	518.8
290.821	526.4
291.21	542.2
291.599	524.4
291.989	530
292.378	531
292.768	536.4
293.157	536.4
293.547	534
293.936	526.4
294.326	519.2
294.716	531.8
295.106	528.6
295.496	537.2
295.886	541
296.276	530.6
296.666	524
297.056	529
297.446	521.6
297.836	542.8
298.227	529.4
298.617	526.4
299.008	542.6
299.398	529.4
299.789	525.4
300.179	529.6
300.57	532.8
300.961	525.4
301.352	522.6
301.742	526
302.133	531.4
302.524	523.2
302.915	537.4
303.307	523.4
303.698	538.8
304.089	528.2
304.48	525.4
304.872	524.4
305.263	533.2
305.655	525.8
306.046	537
306.438	526.2
306.829	519.2
307.221	540.6
307.613	531.4
308.005	540
308.397	538.2
308.789	543.6
309.181	545.2
309.573	542
309.965	541.8
310.357	529
310.749	534.4
311.142	524.2
311.534	523.6
311.926	528
312.319	530.6
312.711	523.6
313.104	538.2
313.497	528.8
313.889	559.2
314.282	537.6
314.675	545
315.068	528.6
315.461	533.4
315.854	552.8
316.247	535.8
316.64	525
317.033	531.2
317.405	537.2
317.798	532.6
318.192	527.2
318.585	521.6
318.979	533.4
319.372	528
319.766	530
320.16	537
320.553	548.8
320.947	535.8
321.341	530.8
321.735	529.4
322.129	514.4
322.523	548.4
322.917	526.8
323.311	539.2
323.705	527.2
324.099	530.4
324.494	545
324.888	532.8
325.282	528.4
325.677	534.4
326.071	537.8
326.466	535.2
326.861	538.2
327.255	535.4
327.65	540
328.045	537.4
328.44	538
328.835	531.2
329.23	527.8
329.625	540.8
330.02	529
330.415	549
330.81	527
331.206	529.8
331.601	523.6
331.996	540
332.37	549.6
332.766	521.2
333.161	549.4
333.557	524.4
333.953	537.4
334.348	698.2
334.744	534.2
335.14	524.6
335.536	522.2
335.932	536.4
336.328	525.8
336.724	536
337.12	533.8
337.516	532
337.913	531.6
338.309	542.8
338.705	523.4
339.102	533.4
339.498	525.6
339.895	534.8
340.291	535.2
340.688	539
341.085	531.6
341.481	521.8
341.878	525.6
342.275	549.6
342.672	519
343.069	527
343.466	523
343.842	536.4
344.239	520.4
344.636	526.2
345.033	524.4
345.431	524.4
345.828	523.4
346.225	521.8
346.623	554.2
347.02	531.8
347.418	531.8
347.816	529
348.213	521.6
348.611	529
349.009	515
349.407	538.2
349.805	514.2
350.203	513.8
350.601	544.8
350.999	523.8
351.397	579.8
351.795	530.2
352.193	528.2
352.57	532.4
352.969	533.2
353.367	516.8
353.766	522.4
354.164	522.8
354.563	535.8
354.961	527.8
355.36	530.2
355.759	525.6
356.158	517.8
356.557	519
356.956	517.8
357.355	517.4
357.754	529.2
358.153	529.8
358.552	543.2
358.951	515.2
359.35	532.2
359.75	522.2
360.149	519
360.527	511.4
360.926	516.2
361.326	519.2
361.726	518.8
362.125	513.6
362.525	535.4
362.925	518.6
363.325	518.6
363.724	519.4
364.124	515
364.524	516.6
364.924	517.2
365.324	535.6
365.725	513.6
366.125	529.4
366.525	523.8
366.904	517
367.304	503
367.705	533.6
368.105	528.8
368.506	526.4
368.906	522.8
369.307	510.8
369.708	523
370.108	502.6
370.509	524.6
370.91	515
371.311	519.6
371.712	511.4
372.113	524.4
372.514	501.6
372.894	519.6
373.295	519.2
373.696	528.6
374.097	518.6
374.499	545.8
374.9	518.2
375.301	506.6
375.703	521.2
376.105	517.4
376.506	518.2
376.908	517.4
377.309	521.6
377.711	521.2
378.113	513
378.493	522.6
378.895	511.8
379.297	520.4
379.699	503.8
380.102	522.2
380.504	516.2
380.906	517.8
381.308	538.4
381.71	508
382.113	527.4
382.515	517
382.918	524.4
383.299	515.4
383.701	522.4
384.104	521.6
384.507	497.6
384.909	523.4
385.312	510
385.715	509.2
386.118	517
386.521	510.4
386.924	529.4
387.327	515
387.709	507.2
388.112	505.6
388.515	518.6
388.918	517.2
389.322	515.2
389.725	515.6
390.129	539.2
390.532	521.4
390.936	519.6
391.339	516
391.743	524.2
392.125	516.8
392.529	524.6
392.933	530.4
393.337	525.6
393.74	512.4
394.144	519.8
394.548	516.8
394.953	523.6
395.357	532.8
395.761	515.8
396.144	512.6
396.548	515.4
396.952	525
397.357	519
397.761	511.4
398.166	510.6
398.57	518.4
398.975	506.2
399.379	520.2
399.763	559
400.168	525.6
400.572	518.4
400.977	508.6
401.382	529.6
401.787	527.6
402.192	532.4
402.597	530
403.002	505.4
403.386	525.6
403.791	532
404.197	517.8
404.602	516.4
405.007	526.6
405.413	516.8
405.818	514.4
406.224	516.4
406.608	521
407.014	515.6
407.42	531.8
407.825	515.6
408.231	519.4
408.637	526.6
409.043	532.6
409.449	512.6
409.834	519.6
410.24	516.6
410.646	534.4
411.052	522.8
411.458	526.8
411.865	526.4
412.271	530.2
412.677	515
413.062	532.2
413.469	514.6
413.875	544
414.282	526.2
414.689	524.2
415.095	519.6
415.502	520.2
415.888	518.2
416.294	508
416.701	549.4
417.108	517.8
417.515	525.4
417.923	519.2
418.33	531.6
418.715	533.4
419.123	523.8
419.53	522.8
419.937	522
420.345	529.4
420.752	517.6
421.16	532.8
421.546	513.6
421.953	531.8
422.361	515.4
422.769	521.6
423.177	519.2
423.585	538.4
423.992	540
424.379	534
424.787	532.8
425.195	536.8
425.603	514.6
426.011	533
426.419	534.2
426.806	523.8
427.214	529.6
427.623	527.2
428.031	529.6
428.44	527.2
428.848	527.6
429.235	539.2
429.644	518.8
430.053	534.4
430.461	536.2
430.87	552
431.279	537
431.666	527.2
432.075	533.8
432.484	541.4
432.893	531.8
433.302	550
433.711	581.8
434.099	556.4
434.508	553.6
434.918	547.8
435.327	570.8
435.737	562.8
436.125	577
436.534	585
436.944	583.6
437.353	606.2
437.763	618.4
438.173	601.8
438.561	622
438.971	615.4
439.381	622.8
439.791	635
440.201	631.4
440.589	655.4
440.999	663.6
441.409	672
441.819	663.4
442.23	684.8
442.619	698.2
443.029	699.8
443.439	697
443.85	709.6
444.26	726
444.649	726.8
445.06	720.6
445.471	720.2
445.881	728.2
446.292	744
446.682	757.2
447.092	733.6
447.503	780.4
447.914	750.2
448.325	762.8
448.715	752.6
449.126	756.8
449.537	765.6
449.948	767.8
450.338	769.6
450.75	783.4
451.161	780.2
451.572	787.2
451.984	780.8
452.374	770.6
452.786	784.2
453.197	793
453.609	786.2
453.999	782.4
454.411	787.2
454.823	803.6
455.235	792.4
455.647	796.4
456.037	798.2
456.449	797.2
456.862	802.8
457.274	801.2
457.665	792.4
458.077	816.4
458.489	825
458.902	807
459.293	813.2
459.705	813.4
460.118	803.2
460.53	818.6
460.921	822
461.334	815.4
461.747	817.6
462.16	844.4
462.551	835
462.964	836.8
463.377	819.6
463.79	835.4
464.182	840.6
464.595	828.4
465.008	830.2
465.421	832.2
465.813	829.8
466.226	830.2
466.64	828.8
467.053	866.6
467.445	843.8
467.859	850.2
468.272	838
468.686	846.6
469.078	852
469.492	835.2
469.906	844.4
470.298	852.4
470.712	832.2
471.126	871
471.54	838
471.933	853.4
472.347	852
472.761	863.8
473.175	847.2
473.568	843.8
473.982	840.2
474.397	851
474.79	843.8
475.204	852.4
475.619	839.6
476.033	838.8
476.426	839.6
476.841	838.8
477.256	864.8
477.649	831.2
478.064	828.2
478.479	826
478.872	831.8
479.287	822.8
479.702	823.6
480.118	843.6
480.511	834.6
480.927	835.8
481.342	838.4
481.736	830.6
482.151	830
482.566	838.2
482.96	826.8
483.376	835.6
483.792	820.4
484.186	832
484.602	820
485.017	823.4
485.412	825.2
485.827	816.2
486.243	826
486.638	836.2
487.054	833.4
487.47	837.6
487.865	812
488.281	806.2
488.697	813.4
489.092	810.6
489.508	803.6
489.925	827.8
490.32	798.8
490.736	812.2
491.153	805.2
491.548	806.2
491.964	810.4
492.381	797.8
492.776	781.2
493.193	799.6
493.61	799.2
494.006	785
494.422	791.8
494.84	785.6
495.235	797.4
495.652	787.2
496.069	777.4
496.465	771.2
496.883	771.6
497.3	794.8
497.696	779.4
498.113	768.8
498.509	753.4
498.927	758.4
499.344	755.8
499.741	749
500.158	767.4
500.576	767.6
500.973	764
501.39	740.6
501.787	751.6
502.205	748.8
502.623	749.2
503.02	736
503.438	734.8
503.856	738.8
504.253	748
504.671	739.6
505.068	727.6
505.486	736
505.905	743.4
506.302	727.4
506.72	736.2
507.118	715.2
507.536	725.6
507.955	722.8
508.352	724.2
508.771	732.8
509.169	720.4
509.587	709.8
510.006	698.2
510.404	705.4
510.823	705.2
511.221	698
511.64	705.4
512.038	704.8
512.457	705
512.877	702.4
513.275	691.6
513.694	695.2
514.092	687.6
514.512	692
514.91	699.6
515.33	680
515.749	687.8
516.148	697.8
516.568	680
516.966	676.2
517.386	680.6
517.785	681.2
518.205	671.2
518.603	667.2
519.024	665.6
519.444	673.4
519.843	669.2
520.263	674.6
520.662	670.6
521.082	669
521.481	651.8
521.902	653.4
522.301	660.6
522.722	665.6
523.121	655.4
523.542	654
523.963	660.6
524.362	643.4
524.783	639.6
525.183	641.6
525.604	644.8
526.003	637.4
526.425	640
526.824	651.4
527.246	648.6
527.646	640.4
528.067	642
528.467	639
528.888	640.4
529.289	627.6
529.71	635.4
530.11	631
530.532	628.6
530.932	622.4
531.354	615
531.755	650.8
532.176	627.2
532.577	628.2
532.999	625.8
533.4	611.8
533.822	619
534.223	619.8
534.645	612
535.046	612.2
535.468	619.6
535.869	626.2
536.292	612.8
536.693	647.8
537.115	608
537.516	614
537.939	613.6
538.34	613.8
538.742	614
539.165	609.2
539.566	606.4
539.989	606.4
540.391	601.6
540.814	608
541.216	607.6
541.639	600.6
542.041	605.6
542.464	596
542.866	585
543.268	584.8
543.691	605.8
544.093	598.6
544.517	605
544.919	589.8
545.343	606.2
545.745	596.6
546.147	599.6
546.571	593.8
546.974	587
547.398	588.6
547.8	595
548.224	579
548.627	580.8
549.03	587.6
549.454	577.2
549.857	575.6
550.281	581.4
550.684	571
551.087	591.2
551.512	582
551.915	579
552.34	583
552.743	580
553.146	581.8
553.571	575
553.975	589.8
554.399	573.2
554.803	612.6
555.207	574.4
555.632	567
556.036	575.6
556.461	568.6
556.865	574.8
557.268	572.4
557.694	570.4
558.098	576.2
558.502	571
558.927	564.8
559.332	560.4
559.736	564.8
560.162	572
560.566	560.8
560.992	567.2
561.396	556.2
561.801	562.4
562.227	560.2
562.631	553
563.036	557.2
563.462	563
563.867	551.2
564.272	545.6
564.698	556.4
565.103	545
565.508	574.2
565.935	554
566.34	557.4
566.745	555.6
567.172	550.2
567.577	572.6
567.982	560.4
568.409	552.8
568.815	538.2
569.22	559
569.626	556.2
570.053	534
570.459	549
570.865	556.8
571.292	553.6
571.698	550.2
572.104	532
572.531	538.2
572.937	552.6
573.343	533.4
573.75	538.6
574.177	548
574.583	547.6
574.99	541.4
575.396	542
575.824	541.8
576.231	539.4
576.637	536.2
577.065	556
577.472	534.6
577.879	537.2
578.286	556
578.714	535.6
579.121	536.8
579.528	542.4
579.935	537.6
580.364	539.6
580.771	517.4
581.178	533.2
581.585	541.8
582.014	542.2
582.421	529.2
582.829	530.8
583.236	536.2
583.644	535.8
584.073	533.8
584.481	530.6
584.889	527.6
585.296	545.6
585.726	534.4
586.134	528
586.542	529.4
586.95	548.4
587.358	519
587.787	527
588.196	526.2
588.604	532.2
589.012	528
589.421	526.8
589.851	520
590.259	524.2
590.668	520.6
591.076	557.2
591.485	522
591.894	525.2
592.324	536.4
592.733	529
593.142	507.8
593.551	522.4
593.96	520.6
594.369	518
594.8	520
595.209	527.6
595.618	511.4
596.028	506.8
596.437	516
596.847	520.6
597.256	523.4
597.687	523.6
598.097	518.6
598.507	510.2
598.917	519.8
599.327	529.8
599.736	523.4
600.146	530
600.556	520.2
600.988	531.4
601.398	523.8
601.808	529.2
602.219	507.2
602.629	519.6
603.039	521.8
603.45	542.8
603.86	522.6
604.271	527.2
604.703	528
605.114	520
605.525	521.8
605.935	527.2
606.346	539.2
606.757	523.8
607.168	516.4
607.579	514.2
607.99	522.6
608.402	523.2
608.813	523.8
609.224	514.4
609.636	512.4
610.047	520.2
610.48	525.4
610.892	522.6
611.303	529.2
611.715	520.4
612.127	515.2
612.539	513.4
612.95	524.4
613.362	515.6
613.774	514.2
614.186	518.8
614.599	517.4
615.011	526.4
615.423	522.8
615.835	513.2
616.248	509.6
616.66	524.2
617.073	510.6
617.485	522.8
617.898	529.8
618.311	522.6
618.723	525.2
619.136	544.8
619.549	531.6
619.962	534.2
620.375	515.2
620.788	535.8
621.201	529.2
621.614	532.6
622.028	518.8
622.441	533
622.854	533.6
623.268	525.8
623.681	529.8
624.095	520.8
624.509	540
624.922	524.6
625.336	515.4
625.728	528.4
626.142	526.4
626.556	541.6
626.97	530.2
627.384	530
627.799	530.4
628.213	534.2
628.627	531.2
629.041	525.2
629.456	531
629.87	526.4
630.285	532.8
630.699	533.4
631.093	526.4
631.507	521
631.922	532.6
632.337	536
632.752	522.2
633.167	531.4
633.582	525.8
633.997	519.4
634.412	519.4
634.806	522.4
635.221	521.2
635.637	534
636.052	519.6
636.468	522.2
636.883	529.2
637.299	521.4
637.715	519.6
638.109	520.8
638.525	506.4
638.941	529.2
639.357	515.6
639.773	523.4
640.189	514.6
640.584	516.6
641	523.8
641.416	509.4
641.832	520.4
642.249	513
642.665	517.2
643.06	525.4
643.477	523.2
643.894	508
644.31	514.8
644.727	523.2
645.123	511.4
645.54	512.6
645.957	520
646.374	527.2
646.77	519.8
647.187	543.8
647.604	517.8
648.021	504
648.439	502.8
648.835	509.8
649.252	519.4
649.67	509.6
650.088	515.2
650.484	518.4
650.902	523.4
651.32	518.2
651.738	513.8
652.134	514
652.552	521.8
652.971	519.8
653.389	515.2
653.786	520.2
654.204	512.4
654.622	506.6
655.019	509.4
655.438	510.2
655.857	512.8
656.275	518
656.673	498.6
657.091	519.6
657.51	504.2
657.908	517
658.327	526.6
658.746	501
659.144	503.2
659.563	515
659.982	508.4
660.38	496.8
660.8	496.2
661.219	513.2
661.617	508.8
662.037	505.8
662.457	518.4
662.855	497.8
663.275	531.4
663.695	513.8
664.094	509.2
664.514	512
664.934	497.8
665.333	512
665.753	500.8
666.152	492
666.572	503
666.993	520.2
667.392	497.4
667.812	506.6
668.212	494.8
668.632	512.6
669.053	502.8
669.453	511.6
669.874	501.2
670.273	509
670.694	498.4
671.116	504.4
671.515	506.2
671.937	498.2
672.337	497.2
672.758	499.6
673.158	511.8
673.58	494.8
673.98	502.8
674.402	514.8
674.824	498.6
675.224	493
675.646	495.2
676.047	493
676.469	504.4
676.869	508
677.292	504
677.693	497.2
678.115	497.4
678.516	505.8
678.939	502.2
679.34	499.8
679.762	505.8
680.164	514.4
680.586	505.2
680.988	512.2
681.411	525
681.812	493.8
682.236	497.8
682.637	494.4
683.061	492.6
683.462	501.6
683.864	498.8
684.288	501.4
684.69	490.8
685.114	512.2
685.516	500.8
685.94	490.8
686.342	500.6
686.766	491.8
687.168	491.6
687.571	512
687.995	500.6
688.398	491.8
688.822	490.6
689.225	510.4
689.628	511.4
690.052	497.6
690.456	502.8
690.88	498.2
691.284	499.2
691.687	504.6
692.112	493.4
692.515	488.2
692.919	496.2
693.344	496.8
693.747	499.4
694.173	501.6
694.577	502
694.98	493.2
695.406	502.8
695.81	507.4
696.214	504.8
696.64	499.4
697.044	508.2
697.448	503
697.874	499.8
698.279	501.2
698.684	487.4
699.11	489.4
699.514	497
699.919	502.6
700.324	489
700.75	491.8
701.156	496.4
701.561	506.6
701.987	497.6
702.393	507.4
702.798	504.4
703.203	501.6
703.63	503.2
704.036	493.4
704.442	501
704.847	508.6
705.274	502
705.68	498.4
706.086	505.4
706.492	491.2
706.92	496.4
707.326	504.6
707.732	492.2
708.139	490.8
708.545	495
708.973	497.2
709.38	497.2
709.786	496
710.193	510.2
710.6	498.4
711.028	502.2
711.435	496.4
711.842	499.2
712.249	490.4
712.656	491
713.064	504.8
713.492	489
713.9	495.8
714.307	507.4
714.715	496.8
715.123	503
715.53	503.6
715.938	501.8
716.367	499
716.775	493
717.184	488.2
717.592	497
718	503.8
718.408	529.4
718.816	530.6
719.225	499
719.633	505.2
720.042	493
720.472	490.6
720.881	512.2
721.29	504
721.699	494.6
722.108	495.2
722.517	499.2
722.926	500.2
723.335	510.2
723.744	498.2
724.154	495.2
724.563	495.6
724.973	496.8
725.382	506.8
725.792	502.6
726.202	487
726.612	506
727.022	500.8
727.432	492.2
779.813	500
780.223	532.6
780.634	495.6
781.044	493.6
781.454	488.6
781.865	506.2
782.276	489.4
782.686	503
783.097	496.8
783.508	504
783.919	499.2
784.33	502.6
784.741	507.6
785.152	494.2
785.563	481.2
785.974	485.2
786.386	497.4
786.776	497.8
787.188	491.8
787.599	488.6
788.011	503.8
788.423	508.4
788.835	488.8
789.247	489.8
789.659	488.2
790.071	491.2
790.483	522.4
790.874	492.4
791.286	506
791.699	485.4
792.111	496
792.524	499
792.937	487.2
793.349	487
793.741	494.2
794.154	491.8
794.567	504
794.98	493.4
795.393	494.6
795.785	504.2
796.198	496.6
796.612	499.4
797.026	492
797.439	476.4
797.831	495.8
798.245	487.8
798.659	495.8
799.073	487.8
799.487	487
799.88	498.2
800.294	499
800.708	499.8
801.123	497.6
801.516	513
801.93	493
802.345	485.2
802.76	503.4
803.153	502.8
803.568	508.6
803.983	500.8
804.377	496.6
804.792	491.2
805.207	488.6
805.601	494.6
806.016	528.2
806.432	489.2
806.826	520.6
807.242	500
807.658	490.2
808.052	482.2
808.468	489.8
808.884	487.4
809.279	483.8
809.695	505.8
810.111	511.2
810.506	489.4
810.922	502
811.339	491.8
811.734	504.8
812.151	496.4
812.546	493.8
812.963	497.2
813.38	494.4
813.776	496.4
814.193	506.4
814.589	482.4
815.006	488.4
815.402	475.4
815.82	493.6
816.237	492
816.633	496.2
817.051	488
817.448	495.6
817.866	485
818.262	505
818.68	483.8
819.077	485.2
819.495	488
819.892	527.8
820.311	477
820.708	486.4
821.127	490
821.524	497.2
821.943	503.2
822.34	508
822.759	496.8
823.157	494.2
823.576	503.2
823.974	489
824.393	549.8
824.791	490.6
825.189	480.2
825.609	489.6
826.007	495.8
826.427	486
826.826	487.4
827.246	492.6
827.644	483
828.043	503.6
828.463	490.2
828.862	499.2
829.261	493.4
829.682	491.6
830.081	496.2
830.502	489.8
830.901	494.6
831.301	490.8
831.722	485
832.121	491.8
832.521	493
832.943	484.6
833.342	485.8
833.742	480.6
834.164	486.4
834.564	482.8
834.965	490.6
835.386	496.4
835.787	497.2
836.188	492.6
836.588	495.8
837.01	488.8
837.411	486.2
837.812	489.6
838.213	494.4
838.636	491
839.037	546.6
839.438	490.8
839.84	496.8
840.263	497.8
840.664	496.6
841.066	493
841.468	490.8
841.891	489
842.293	493.6
842.695	491.8
843.098	498.2
843.5	483
843.902	495
844.326	492
844.729	492.6
845.131	500.6
845.534	500.4
845.937	499.6
846.34	506.2
846.764	491.2
847.167	492.8
847.571	484.4
847.974	493.6
848.377	489.2
848.781	525.6
849.184	503.4
849.588	490.6
849.992	488
850.396	488.6
850.821	502.4
851.225	493
851.63	498
852.034	505.4
852.438	486
852.843	519.4
853.247	486
853.652	485.8
854.057	503.8
854.462	490.8
854.867	489.8
855.272	513.2
855.677	499.2
