#lambda/nm	C1
208.295	463
208.67	433
209.045	391.8
209.419	403.4
209.794	533.8
210.169	517.4
210.544	613
210.919	537.6
211.295	513.4
211.67	529
212.045	531.2
212.421	519.6
212.796	553.6
213.172	524.8
213.547	521.2
213.923	524.4
214.299	522.8
214.675	533.2
215.051	529.8
215.427	528.6
215.803	544
216.179	532.6
216.555	530.6
216.932	537.8
217.308	523.8
217.684	527.6
218.061	536.2
218.438	535.2
218.814	525
219.191	535.4
219.568	524
219.945	524.8
220.322	527.6
220.699	526.6
221.076	531.8
221.453	527
221.83	524.8
222.208	532
222.585	526
222.962	529.4
223.34	530.6
223.717	525
224.095	520.4
224.473	529.8
224.851	531.2
225.229	520.2
225.607	536.8
225.985	521.8
226.363	530.2
226.741	531.4
227.119	524.8
227.497	538
227.876	516.8
228.254	532.8
228.633	532.6
229.011	535.8
229.39	530.6
229.769	532.8
230.148	533
230.527	547
230.905	527.8
231.284	529.2
231.664	522.6
232.043	540.8
232.422	540.2
232.801	529.4
233.181	523.8
233.56	521.8
233.94	525.8
234.319	523
234.699	527
235.079	552.8
235.458	554.2
235.838	542.8
236.218	518.2
236.598	517.4
236.978	518.2
237.358	518.2
237.738	521.6
238.119	526
238.499	518
238.88	524.2
239.26	532
239.641	515.6
240.021	524.2
240.402	522.4
240.783	524.6
241.163	522.6
241.544	533.2
241.925	524
242.306	541.8
242.687	523.4
243.069	528.2
243.45	530.4
243.831	518.2
244.212	514.8
244.594	558.2
244.975	532.2
245.357	527.8
245.739	517.4
246.12	527.8
246.502	536.8
246.884	523
247.266	515.6
247.648	523.4
248.03	538.6
248.412	524.6
248.794	527.8
249.176	530.2
249.559	536.8
249.941	507.2
250.323	516.4
250.706	524
251.089	529.4
251.471	532.4
251.854	534
252.237	523.6
252.62	534.2
253.002	533.6
253.385	523.4
253.769	543.2
254.152	531
254.535	537.2
254.918	526
255.301	536.8
255.685	527
256.068	519.4
256.452	547.8
256.835	539.4
257.219	535.4
257.603	541.4
257.986	524.2
258.37	534.4
258.754	527
259.138	528.2
259.522	532
259.906	525.2
260.29	529.4
260.675	518.4
261.059	527.6
261.443	513.2
261.828	529.6
262.212	532.4
262.597	518.6
262.981	521.8
263.366	530.6
263.751	522.4
264.136	524.8
264.521	526.8
264.906	516.4
265.291	536.6
265.676	523.6
266.061	531
266.446	548.2
266.831	528
267.217	541.8
267.602	526.2
267.987	537.4
268.373	520.6
268.759	532.4
269.144	522.4
269.53	526.2
269.916	527.6
270.302	520
270.688	530.2
271.074	525
271.46	538.8
271.846	564.4
272.232	534
272.618	527.4
273.004	526.6
273.391	536.6
273.777	536.8
274.164	525.8
274.55	543.4
274.937	528.6
275.324	524
275.71	534
276.097	523.8
276.484	521
276.871	538.6
277.258	528.4
277.645	516.8
278.032	520.6
278.419	527.2
278.807	528.8
279.194	526.4
279.581	523.8
279.969	530.4
280.356	522.6
280.744	533.4
281.131	543.2
281.519	538.4
281.907	521.8
282.295	522.2
282.682	536.4
283.07	538
283.458	536.4
283.846	541
284.235	538.6
284.623	540
285.011	518
285.399	536.4
285.788	527.8
286.176	523
286.565	530.8
286.953	529.2
287.342	525.6
287.731	525.2
288.119	523.2
288.508	524.6
288.897	527.8
289.286	521.8
289.675	526
290.064	546
290.453	523.8
290.821	531.8
291.21	536.8
291.599	522.6
291.989	531
292.378	528.4
292.768	544.8
293.157	535.6
293.547	543.4
293.936	531.8
294.326	519.8
294.716	530.4
295.106	532
295.496	532.4
295.886	528.6
296.276	529.6
296.666	524.8
297.056	528.4
297.446	513.4
297.836	543.6
298.227	529.8
298.617	529.8
299.008	541.6
299.398	530.8
299.789	517.4
300.179	533.4
300.57	534
300.961	529.8
301.352	520.4
301.742	536.4
302.133	527.4
302.524	523.2
302.915	532.2
303.307	516.8
303.698	539.2
304.089	533.8
304.48	532.4
304.872	533.2
305.263	521.8
305.655	527.6
306.046	526.6
306.438	530
306.829	520.6
307.221	533.4
307.613	533.2
308.005	538.4
308.397	537.4
308.789	546.6
309.181	545.4
309.573	540.4
309.965	530.2
310.357	526.4
310.749	541.6
311.142	525.8
311.534	524
311.926	537
312.319	527.6
312.711	520.8
313.104	531.8
313.497	527
313.889	560.8
314.282	548
314.675	543.4
315.068	532
315.461	530.4
315.854	554
316.247	534.8
316.64	524.6
317.033	536.6
317.405	535.6
317.798	531.4
318.192	526.2
318.585	522.2
318.979	531.2
319.372	531
319.766	521
320.16	539.4
320.553	543.4
320.947	547
321.341	529.8
321.735	533.2
322.129	522
322.523	545.4
322.917	523.8
323.311	539.6
323.705	521.4
324.099	531.4
324.494	537.2
324.888	538.4
325.282	533.6
325.677	539.2
326.071	531.4
326.466	537.4
326.861	531
327.255	530.2
327.65	530
328.045	540.4
328.44	524.4
328.835	530.8
329.23	528.2
329.625	547.6
330.02	517.6
330.415	538.6
330.81	535.6
331.206	528.6
331.601	525.8
331.996	535
332.37	544.6
332.766	517.8
333.161	544.4
333.557	523
333.953	530.8
334.348	755.2
334.744	520.4
335.14	520.6
335.536	512.6
335.932	529.4
336.328	525.8
336.724	537.6
337.12	525
337.516	527.6
337.913	528
338.309	535.2
338.705	528.2
339.102	534
339.498	518
339.895	529.6
340.291	530.6
340.688	536
341.085	527
341.481	516
341.878	521.8
342.275	540.6
342.672	517.4
343.069	522
343.466	514.2
343.842	524.2
344.239	521.6
344.636	522.8
345.033	519.4
345.431	516.8
345.828	526.2
346.225	521.6
346.623	556.6
347.02	524.4
347.418	527.2
347.816	533.6
348.213	520.8
348.611	528.6
349.009	523
349.407	534.8
349.805	525.4
350.203	522.2
350.601	533.2
350.999	527.8
351.397	576
351.795	525.4
352.193	531.6
352.57	529
352.969	540.8
353.367	510.4
353.766	523.2
354.164	526.8
354.563	531.8
354.961	531
355.36	527
355.759	520
356.158	520.4
356.557	524.2
356.956	516
357.355	509.2
357.754	523.2
358.153	526.2
358.552	542.2
358.951	522.6
359.35	535.8
359.75	517.8
360.149	514.8
360.527	515.8
360.926	511.2
361.326	524.4
361.726	522.6
362.125	521.2
362.525	530.6
362.925	519.2
363.325	521.6
363.724	520.2
364.124	517
364.524	517.8
364.924	515.6
365.324	536
365.725	511.6
366.125	520.2
366.525	515.6
366.904	515.4
367.304	507.8
367.705	543.6
368.105	525.6
368.506	528
368.906	522
369.307	516.4
369.708	522.6
370.108	511.6
370.509	523.6
370.91	506
371.311	525.4
371.712	520.6
372.113	516.4
372.514	507.6
372.894	517.6
373.295	516.4
373.696	521.2
374.097	519.4
374.499	541.4
374.9	520.8
375.301	512.2
375.703	523.6
376.105	512
376.506	523.4
376.908	525.2
377.309	523.6
377.711	525.8
378.113	516.8
378.493	522.6
378.895	526
379.297	526.6
379.699	507.6
380.102	523.6
380.504	531.6
380.906	512
381.308	538.6
381.71	516.2
382.113	525.4
382.515	516.2
382.918	525.8
383.299	524.2
383.701	528.8
384.104	523
384.507	508.6
384.909	522.8
385.312	508.8
385.715	509.8
386.118	515.6
386.521	511.4
386.924	526
387.327	510.4
387.709	510.8
388.112	503.4
388.515	518.2
388.918	512.2
389.322	519.4
389.725	513
390.129	537.4
390.532	526.6
390.936	510.6
391.339	513.8
391.743	524.2
392.125	521.6
392.529	524.8
392.933	527.4
393.337	518.8
393.74	514
394.144	525.4
394.548	513.8
394.953	518.8
395.357	525.4
395.761	515.2
396.144	529
396.548	512.6
396.952	520
397.357	520.6
397.761	521
398.166	517.2
398.57	517
398.975	511
399.379	517.6
399.763	567.2
400.168	521.2
400.572	517.2
400.977	519.6
401.382	534.4
401.787	530.4
402.192	533.4
402.597	532.2
403.002	514
403.386	526.6
403.791	530.2
404.197	514.4
404.602	520.8
405.007	515
405.413	516.2
405.818	527.4
406.224	517.8
406.608	515.4
407.014	517.2
407.42	535
407.825	518
408.231	529.4
408.637	523
409.043	532.8
409.449	516.8
409.834	513.2
410.24	523.6
410.646	533.4
411.052	519.6
411.458	524.2
411.865	517.4
412.271	528.8
412.677	523.4
413.062	524.2
413.469	519.8
413.875	532.6
414.282	538.2
414.689	523.8
415.095	525.6
415.502	512.2
415.888	527.4
416.294	503.4
416.701	552
417.108	515.6
417.515	526.8
417.923	520
418.33	539.8
418.715	533.2
419.123	514.6
419.53	510.4
419.937	527
420.345	535.4
420.752	518.8
421.16	534.8
421.546	519.4
421.953	526.6
422.361	519.8
422.769	521.6
423.177	512.6
423.585	541.2
423.992	531.2
424.379	526.4
424.787	535.8
425.195	538.2
425.603	519.8
426.011	526.4
426.419	531
426.806	522.6
427.214	520.2
427.623	530
428.031	529.4
428.44	523.8
428.848	533.4
429.235	530.6
429.644	521.2
430.053	516
430.461	540.4
430.87	548.8
431.279	540.2
431.666	526
432.075	534
432.484	532.4
432.893	532
433.302	540.8
433.711	570
434.099	547.6
434.508	540
434.918	545.8
435.327	557
435.737	568.2
436.125	565.8
436.534	576
436.944	583.8
437.353	590.6
437.763	599.4
438.173	587.8
438.561	608.4
438.971	593.4
439.381	620.6
439.791	624.2
440.201	611.2
440.589	638.2
440.999	646.8
441.409	654.2
441.819	646.2
442.23	675.2
442.619	677.4
443.029	687.8
443.439	681.8
443.85	699.4
444.26	708.8
444.649	703.4
445.06	710.4
445.471	701.2
445.881	716
446.292	732.6
446.682	735.2
447.092	714.6
447.503	761.4
447.914	737.4
448.325	754.2
448.715	748.6
449.126	740.2
449.537	747
449.948	760.2
450.338	739.8
450.75	758.8
451.161	752.4
451.572	768.4
451.984	762.6
452.374	750.2
452.786	765.2
453.197	770.6
453.609	772.2
453.999	769
454.411	761
454.823	776.8
455.235	774
455.647	776.6
456.037	781.2
456.449	770.4
456.862	781.6
457.274	788.4
457.665	788.2
458.077	792.2
458.489	806.2
458.902	787.6
459.293	783.2
459.705	785.4
460.118	784.2
460.53	787
460.921	798
461.334	795.6
461.747	808.4
462.16	820.8
462.551	813.8
462.964	816
463.377	803.6
463.79	813.2
464.182	814.8
464.595	805
465.008	804.8
465.421	819.8
465.813	813.4
466.226	835.4
466.64	825.8
467.053	849.8
467.445	832
467.859	836.8
468.272	825.8
468.686	833.4
469.078	838.2
469.492	822.6
469.906	826
470.298	838.4
470.712	820.4
471.126	849.8
471.54	821.6
471.933	829.8
472.347	829.6
472.761	843.6
473.175	820.2
473.568	832
473.982	829.4
474.397	836
474.79	828.4
475.204	834.6
475.619	838.8
476.033	841.8
476.426	833.2
476.841	820
477.256	849.4
477.649	822.8
478.064	822.4
478.479	820.6
478.872	823
479.287	813.8
479.702	820.8
480.118	830
480.511	827
480.927	827.2
481.342	821.8
481.736	820
482.151	807
482.566	818
482.96	813.4
483.376	819.8
483.792	808.4
484.186	822.4
484.602	809
485.017	820.8
485.412	809
485.827	812.2
486.243	813
486.638	834.2
487.054	811.6
487.47	810.2
487.865	809
488.281	811
488.697	802
489.092	800.6
489.508	788.4
489.925	798.6
490.32	785
490.736	803
491.153	796
491.548	795
491.964	789.4
492.381	766.8
492.776	789.2
493.193	785.6
493.61	783.2
494.006	783.4
494.422	776.6
494.84	763.2
495.235	788
495.652	767.6
496.069	758.6
496.465	757.6
496.883	772.4
497.3	783.6
497.696	758.4
498.113	764.2
498.509	746.2
498.927	749.4
499.344	752.8
499.741	755.4
500.158	753.8
500.576	761.4
500.973	751.6
501.39	736.8
501.787	729.8
502.205	734.6
502.623	733.8
503.02	726.2
503.438	726.2
503.856	728.8
504.253	730
504.671	725.8
505.068	720.4
505.486	722
505.905	733.6
506.302	715.8
506.72	733.2
507.118	717.4
507.536	708.6
507.955	717.8
508.352	719.8
508.771	718.6
509.169	720.2
509.587	702.4
510.006	705.6
510.404	699.6
510.823	691.8
511.221	694.2
511.64	693.2
512.038	710.2
512.457	686.8
512.877	695.6
513.275	679
513.694	679.6
514.092	684.6
514.512	689.4
514.91	680.6
515.33	685
515.749	675.8
516.148	676.6
516.568	676.8
516.966	675.6
517.386	671
517.785	671.8
518.205	661.6
518.603	658.8
519.024	661
519.444	671.4
519.843	666.4
520.263	667.8
520.662	658.6
521.082	662.2
521.481	651
521.902	659.2
522.301	659
522.722	659.4
523.121	643.6
523.542	643.4
523.963	647.6
524.362	637.4
524.783	641.6
525.183	643.6
525.604	631.6
526.003	630.6
526.425	641
526.824	655.4
527.246	634.4
527.646	641.8
528.067	638.4
528.467	627.8
528.888	625.4
529.289	621.6
529.71	635.4
530.11	627
530.532	617
530.932	606
531.354	609.4
531.755	650.6
532.176	619.4
532.577	610
532.999	607.4
533.4	606.8
533.822	617.2
534.223	601.6
534.645	602
535.046	598.2
535.468	604.6
535.869	622.2
536.292	607.2
536.693	630.6
537.115	593.4
537.516	601.4
537.939	604
538.34	619
538.742	613.4
539.165	604.2
539.566	599.4
539.989	595
540.391	596.8
540.814	603.4
541.216	609.6
541.639	599.2
542.041	605.8
542.464	587.2
542.866	593
543.268	592.8
543.691	600.2
544.093	604.4
544.517	608.6
544.919	588.6
545.343	612.8
545.745	586.4
546.147	579
546.571	585
546.974	576.2
547.398	592.8
547.8	594
548.224	586.4
548.627	581
549.03	584.2
549.454	577.2
549.857	570.2
550.281	570.6
550.684	577.4
551.087	589.2
551.512	578.2
551.915	581.2
552.34	577.4
552.743	575.4
553.146	583.8
553.571	576.2
553.975	582.2
554.399	566.2
554.803	611.2
555.207	571.8
555.632	559
556.036	570.8
556.461	559.6
556.865	566
557.268	557.4
557.694	567.2
558.098	577.6
558.502	567.4
558.927	556.8
559.332	564
559.736	562.8
560.162	565.6
560.566	554.8
560.992	563.6
561.396	557.8
561.801	556.8
562.227	559.2
562.631	558.4
563.036	558.8
563.462	558.4
563.867	556.6
564.272	551.2
564.698	556.4
565.103	545.6
565.508	563.4
565.935	553
566.34	555.2
566.745	557.6
567.172	550.4
567.577	572.2
567.982	555
568.409	549.2
568.815	544.4
569.22	545.8
569.626	554.8
570.053	532.4
570.459	555.4
570.865	551.2
571.292	552
571.698	547
572.104	536.6
572.531	547.2
572.937	557.4
573.343	552.4
573.75	542.6
574.177	541.4
574.583	550.6
574.99	537.2
575.396	540.6
575.824	537.8
576.231	543.6
576.637	535.8
577.065	563.6
577.472	533.8
577.879	540
578.286	554.4
578.714	528.4
579.121	534.6
579.528	533.8
579.935	544.8
580.364	531.4
580.771	519.8
581.178	531.8
581.585	543.6
582.014	533.6
582.421	533.2
582.829	537.2
583.236	533.6
583.644	521
584.073	535.4
584.481	535.6
584.889	532.6
585.296	536.2
585.726	531.8
586.134	522.4
586.542	533.6
586.95	545.4
587.358	520.2
587.787	528.8
588.196	523
588.604	526.8
589.012	522.4
589.421	521.2
589.851	522.4
590.259	529.6
590.668	520.4
591.076	557.2
591.485	513.6
591.894	520
592.324	535.4
592.733	529.4
593.142	514.8
593.551	522.6
593.96	526.6
594.369	517.2
594.8	512.4
595.209	515.4
595.618	514.4
596.028	519
596.437	512.8
596.847	516.4
597.256	528
597.687	524.8
598.097	520
598.507	511.4
598.917	531
599.327	523.4
599.736	522.2
600.146	526.4
600.556	525.8
600.988	533.6
601.398	514.4
601.808	527.6
602.219	509.6
602.629	521.4
603.039	518.8
603.45	539
603.86	513.4
604.271	524.6
604.703	514.2
605.114	519.6
605.525	516.6
605.935	517.4
606.346	529.6
606.757	514.8
607.168	512.6
607.579	510.2
607.99	521
608.402	517.4
608.813	510.4
609.224	505.8
609.636	504.8
610.047	510.8
610.48	515.6
610.892	518.6
611.303	526.8
611.715	510.2
612.127	510
612.539	519.4
612.95	517
613.362	511.6
613.774	508.6
614.186	507.2
614.599	510
615.011	524
615.423	510.6
615.835	508.4
616.248	509
616.66	521.8
617.073	509
617.485	506.4
617.898	518.8
618.311	520.2
618.723	510.8
619.136	535.8
619.549	525.4
619.962	529.4
620.375	505.6
620.788	515.6
621.201	504.2
621.614	520
622.028	509.6
622.441	521.8
622.854	525.2
623.268	504.2
623.681	512.2
624.095	504.6
624.509	519
624.922	515.2
625.336	504.6
625.728	510.8
626.142	516
626.556	522.8
626.97	517.8
627.384	508
627.799	515
628.213	516.6
628.627	510.8
629.041	507.2
629.456	506.2
629.87	509.6
630.285	513
630.699	521.4
631.093	509.8
631.507	510
631.922	514.8
632.337	518
632.752	490.8
633.167	509.2
633.582	509.6
633.997	502
634.412	507.4
634.806	513.2
635.221	499
635.637	518
636.052	504.6
636.468	510.2
636.883	525
637.299	502
637.715	493.8
638.109	504.2
638.525	496
638.941	519.4
639.357	504.6
639.773	516
640.189	502.6
640.584	503.8
641	505
641.416	499.2
641.832	498.2
642.249	503
642.665	508.6
643.06	513.4
643.477	515.8
643.894	497.2
644.31	501.8
644.727	497.8
645.123	513
645.54	501.4
645.957	507.2
646.374	515.4
646.77	506.2
647.187	532
647.604	502.2
648.021	496.2
648.439	499.4
648.835	506.6
649.252	509.4
649.67	511.4
650.088	507.8
650.484	505.6
650.902	506
651.32	507
651.738	501.8
652.134	506.4
652.552	519.6
652.971	512.6
653.389	498.2
653.786	509.8
654.204	512.4
654.622	497
655.019	506.6
655.438	506.2
655.857	500.4
656.275	510.4
656.673	497.6
657.091	509.2
657.51	501.8
657.908	506.6
658.327	514.2
658.746	494.2
659.144	509.8
659.563	513.8
659.982	506.2
660.38	489.2
660.8	505.6
661.219	511.4
661.617	505.2
662.037	501.4
662.457	512.8
662.855	498.2
663.275	520.8
663.695	499.2
664.094	499.8
664.514	502.8
664.934	500.6
665.333	510.8
665.753	493.8
666.152	496
666.572	500.6
666.993	521
667.392	505.2
667.812	499.2
668.212	498.2
668.632	507.4
669.053	502.8
669.453	508.4
669.874	497
670.273	497.6
670.694	496.4
671.116	505.2
671.515	506.8
671.937	503.6
672.337	511
672.758	500
673.158	517.2
673.58	491
673.98	495.4
674.402	510
674.824	500.4
675.224	497.4
675.646	495.6
676.047	498.6
676.469	500
676.869	508
677.292	511.2
677.693	489.8
678.115	497.8
678.516	506
678.939	505.8
679.34	495.6
679.762	503.8
680.164	503.8
680.586	495.4
680.988	502
681.411	520.2
681.812	491.8
682.236	488.2
682.637	493.4
683.061	494.8
683.462	500.8
683.864	498.4
684.288	499.6
684.69	488.4
685.114	504.2
685.516	505.4
685.94	489.8
686.342	498.8
686.766	495.2
687.168	489.6
687.571	508.8
687.995	499.4
688.398	490.4
688.822	496
689.225	514.6
689.628	515
690.052	503.4
690.456	496.6
690.88	493.6
691.284	492.6
691.687	503.4
692.112	491
692.515	497.6
692.919	503.4
693.344	494.6
693.747	492
694.173	497.2
694.577	503.6
694.98	508.6
695.406	499
695.81	501.8
696.214	504.8
696.64	500.4
697.044	501.2
697.448	499.2
697.874	502
698.279	495.2
698.684	490.2
699.11	489.6
699.514	497.6
699.919	494.6
700.324	489.6
700.75	503.4
701.156	504.8
701.561	504.6
701.987	497
702.393	501.8
702.798	502.8
703.203	496.4
703.63	494.2
704.036	498.2
704.442	504.4
704.847	491.8
705.274	502.6
705.68	497.6
706.086	501.2
706.492	481.2
706.92	495.8
707.326	504.8
707.732	495.2
708.139	489.8
708.545	484.4
708.973	498.8
709.38	494.6
709.786	491.6
710.193	512.2
710.6	506
711.028	492.8
711.435	494
711.842	492.4
712.249	494.8
712.656	496.4
713.064	510.4
713.492	482.6
713.9	491.8
714.307	492
714.715	495.4
715.123	504
715.53	500.2
715.938	499.2
716.367	489.2
716.775	487
717.184	484
717.592	498.4
718	508.8
718.408	526.6
718.816	529.2
719.225	495.2
719.633	496.6
720.042	492.4
720.472	489.6
720.881	510.4
721.29	501.2
721.699	491.6
722.108	498.2
722.517	496
722.926	491.2
723.335	510.2
723.744	495.2
724.154	496.4
724.563	497.4
724.973	495.2
725.382	499.8
725.792	497.8
726.202	498.4
726.612	505.4
727.022	492.8
727.432	485.4
779.813	488.2
780.223	516
780.634	493
781.044	496.8
781.454	495.4
781.865	504.4
782.276	489.8
782.686	502.2
783.097	489.6
783.508	489.4
783.919	495.2
784.33	502.4
784.741	504.6
785.152	490.8
785.563	491.6
785.974	489.2
786.386	503.6
786.776	493
787.188	495.4
787.599	488.8
788.011	505
788.423	503
788.835	497
789.247	492.2
789.659	491
790.071	488.4
790.483	525.6
790.874	489.6
791.286	500.4
791.699	493.4
792.111	491
792.524	493.4
792.937	486.8
793.349	492.4
793.741	494.2
794.154	494
794.567	509.2
794.98	501.4
795.393	496.4
795.785	500.2
796.198	488.8
796.612	494.6
797.026	487.8
797.439	476.4
797.831	496
798.245	487.4
798.659	489.8
799.073	490
799.487	488.6
799.88	497
800.294	497.8
800.708	498.6
801.123	507
801.516	503.8
801.93	491.8
802.345	485
802.76	495
803.153	504.8
803.568	501.8
803.983	506
804.377	499.2
804.792	487.4
805.207	473.8
805.601	489
806.016	519.6
806.432	493.8
806.826	511.6
807.242	497
807.658	492.6
808.052	486.2
808.468	487
808.884	483.2
809.279	491.6
809.695	499.8
810.111	504.8
810.506	493.8
810.922	508
811.339	493
811.734	501
812.151	488.6
812.546	492
812.963	483.8
813.38	497.2
813.776	494.6
814.193	511.6
814.589	487.2
815.006	486
815.402	493.2
815.82	492.6
816.237	499.8
816.633	490.6
817.051	493.4
817.448	496.6
817.866	490.4
818.262	502.2
818.68	491
819.077	485
819.495	496.4
819.892	528.4
820.311	489.2
820.708	490.4
821.127	492.6
821.524	505.6
821.943	492.2
822.34	505.2
822.759	495.4
823.157	499.6
823.576	504.2
823.974	497.2
824.393	577.2
824.791	492.6
825.189	489.6
825.609	486.8
826.007	495.8
826.427	490.6
826.826	493
827.246	505
827.644	478.8
828.043	501
828.463	488.2
828.862	496.2
829.261	492.2
829.682	482.2
830.081	495.4
830.502	489.4
830.901	498.4
831.301	483.6
831.722	483.6
832.121	488
832.521	489.8
832.943	491.8
833.342	485.4
833.742	488.2
834.164	489.2
834.564	485.8
834.965	489.2
835.386	485.2
835.787	489.4
836.188	484.8
836.588	488.2
837.01	487.2
837.411	486
837.812	490.2
838.213	487.4
838.636	487.2
839.037	549.8
839.438	483.2
839.84	492
840.263	497
840.664	493
841.066	488.2
841.468	496
841.891	488
842.293	501.8
842.695	496
843.098	500.6
843.5	486.8
843.902	495.6
844.326	496.6
844.729	490.8
845.131	502.4
845.534	495.6
845.937	503
846.34	499.2
846.764	490.8
847.167	494
847.571	488.8
847.974	491.2
848.377	490.6
848.781	528.6
849.184	498
849.588	489.4
849.992	493.4
850.396	490.4
850.821	507.6
851.225	493.4
851.63	486.6
852.034	499.4
852.438	489.6
852.843	552.8
853.247	489.6
853.652	490.4
854.057	500
854.462	490.6
854.867	490.2
855.272	512.4
855.677	494
