#lambda/nm	C1
208.295	467.6
208.67	437
209.045	394.8
209.419	398.8
209.794	530.6
210.169	511.8
210.544	620.4
210.919	536.6
211.295	519.4
211.67	530.6
212.045	535.8
212.421	526
212.796	560.2
213.172	531.6
213.547	525.4
213.923	522.6
214.299	529
214.675	536.4
215.051	535
215.427	533.8
215.803	543.4
216.179	539.6
216.555	523
216.932	534.2
217.308	529.6
217.684	526.6
218.061	530.4
218.438	523.2
218.814	521.2
219.191	533.6
219.568	520.4
219.945	527.8
220.322	532.8
220.699	531.2
221.076	535.2
221.453	530.6
221.83	524.6
222.208	523.4
222.585	518.8
222.962	523
223.34	537.4
223.717	531.4
224.095	523.8
224.473	526.2
224.851	525.8
225.229	520.4
225.607	541.4
225.985	520.8
226.363	531.8
226.741	533.4
227.119	531.2
227.497	538.2
227.876	521.6
228.254	526.8
228.633	526.6
229.011	531.8
229.39	535.4
229.769	530.4
230.148	544
230.527	546.8
230.905	537.8
231.284	532.6
231.664	526.2
232.043	538.8
232.422	538.6
232.801	530
233.181	531
233.56	531.8
233.94	532.2
234.319	522.2
234.699	522.6
235.079	556
235.458	558.4
235.838	547.4
236.218	522
236.598	517.4
236.978	527.4
237.358	527
237.738	526.6
238.119	538.4
238.499	516.6
238.88	526.2
239.26	545.4
239.641	524.6
240.021	526.6
240.402	531.4
240.783	527.2
241.163	520.6
241.544	536.6
241.925	537
242.306	540.2
242.687	522.4
243.069	532.8
243.45	533.6
243.831	528.8
244.212	530.8
244.594	561.2
244.975	533.6
245.357	533.8
245.739	526.4
246.12	530.4
246.502	539.6
246.884	527.2
247.266	532.8
247.648	539.2
248.03	546.2
248.412	536.4
248.794	531
249.176	519.8
249.559	539.8
249.941	520.4
250.323	522.8
250.706	519.4
251.089	525.6
251.471	530.8
251.854	531
252.237	530
252.62	541.2
253.002	530.2
253.385	526
253.769	532.4
254.152	524.8
254.535	537.2
254.918	516.2
255.301	527.4
255.685	527.8
256.068	513.2
256.452	543.8
256.835	539.4
257.219	529.8
257.603	531.2
257.986	521
258.37	528
258.754	524.8
259.138	530.4
259.522	521.6
259.906	525.2
260.29	537.2
260.675	527.8
261.059	530
261.443	512.6
261.828	530.8
262.212	534
262.597	517.4
262.981	526.4
263.366	533.4
263.751	529.6
264.136	521.2
264.521	530.6
264.906	529.6
265.291	534.8
265.676	525.4
266.061	533.2
266.446	544.4
266.831	529.6
267.217	545.4
267.602	529
267.987	531.8
268.373	526
268.759	535
269.144	530.8
269.53	532.8
269.916	525.4
270.302	527.2
270.688	529.8
271.074	532
271.46	533
271.846	558
272.232	534.2
272.618	528
273.004	528.2
273.391	535.4
273.777	543.6
274.164	535.6
274.55	546.6
274.937	530.2
275.324	526.4
275.71	534.4
276.097	536.6
276.484	523.8
276.871	529.6
277.258	539
277.645	520.2
278.032	526
278.419	520
278.807	529.4
279.194	522.4
279.581	522.2
279.969	528.4
280.356	534.4
280.744	524.2
281.131	544
281.519	534
281.907	524.2
282.295	526.6
282.682	532.4
283.07	529.8
283.458	539.4
283.846	539.6
284.235	528.8
284.623	526.6
285.011	517.4
285.399	529.4
285.788	524.8
286.176	520.6
286.565	536.8
286.953	522.6
287.342	523.6
287.731	518.6
288.119	521.6
288.508	517.2
288.897	527.2
289.286	523.2
289.675	529.2
290.064	540.4
290.453	525.4
290.821	526.6
291.21	542
291.599	530.2
291.989	523.4
292.378	535.2
292.768	540.4
293.157	528.2
293.547	526.4
293.936	535.4
294.326	524.6
294.716	529
295.106	521.2
295.496	534
295.886	524.4
296.276	530.6
296.666	513
297.056	519.4
297.446	512.4
297.836	532.4
298.227	513.6
298.617	528.4
299.008	532.8
299.398	521.6
299.789	522.4
300.179	526.8
300.57	529.4
300.961	521.2
301.352	519.8
301.742	532
302.133	514.8
302.524	531.8
302.915	527
303.307	520.8
303.698	545.4
304.089	536.2
304.48	525.4
304.872	531
305.263	528.6
305.655	520.4
306.046	530.2
306.438	524.8
306.829	516.6
307.221	541
307.613	526
308.005	541.2
308.397	534.2
308.789	545.2
309.181	549.8
309.573	543.6
309.965	538.8
310.357	527.6
310.749	538.2
311.142	518.6
311.534	517.6
311.926	533.4
312.319	531.4
312.711	521.6
313.104	545.8
313.497	524.2
313.889	560.2
314.282	545.4
314.675	550
315.068	529.6
315.461	532.6
315.854	553
316.247	535.4
316.64	519.4
317.033	523.8
317.405	536.6
317.798	526.4
318.192	523.6
318.585	520
318.979	530.4
319.372	524
319.766	523.8
320.16	532.2
320.553	532.8
320.947	537
321.341	528.6
321.735	529.4
322.129	518.2
322.523	549
322.917	518.4
323.311	536.8
323.705	526.2
324.099	524.8
324.494	543.4
324.888	536.4
325.282	526
325.677	539.2
326.071	535.2
326.466	534.2
326.861	537.8
327.255	542
327.65	535.8
328.045	540.8
328.44	525
328.835	535.2
329.23	523.6
329.625	543.4
330.02	524
330.415	545
330.81	531
331.206	533.4
331.601	519.8
331.996	530.4
332.37	550.8
332.766	520.8
333.161	540
333.557	524
333.953	534.8
334.348	866.8
334.744	524
335.14	527.8
335.536	525.8
335.932	533.4
336.328	529.4
336.724	540.8
337.12	524.6
337.516	534.2
337.913	527.8
338.309	543.2
338.705	530.4
339.102	534.8
339.498	532.2
339.895	538.4
340.291	524.4
340.688	541.4
341.085	517.6
341.481	528.2
341.878	528.8
342.275	549.4
342.672	528.6
343.069	528.6
343.466	519
343.842	536.8
344.239	526
344.636	529.8
345.033	521.6
345.431	522.2
345.828	535.6
346.225	519.6
346.623	557.8
347.02	527.6
347.418	530.2
347.816	542.4
348.213	526.2
348.611	533.4
349.009	524.2
349.407	540
349.805	520.2
350.203	519
350.601	543.2
350.999	517.4
351.397	578.2
351.795	525.2
352.193	534.6
352.57	533.2
352.969	534.2
353.367	514.2
353.766	523.8
354.164	529.8
354.563	532.4
354.961	531.8
355.36	518.2
355.759	526
356.158	519.8
356.557	523.2
356.956	518
357.355	517.6
357.754	523.2
358.153	529.4
358.552	538.4
358.951	524
359.35	534.6
359.75	518.4
360.149	519.8
360.527	511.2
360.926	517
361.326	527.2
361.726	519.6
362.125	517.8
362.525	521.8
362.925	524.8
363.325	519.6
363.724	522
364.124	518.6
364.524	518.8
364.924	521.8
365.324	528
365.725	509.8
366.125	529.4
366.525	526.2
366.904	511.6
367.304	508.8
367.705	531
368.105	533.6
368.506	518.4
368.906	532.2
369.307	519.4
369.708	524
370.108	512.6
370.509	527.6
370.91	516
371.311	522.4
371.712	529
372.113	521
372.514	513.4
372.894	527
373.295	520.8
373.696	528.8
374.097	525.2
374.499	546.8
374.9	524
375.301	524.4
375.703	522.6
376.105	516.4
376.506	530.4
376.908	532.4
377.309	520.4
377.711	522.4
378.113	512
378.493	516.6
378.895	518.6
379.297	530
379.699	518.6
380.102	517.2
380.504	518.2
380.906	512
381.308	537.8
381.71	513
382.113	520.4
382.515	514.6
382.918	522.6
383.299	521
383.701	533
384.104	521.8
384.507	509.8
384.909	516
385.312	509.6
385.715	511.2
386.118	520.2
386.521	513
386.924	530.6
387.327	513.6
387.709	515.6
388.112	511.2
388.515	514.2
388.918	520.6
389.322	526.4
389.725	518.8
390.129	537.6
390.532	520.8
390.936	516.2
391.339	507.2
391.743	515
392.125	514.6
392.529	525.4
392.933	520
393.337	522.6
393.74	509.4
394.144	512.4
394.548	517.6
394.953	514
395.357	518.6
395.761	514.4
396.144	511.4
396.548	511
396.952	512.8
397.357	512.8
397.761	509.8
398.166	511.2
398.57	515.4
398.975	504.8
399.379	510.6
399.763	550.8
400.168	515.2
400.572	510.8
400.977	513.2
401.382	536
401.787	524
402.192	531.2
402.597	529.2
403.002	513.8
403.386	532.2
403.791	527.6
404.197	522
404.602	521.8
405.007	525.6
405.413	516
405.818	519.8
406.224	512
406.608	517.6
407.014	513.8
407.42	537.8
407.825	515.6
408.231	529.2
408.637	522.4
409.043	526
409.449	520.6
409.834	508
410.24	519.2
410.646	534.6
411.052	524.2
411.458	519.2
411.865	520.2
412.271	523.8
412.677	523.6
413.062	519.4
413.469	506.6
413.875	536.4
414.282	531.8
414.689	521.6
415.095	520.8
415.502	509.4
415.888	520
416.294	510.6
416.701	550.4
417.108	519.2
417.515	527.6
417.923	513.4
418.33	534.2
418.715	529
419.123	514.4
419.53	518.8
419.937	527.2
420.345	534
420.752	518.8
421.16	535.6
421.546	522.2
421.953	532.6
422.361	513.4
422.769	527.8
423.177	510.2
423.585	540.2
423.992	535.8
424.379	524.6
424.787	524.2
425.195	539
425.603	531.6
426.011	530.8
426.419	527.2
426.806	525.6
427.214	526
427.623	527.2
428.031	541.2
428.44	515.6
428.848	537.2
429.235	534.8
429.644	519.6
430.053	521.8
430.461	534.6
430.87	540.4
431.279	528
431.666	518.6
432.075	522.4
432.484	525.8
432.893	518.8
433.302	533.2
433.711	562.8
434.099	529.6
434.508	524
434.918	527.2
435.327	541.8
435.737	530.4
436.125	538.2
436.534	538.8
436.944	545.2
437.353	548.6
437.763	564
438.173	544.2
438.561	565.8
438.971	549.8
439.381	562.2
439.791	578.2
440.201	554
440.589	582.2
440.999	589
441.409	587.4
441.819	587.2
442.23	594.4
442.619	599.2
443.029	604
443.439	608.6
443.85	617.6
444.26	621.4
444.649	633.4
445.06	631.6
445.471	631.6
445.881	643
446.292	655
446.682	660.2
447.092	630.2
447.503	692.4
447.914	650.2
448.325	657.6
448.715	662
449.126	654.8
449.537	657.2
449.948	663.8
450.338	666.6
450.75	668.6
451.161	675
451.572	669.4
451.984	666
452.374	672.4
452.786	687.8
453.197	682.6
453.609	696.2
453.999	678.4
454.411	685
454.823	708.6
455.235	695
455.647	692.4
456.037	694.6
456.449	682.2
456.862	702.6
457.274	706.8
457.665	702.4
458.077	713.4
458.489	728.8
458.902	708.2
459.293	710.6
459.705	707.2
460.118	708.2
460.53	722.6
460.921	721.8
461.334	733.4
461.747	720
462.16	734.2
462.551	732.4
462.964	734.6
463.377	716.2
463.79	713.8
464.182	739.4
464.595	732.2
465.008	746.2
465.421	744
465.813	725.2
466.226	739.4
466.64	743.6
467.053	779.6
467.445	767.2
467.859	765
468.272	749.6
468.686	767
469.078	757
469.492	753
469.906	757.8
470.298	757.6
470.712	759
471.126	781.8
471.54	756.6
471.933	754.4
472.347	752.4
472.761	761.4
473.175	761.2
473.568	751.4
473.982	762.4
474.397	761.8
474.79	768.4
475.204	763.8
475.619	757.8
476.033	769.8
476.426	766.2
476.841	756
477.256	776
477.649	755.8
478.064	759.8
478.479	762
478.872	753
479.287	752
479.702	764.6
480.118	756.2
480.511	759.4
480.927	751.6
481.342	750.2
481.736	768.8
482.151	763.6
482.566	764.6
482.96	761.4
483.376	769.4
483.792	747.2
484.186	757.6
484.602	750
485.017	747.8
485.412	752.4
485.827	750.2
486.243	750.8
486.638	771.8
487.054	753.6
487.47	762.2
487.865	746
488.281	753.6
488.697	734.4
489.092	750
489.508	735.2
489.925	743.2
490.32	729.4
490.736	731.8
491.153	737.2
491.548	733.8
491.964	736
492.381	722.6
492.776	724.6
493.193	727.8
493.61	729.8
494.006	722.4
494.422	733.4
494.84	721
495.235	729.2
495.652	728
496.069	724.4
496.465	711.4
496.883	717
497.3	734.6
497.696	712.4
498.113	718
498.509	704.4
498.927	713
499.344	702.8
499.741	706
500.158	723
500.576	714.2
500.973	705.8
501.39	701.6
501.787	701
502.205	708.4
502.623	696.2
503.02	685.8
503.438	683
503.856	699.8
504.253	689.4
504.671	700.6
505.068	690.8
505.486	693
505.905	700.2
506.302	692.8
506.72	696.8
507.118	678.4
507.536	687.4
507.955	675.2
508.352	679.4
508.771	672.6
509.169	684.2
509.587	662.8
510.006	677.6
510.404	660.4
510.823	671
511.221	670
511.64	671
512.038	677.2
512.457	657.6
512.877	660.6
513.275	653.8
513.694	656.8
514.092	652
514.512	660.2
514.91	660.2
515.33	651.2
515.749	657
516.148	658.6
516.568	657.8
516.966	642
517.386	639
517.785	643.6
518.205	643.8
518.603	648.6
519.024	640.6
519.444	640
519.843	642.4
520.263	641.6
520.662	643
521.082	631.8
521.481	638
521.902	629.4
522.301	632
522.722	632.4
523.121	630.6
523.542	622.4
523.963	626.6
524.362	632.2
524.783	635.2
525.183	618.6
525.604	625.8
526.003	620.8
526.425	615
526.824	624.8
527.246	626.8
527.646	623.8
528.067	612.2
528.467	619.4
528.888	613.2
529.289	610.2
529.71	613.4
530.11	605.6
530.532	596.2
530.932	599.4
531.354	603.6
531.755	633.4
532.176	611.8
532.577	596.2
532.999	601.2
533.4	602.6
533.822	601.4
534.223	596.8
534.645	594.4
535.046	588.2
535.468	595
535.869	611.8
536.292	583.6
536.693	613.4
537.115	589.6
537.516	592.6
537.939	590.4
538.34	607.4
538.742	597.2
539.165	590.4
539.566	587
539.989	584.6
540.391	579.4
540.814	588.2
541.216	588.4
541.639	584.8
542.041	599.8
542.464	582.6
542.866	579.4
543.268	577.6
543.691	586
544.093	592
544.517	600.2
544.919	579.6
545.343	603.8
545.745	567
546.147	583
546.571	574.4
546.974	573.4
547.398	579.4
547.8	586.4
548.224	564.4
548.627	561
549.03	573.6
549.454	566.4
549.857	560.4
550.281	566
550.684	565
551.087	576.4
551.512	570.2
551.915	569.6
552.34	575.4
552.743	561
553.146	562.6
553.571	566.8
553.975	579.2
554.399	559.4
554.803	600.6
555.207	562.2
555.632	554.6
556.036	567.8
556.461	553
556.865	559.8
557.268	555.2
557.694	564
558.098	552.6
558.502	564.2
558.927	550.2
559.332	557.2
559.736	552.8
560.162	553.8
560.566	546.8
560.992	557.6
561.396	553.8
561.801	548.6
562.227	554.6
562.631	546.6
563.036	550.8
563.462	557
563.867	543.8
564.272	539.8
564.698	547.4
565.103	543.6
565.508	561.2
565.935	552.2
566.34	543.6
566.745	559.8
567.172	538
567.577	560.6
567.982	556
568.409	545.8
568.815	534.8
569.22	548.6
569.626	547.6
570.053	526.4
570.459	534.4
570.865	544
571.292	548.6
571.698	548.4
572.104	524.8
572.531	533.4
572.937	550.4
573.343	537
573.75	539.8
574.177	540.8
574.583	545.6
574.99	535
575.396	545.2
575.824	524.2
576.231	535.6
576.637	528.8
577.065	563.6
577.472	535.2
577.879	530
578.286	544
578.714	525.8
579.121	525
579.528	537.4
579.935	544.8
580.364	536
580.771	520.8
581.178	521.6
581.585	529.6
582.014	537.2
582.421	530.4
582.829	526
583.236	534.4
583.644	522
584.073	529.4
584.481	524.4
584.889	521
585.296	528.2
585.726	529.2
586.134	523
586.542	520.8
586.95	535
587.358	514.6
587.787	523.6
588.196	511.2
588.604	521
589.012	516
589.421	520.4
589.851	516.8
590.259	523.6
590.668	518.6
591.076	553.2
591.485	518.4
591.894	517.2
592.324	527.8
592.733	527.8
593.142	506.8
593.551	508.4
593.96	542.6
594.369	515.8
594.8	506.8
595.209	524.2
595.618	511.4
596.028	513.8
596.437	509.6
596.847	519.2
597.256	522
597.687	518.6
598.097	527.2
598.507	513
598.917	516.6
599.327	524.4
599.736	525.4
600.146	520.8
600.556	518.6
600.988	522.8
601.398	514.2
601.808	524
602.219	507.6
602.629	520.6
603.039	520.8
603.45	539.4
603.86	517.2
604.271	522.8
604.703	509.4
605.114	521.2
605.525	509
605.935	512
606.346	528.8
606.757	519
607.168	506
607.579	514
607.99	516.6
608.402	509.4
608.813	516.2
609.224	513.4
609.636	507.8
610.047	512.2
610.48	514.6
610.892	516.6
611.303	521.8
611.715	505.2
612.127	513
612.539	508.2
612.95	511.8
613.362	502.2
613.774	501.8
614.186	507
614.599	514.4
615.011	521.8
615.423	512.6
615.835	508.4
616.248	512
616.66	523.2
617.073	511.8
617.485	519.2
617.898	522.2
618.311	518
618.723	512.8
619.136	540.8
619.549	524.8
619.962	535
620.375	514.8
620.788	512.2
621.201	511.2
621.614	519
622.028	517.6
622.441	521.2
622.854	520.6
623.268	509.6
623.681	518
624.095	512.8
624.509	528.4
624.922	519.6
625.336	503.8
625.728	518.2
626.142	523.8
626.556	530
626.97	516.2
627.384	513.6
627.799	517.8
628.213	522.8
628.627	507.8
629.041	504.8
629.456	512.4
629.87	515.8
630.285	523
630.699	513
631.093	510.6
631.507	515.8
631.922	515.4
632.337	537
632.752	509.2
633.167	511.4
633.582	517.4
633.997	504.8
634.412	512
634.806	516
635.221	505.2
635.637	518.4
636.052	504.4
636.468	514
636.883	529.6
637.299	512.4
637.715	501.2
638.109	507
638.525	499.4
638.941	521.2
639.357	515.2
639.773	521.2
640.189	502.4
640.584	512
641	514.6
641.416	493.2
641.832	509.6
642.249	498
642.665	513.8
643.06	507.8
643.477	515
643.894	501.6
644.31	512.2
644.727	500.6
645.123	502.4
645.54	505.2
645.957	513.6
646.374	513
646.77	506
647.187	533.2
647.604	506
648.021	488.8
648.439	500.2
648.835	506.2
649.252	506.2
649.67	505.8
650.088	496.8
650.484	504.6
650.902	511.4
651.32	505.8
651.738	506
652.134	507.8
652.552	518
652.971	519.8
653.389	510.6
653.786	511
654.204	513.2
654.622	505.6
655.019	500.2
655.438	508.2
655.857	508.2
656.275	508
656.673	499.4
657.091	513.4
657.51	503.8
657.908	511.6
658.327	518.4
658.746	494.2
659.144	507.2
659.563	516.6
659.982	505.8
660.38	501
660.8	497.2
661.219	514
661.617	506.2
662.037	501.8
662.457	512.4
662.855	489.8
663.275	525.6
663.695	501.4
664.094	502.8
664.514	503.6
664.934	492.8
665.333	514.2
665.753	494.2
666.152	493.8
666.572	499.8
666.993	516.8
667.392	498
667.812	499.2
668.212	502.2
668.632	506.2
669.053	493.6
669.453	509.6
669.874	502.2
670.273	493
670.694	493.4
671.116	509.8
671.515	506.6
671.937	499.4
672.337	502.4
672.758	498.4
673.158	508.6
673.58	488.8
673.98	502.6
674.402	516.4
674.824	497
675.224	496.4
675.646	492.6
676.047	497.2
676.469	496.8
676.869	502.4
677.292	499
677.693	495.8
678.115	500.2
678.516	506
678.939	496
679.34	495.2
679.762	506.8
680.164	496
680.586	492
680.988	498.8
681.411	511.8
681.812	491.8
682.236	494
682.637	491.2
683.061	489.6
683.462	500.6
683.864	509.4
684.288	501.4
684.69	487.6
685.114	506
685.516	503.4
685.94	486
686.342	500.6
686.766	482.2
687.168	493.2
687.571	513.6
687.995	498.4
688.398	482.8
688.822	490
689.225	504.2
689.628	507.4
690.052	494
690.456	498.4
690.88	496
691.284	490.6
691.687	503.2
692.112	486.6
692.515	495.2
692.919	495.8
693.344	502.8
693.747	488.6
694.173	496.4
694.577	502.8
694.98	495.6
695.406	497
695.81	495
696.214	507.8
696.64	505
697.044	499.8
697.448	506.4
697.874	496.6
698.279	500.4
698.684	488.2
699.11	492.2
699.514	495.2
699.919	494.6
700.324	492.4
700.75	502.4
701.156	496
701.561	510.6
701.987	502
702.393	499.8
702.798	504.4
703.203	497.4
703.63	491.6
704.036	491.6
704.442	491.8
704.847	491.8
705.274	497.6
705.68	496
706.086	500.8
706.492	493.4
706.92	496.8
707.326	504.8
707.732	499.6
708.139	491.8
708.545	494.2
708.973	494.8
709.38	489.4
709.786	489
710.193	499.6
710.6	494.6
711.028	493.2
711.435	497.4
711.842	501.4
712.249	488.2
712.656	494
713.064	508.2
713.492	488.6
713.9	491.8
714.307	499.8
714.715	497.2
715.123	503
715.53	499.2
715.938	506.4
716.367	501.6
716.775	494.2
717.184	489.8
717.592	499.4
718	503
718.408	522.8
718.816	533.6
719.225	502.6
719.633	498.6
720.042	497.8
720.472	488.2
720.881	520
721.29	499.8
721.699	495.8
722.108	498.4
722.517	494
722.926	497.6
723.335	505.8
723.744	496.6
724.154	502.4
724.563	493.6
724.973	493.2
725.382	497.2
725.792	496
726.202	490.4
726.612	499
727.022	498.2
727.432	490.6
779.813	490.6
780.223	540
780.634	498.2
781.044	493
781.454	496.2
781.865	501.2
782.276	487.4
782.686	502
783.097	495.8
783.508	494.4
783.919	494.4
784.33	512.8
784.741	504.6
785.152	490.8
785.563	486.2
785.974	489.2
786.386	508.2
786.776	491.4
787.188	496.4
787.599	486.4
788.011	503.2
788.423	506.8
788.835	492.6
789.247	488
789.659	487.2
790.071	486.4
790.483	533.6
790.874	489.4
791.286	503.4
791.699	488.6
792.111	489.8
792.524	493.8
792.937	493.6
793.349	489.8
793.741	488.8
794.154	491.8
794.567	510.2
794.98	487.8
795.393	481.6
795.785	501.2
796.198	487.8
796.612	493.6
797.026	487
797.439	481.2
797.831	498.4
798.245	491.2
798.659	494.4
799.073	492.2
799.487	490.2
799.88	495.8
800.294	486.8
800.708	491.6
801.123	500.6
801.516	512.8
801.93	483.4
802.345	484.8
802.76	493
803.153	506.4
803.568	505.8
803.983	500.2
804.377	495.8
804.792	476.4
805.207	482
805.601	492
806.016	520
806.432	488.6
806.826	523.4
807.242	507.2
807.658	494.4
808.052	493.6
808.468	491.6
808.884	489.6
809.279	498.6
809.695	500.4
810.111	513.8
810.506	495.4
810.922	509.2
811.339	492.8
811.734	494
812.151	492.6
812.546	493.8
812.963	479.4
813.38	494.6
813.776	493.4
814.193	505.8
814.589	490.2
815.006	491.8
815.402	484.4
815.82	486.6
816.237	485.8
816.633	495.4
817.051	482.6
817.448	496.6
817.866	481.8
818.262	510.2
818.68	483.8
819.077	487.6
819.495	486.4
819.892	526.2
820.311	491.6
820.708	489.8
821.127	486.2
821.524	498.6
821.943	495
822.34	501.4
822.759	495.8
823.157	496.8
823.576	502.6
823.974	505.2
824.393	579.8
824.791	487.8
825.189	489.2
825.609	481.4
826.007	495.2
826.427	486
826.826	488.2
827.246	495.8
827.644	472.6
828.043	492.2
828.463	492.8
828.862	500
829.261	493.2
829.682	485.2
830.081	493.2
830.502	490.4
830.901	489.4
831.301	485.4
831.722	477.6
832.121	483
832.521	488
832.943	491.8
833.342	486.8
833.742	482
834.164	484
834.564	480.2
834.965	488.6
835.386	478.8
835.787	483.4
836.188	493.4
836.588	489
837.01	490.2
837.411	488.2
837.812	491
838.213	488.8
838.636	488.4
839.037	541.8
839.438	492.6
839.84	490.6
840.263	495.6
840.664	496.6
841.066	486.6
841.468	489.8
841.891	481
842.293	498
842.695	496.4
843.098	496.2
843.5	489.4
843.902	495.6
844.326	498.4
844.729	495
845.131	498
845.534	484
845.937	499.8
846.34	508.2
846.764	481.2
847.167	491.6
847.571	482.2
847.974	483.4
848.377	488.8
848.781	527.2
849.184	500
849.588	486.8
849.992	482.8
850.396	488
850.821	509.6
851.225	492.4
851.63	491.8
852.034	503.2
852.438	490.6
852.843	515.6
853.247	483.2
853.652	483.6
854.057	503
854.462	486.4
854.867	490
855.272	517.8
