#lambda/nm	C1
208.295	464
208.67	432.4
209.045	391.6
209.419	396.4
209.794	528.2
210.169	516.8
210.544	607.6
210.919	531.8
211.295	521.4
211.67	530.8
212.045	530.2
212.421	518.6
212.796	548.2
213.172	524.6
213.547	530.6
213.923	522.6
214.299	516.6
214.675	533.8
215.051	525.8
215.427	536.6
215.803	542.6
216.179	534.2
216.555	527.4
216.932	532.4
217.308	530.4
217.684	518.8
218.061	528.4
218.438	530
218.814	535.2
219.191	537.6
219.568	520
219.945	520.8
220.322	539.2
220.699	527.2
221.076	538
221.453	526.8
221.83	519.8
222.208	528.4
222.585	522.2
222.962	521.8
223.34	524
223.717	524.6
224.095	528.6
224.473	525.4
224.851	523.2
225.229	519.4
225.607	539
225.985	513.6
226.363	525.8
226.741	530.4
227.119	525.6
227.497	539.8
227.876	517.6
228.254	537.2
228.633	533.8
229.011	530.6
229.39	530.4
229.769	536
230.148	526.6
230.527	538.2
230.905	531.6
231.284	523.8
231.664	523.4
232.043	535.6
232.422	536.6
232.801	523.2
233.181	525.4
233.56	524.6
233.94	520.4
234.319	510.8
234.699	524.6
235.079	556.4
235.458	559.6
235.838	532.4
236.218	517.4
236.598	515.8
236.978	517.8
237.358	517.6
237.738	521.4
238.119	527.8
238.499	514.4
238.88	527
239.26	536.8
239.641	523.4
240.021	515.4
240.402	526
240.783	528.2
241.163	528
241.544	526
241.925	526
242.306	547.6
242.687	523
243.069	535.6
243.45	535.4
243.831	523.6
244.212	533.2
244.594	554.8
244.975	535.2
245.357	530.2
245.739	522.6
246.12	536.8
246.502	532.6
246.884	529.8
247.266	514.6
247.648	528.6
248.03	541
248.412	534.4
248.794	530.4
249.176	527.4
249.559	536.4
249.941	511.8
250.323	519.6
250.706	515.6
251.089	525.8
251.471	526.2
251.854	525.8
252.237	521
252.62	533.2
253.002	530.6
253.385	522.6
253.769	544.2
254.152	527
254.535	536
254.918	528.2
255.301	530.6
255.685	526
256.068	517.8
256.452	540.8
256.835	535.6
257.219	540.6
257.603	539.4
257.986	527.4
258.37	535.8
258.754	517.2
259.138	534.4
259.522	530
259.906	534
260.29	528.2
260.675	526
261.059	529.8
261.443	521.4
261.828	528.6
262.212	536
262.597	519.4
262.981	523.8
263.366	532.8
263.751	526.4
264.136	523.8
264.521	528.6
264.906	526
265.291	542.4
265.676	526.4
266.061	532.4
266.446	546
266.831	530.4
267.217	543.2
267.602	536.2
267.987	531.4
268.373	529
268.759	534.8
269.144	534.2
269.53	525.4
269.916	522.6
270.302	527
270.688	523.4
271.074	520.2
271.46	527.4
271.846	547.2
272.232	523.4
272.618	521
273.004	524
273.391	528.4
273.777	532
274.164	529.2
274.55	530.2
274.937	532.8
275.324	530.2
275.71	530.8
276.097	536.2
276.484	526.4
276.871	533
277.258	536.6
277.645	517.2
278.032	524.4
278.419	521
278.807	530.4
279.194	525.2
279.581	525.4
279.969	529
280.356	531.6
280.744	531.6
281.131	552.8
281.519	538
281.907	524.4
282.295	530.2
282.682	533
283.07	537.6
283.458	532
283.846	548.4
284.235	534.2
284.623	540
285.011	520.2
285.399	533.2
285.788	539
286.176	523.4
286.565	537.4
286.953	523.4
287.342	528.6
287.731	525.8
288.119	518.8
288.508	524.6
288.897	532.6
289.286	520.2
289.675	525.4
290.064	536.8
290.453	524
290.821	534.6
291.21	533.8
291.599	524.4
291.989	525.6
292.378	534.4
292.768	542.6
293.157	534.6
293.547	529.4
293.936	528.6
294.326	521.8
294.716	532.8
295.106	529.2
295.496	532.4
295.886	538.4
296.276	524
296.666	524
297.056	528.8
297.446	524.8
297.836	532.6
298.227	523.2
298.617	525.8
299.008	533.6
299.398	527.4
299.789	526
300.179	529.8
300.57	539.6
300.961	528.4
301.352	523
301.742	538.6
302.133	530
302.524	528.8
302.915	526
303.307	518.4
303.698	531.8
304.089	539.8
304.48	528
304.872	530.6
305.263	528.6
305.655	525.8
306.046	534.4
306.438	527.2
306.829	519.2
307.221	541.8
307.613	533
308.005	533.6
308.397	535.2
308.789	548.8
309.181	543
309.573	541.2
309.965	532
310.357	523.2
310.749	539.2
311.142	517.6
311.534	522.2
311.926	534.2
312.319	527
312.711	520
313.104	547.2
313.497	523.6
313.889	555.2
314.282	541.6
314.675	553.2
315.068	527.8
315.461	533.6
315.854	552
316.247	529.8
316.64	532.2
317.033	532.2
317.405	541.2
317.798	520
318.192	535.6
318.585	523.4
318.979	531.2
319.372	530.2
319.766	533.4
320.16	529.4
320.553	537.8
320.947	545
321.341	525.4
321.735	534.4
322.129	511.8
322.523	551.4
322.917	530.6
323.311	532.6
323.705	528.2
324.099	531
324.494	545.2
324.888	531.2
325.282	522.6
325.677	550
326.071	531.2
326.466	535.8
326.861	525.2
327.255	541.2
327.65	538.2
328.045	539.2
328.44	532.2
328.835	529.6
329.23	520.8
329.625	550
330.02	527.6
330.415	544.2
330.81	530.2
331.206	529
331.601	522.4
331.996	533.4
332.37	548.6
332.766	513.4
333.161	545.4
333.557	513.4
333.953	521.8
334.348	804.2
334.744	520.6
335.14	526.8
335.536	514.2
335.932	525.4
336.328	519.8
336.724	536.2
337.12	519.6
337.516	528.6
337.913	522
338.309	540.2
338.705	524.4
339.102	530.8
339.498	523.8
339.895	533.2
340.291	526.6
340.688	530.4
341.085	527.2
341.481	529.2
341.878	528.8
342.275	541.6
342.672	514.2
343.069	524.2
343.466	519.4
343.842	532
344.239	519.8
344.636	531.4
345.033	525.8
345.431	521.8
345.828	524.8
346.225	520.4
346.623	554.6
347.02	526.8
347.418	528.8
347.816	530.4
348.213	515.8
348.611	530.6
349.009	514.4
349.407	526.2
349.805	511.2
350.203	521
350.601	538
350.999	521
351.397	555.4
351.795	526.6
352.193	527
352.57	536.8
352.969	528
353.367	525
353.766	518.4
354.164	526
354.563	526.4
354.961	519.2
355.36	521.2
355.759	525.2
356.158	514.2
356.557	518
356.956	514.6
357.355	515.4
357.754	526
358.153	529
358.552	541
358.951	524.2
359.35	533
359.75	514.4
360.149	518
360.527	508.6
360.926	516
361.326	524.8
361.726	522.8
362.125	516.2
362.525	528.2
362.925	520.8
363.325	526.6
363.724	527.4
364.124	521.8
364.524	520.8
364.924	517.8
365.324	529.2
365.725	511.6
366.125	527.4
366.525	515.6
366.904	514.4
367.304	508.6
367.705	534
368.105	538.2
368.506	516.6
368.906	526.8
369.307	518.4
369.708	527.4
370.108	507.4
370.509	527.6
370.91	519.2
371.311	518.6
371.712	514.6
372.113	518.2
372.514	508.6
372.894	524.8
373.295	508.6
373.696	528.2
374.097	528.4
374.499	543
374.9	524.8
375.301	514.4
375.703	520.2
376.105	515.4
376.506	531.2
376.908	528.6
377.309	521.4
377.711	520.8
378.113	516.4
378.493	524
378.895	516.8
379.297	534.8
379.699	512.4
380.102	532.6
380.504	522.4
380.906	523.8
381.308	542.2
381.71	515.8
382.113	520.4
382.515	519
382.918	524.4
383.299	516.6
383.701	521.6
384.104	519.4
384.507	506
384.909	519
385.312	521.8
385.715	509.8
386.118	511.4
386.521	504.6
386.924	527.6
387.327	511.8
387.709	510.6
388.112	509.6
388.515	514.4
388.918	513.6
389.322	517
389.725	516.6
390.129	535.8
390.532	521.6
390.936	513.8
391.339	509
391.743	522
392.125	519.8
392.529	523.8
392.933	528.4
393.337	515.4
393.74	517.8
394.144	516.2
394.548	511.4
394.953	519.4
395.357	526
395.761	520.2
396.144	527.2
396.548	515.2
396.952	516.4
397.357	519.4
397.761	516.6
398.166	512.4
398.57	515.2
398.975	516.4
399.379	525
399.763	558.4
400.168	515.2
400.572	519.6
400.977	519.4
401.382	529.6
401.787	526.4
402.192	530.8
402.597	531
403.002	511.2
403.386	530.6
403.791	528.6
404.197	514
404.602	520.4
405.007	522.4
405.413	517.2
405.818	523
406.224	520.6
406.608	511.4
407.014	511.2
407.42	530.6
407.825	521.2
408.231	523.8
408.637	523.2
409.043	527.4
409.449	511.2
409.834	520
410.24	518
410.646	531
411.052	527.6
411.458	525.2
411.865	524.4
412.271	523.2
412.677	523
413.062	526.2
413.469	515.4
413.875	535.4
414.282	531
414.689	519.2
415.095	524
415.502	517.8
415.888	521.4
416.294	508.6
416.701	553
417.108	522
417.515	526
417.923	526.2
418.33	547.6
418.715	531.6
419.123	513
419.53	517.2
419.937	518.2
420.345	527.2
420.752	522
421.16	526.8
421.546	519.2
421.953	524.6
422.361	520.8
422.769	524.2
423.177	517.4
423.585	532.2
423.992	540.6
424.379	527.6
424.787	531.6
425.195	541.8
425.603	523.6
426.011	530.6
426.419	525.6
426.806	516
427.214	526.4
427.623	536.2
428.031	531.4
428.44	526.4
428.848	526.6
429.235	530
429.644	521.6
430.053	513
430.461	536.8
430.87	544.8
431.279	526.4
431.666	519.4
432.075	523.8
432.484	522.4
432.893	516.2
433.302	528.8
433.711	552
434.099	531.4
434.508	515.2
434.918	511.8
435.327	524.2
435.737	527.6
436.125	531.6
436.534	520.8
436.944	527.6
437.353	525.4
437.763	535.6
438.173	517.6
438.561	535.8
438.971	513
439.381	521.4
439.791	516.4
440.201	503.8
440.589	521.6
440.999	525
441.409	520.6
441.819	514.4
442.23	525.4
442.619	528
443.029	518.4
443.439	518.2
443.85	532.8
444.26	526.6
444.649	519.2
445.06	519.4
445.471	513.6
445.881	518
446.292	530.8
446.682	521.8
447.092	505
447.503	558.8
447.914	513.6
448.325	517.2
448.715	518.8
449.126	514
449.537	511.6
449.948	519.4
450.338	516.4
450.75	520.2
451.161	523.4
451.572	526
451.984	521.4
452.374	506.2
452.786	516.6
453.197	521.2
453.609	515.8
453.999	512.2
454.411	516.8
454.823	529
455.235	521.4
455.647	515.4
456.037	515.6
456.449	503.4
456.862	514.6
457.274	518
457.665	516.4
458.077	516
458.489	542.4
458.902	517
459.293	522.4
459.705	514.6
460.118	511
460.53	523.4
460.921	520.2
461.334	511.6
461.747	512.6
462.16	524.4
462.551	525.4
462.964	517.6
463.377	507.2
463.79	510.8
464.182	522.2
464.595	510.6
465.008	517.6
465.421	514.2
465.813	513.2
466.226	518.4
466.64	508.2
467.053	547.2
467.445	515.4
467.859	521.2
468.272	512.6
468.686	526.6
469.078	506.6
469.492	501.6
469.906	516.2
470.298	520.6
470.712	505
471.126	532.6
471.54	504.4
471.933	509.4
472.347	513.2
472.761	510
473.175	512.8
473.568	508.4
473.982	509.4
474.397	515.4
474.79	519.4
475.204	522.6
475.619	515.4
476.033	515.4
476.426	512.8
476.841	507.4
477.256	523
477.649	503.4
478.064	507
478.479	504.6
478.872	506.6
479.287	498.8
479.702	511.2
480.118	515.2
480.511	508
480.927	509.4
481.342	501.6
481.736	515
482.151	501.8
482.566	513.8
482.96	515
483.376	515.4
483.792	498.8
484.186	509.8
484.602	498.6
485.017	505
485.412	509.2
485.827	512.2
486.243	512
486.638	526
487.054	521.6
487.47	521.4
487.865	507.8
488.281	502.2
488.697	507.8
489.092	511.2
489.508	508.2
489.925	514.8
490.32	495.6
490.736	510.2
491.153	516
491.548	509.8
491.964	519.4
492.381	494
492.776	507.4
493.193	510.6
493.61	512
494.006	512.2
494.422	512.6
494.84	511.4
495.235	520
495.652	508.2
496.069	516.8
496.465	506.6
496.883	501.6
497.3	526.4
497.696	504.2
498.113	514.4
498.509	495.6
498.927	504.6
499.344	506.4
499.741	500.4
500.158	518.8
500.576	526
500.973	513.4
501.39	508
501.787	497.6
502.205	512.4
502.623	496.2
503.02	497.6
503.438	496.6
503.856	510.6
504.253	507.2
504.671	509.2
505.068	497.4
505.486	508.4
505.905	514.4
506.302	510.8
506.72	519.4
507.118	505.2
507.536	501.6
507.955	505
508.352	512.6
508.771	506.2
509.169	516.2
509.587	500.4
510.006	516.6
510.404	497.8
510.823	506
511.221	503.8
511.64	508.6
512.038	522
512.457	508.4
512.877	518
513.275	512.2
513.694	513
514.092	502.2
514.512	500.4
514.91	514
515.33	509
515.749	502.8
516.148	509.6
516.568	509
516.966	511.2
517.386	505
517.785	505.4
518.205	508
518.603	509.2
519.024	499.8
519.444	508.6
519.843	513.4
520.263	523.2
520.662	506.4
521.082	505.4
521.481	515.6
521.902	511.2
522.301	511.4
522.722	513.6
523.121	507.8
523.542	502.2
523.963	513.4
524.362	515
524.783	507.8
525.183	505.8
525.604	517.2
526.003	503.4
526.425	499.8
526.824	514.2
527.246	510
527.646	515.6
528.067	510.4
528.467	505
528.888	515.4
529.289	509.2
529.71	505.8
530.11	504.4
530.532	509
530.932	499.4
531.354	495.8
531.755	538
532.176	515.8
532.577	505.2
532.999	500.8
533.4	510.8
533.822	512.2
534.223	507
534.645	507.4
535.046	503.2
535.468	506.6
535.869	520.6
536.292	513.6
536.693	536.4
537.115	506.8
537.516	506.4
537.939	508
538.34	518.4
538.742	515.6
539.165	504.6
539.566	514.6
539.989	499.2
540.391	506.8
540.814	501.4
541.216	510.4
541.639	503
542.041	514
542.464	497
542.866	495
543.268	508.8
543.691	511.6
544.093	505.2
544.517	521.6
544.919	494
545.343	521.2
545.745	495.2
546.147	504
546.571	509.2
546.974	502.4
547.398	506
547.8	516.6
548.224	508.4
548.627	502.6
549.03	504.6
549.454	508
549.857	500.4
550.281	505.6
550.684	511.8
551.087	512.4
551.512	513.8
551.915	514.4
552.34	506.6
552.743	497.2
553.146	513
553.571	507.4
553.975	518
554.399	494.6
554.803	546.4
555.207	501
555.632	500.6
556.036	508.8
556.461	499.2
556.865	511.8
557.268	509
557.694	506.6
558.098	509.8
558.502	507.8
558.927	499.8
559.332	505
559.736	500.4
560.162	503
560.566	505.6
560.992	507.8
561.396	516.2
561.801	502.2
562.227	501.6
562.631	505.8
563.036	511.8
563.462	510.4
563.867	507.2
564.272	493
564.698	511.6
565.103	499.2
565.508	512.4
565.935	506
566.34	501.6
566.745	509
567.172	498.6
567.577	520.6
567.982	515.6
568.409	503
568.815	505
569.22	506.2
569.626	508.4
570.053	491.4
570.459	503.8
570.865	512
571.292	513.6
571.698	506.6
572.104	500.8
572.531	503.6
572.937	520.4
573.343	510.4
573.75	510.6
574.177	517.2
574.583	508.6
574.99	501.6
575.396	507.2
575.824	505.6
576.231	506.2
576.637	507.4
577.065	518.8
577.472	503
577.879	507.8
578.286	518.2
578.714	489
579.121	507.6
579.528	501.4
579.935	509.2
580.364	501.8
580.771	488.6
581.178	491
581.585	499.2
582.014	495.2
582.421	498.8
582.829	505
583.236	502.8
583.644	498.6
584.073	503.2
584.481	501.6
584.889	493.4
585.296	508.6
585.726	502.4
586.134	501.2
586.542	499.6
586.95	514.8
587.358	498.4
587.787	500.8
588.196	498.4
588.604	508.8
589.012	503.8
589.421	485
589.851	497
590.259	501.6
590.668	498.8
591.076	534.8
591.485	500.4
591.894	502
592.324	512.6
592.733	511.8
593.142	486.8
593.551	504
593.96	503.2
594.369	498
594.8	497.6
595.209	504.8
595.618	500
596.028	494.4
596.437	493.4
596.847	497
597.256	502.4
597.687	503.6
598.097	503.6
598.507	503.2
598.917	510.4
599.327	512.8
599.736	504.8
600.146	507.2
600.556	511
600.988	511.8
601.398	504
601.808	509.6
602.219	496.2
602.629	501.6
603.039	497.2
603.45	524.6
603.86	511.8
604.271	511
604.703	509
605.114	502.2
605.525	507
605.935	512.4
606.346	516.2
606.757	505.4
607.168	507.2
607.579	499.6
607.99	510
608.402	505.4
608.813	514.6
609.224	506.8
609.636	502.6
610.047	500.2
610.48	506.6
610.892	511.2
611.303	509
611.715	497.8
612.127	505
612.539	498.6
612.95	511.4
613.362	495
613.774	498.8
614.186	503.4
614.599	497.6
615.011	506.6
615.423	500.4
615.835	495.2
616.248	498.8
616.66	505.2
617.073	494
617.485	502.8
617.898	518.4
618.311	502.4
618.723	504.8
619.136	523.8
619.549	518.6
619.962	525.6
620.375	497.8
620.788	507.4
621.201	510.6
621.614	504.8
622.028	506.4
622.441	513.4
622.854	517.4
623.268	505.6
623.681	505.4
624.095	502.4
624.509	511.4
624.922	507.8
625.336	499.6
625.728	507.6
626.142	513.8
626.556	512.2
626.97	511
627.384	504.4
627.799	499.2
628.213	516.6
628.627	499.2
629.041	496.8
629.456	508.2
629.87	516.6
630.285	513
630.699	505.8
631.093	508.6
631.507	508.4
631.922	511.4
632.337	513
632.752	506.4
633.167	512.2
633.582	497.8
633.997	508.2
634.412	505
634.806	506.6
635.221	501.6
635.637	504.2
636.052	499.6
636.468	505.4
636.883	520.8
637.299	504.6
637.715	493.4
638.109	504.6
638.525	494
638.941	515.8
639.357	508.8
639.773	505.2
640.189	502.8
640.584	503.8
641	502.2
641.416	491
641.832	501.2
642.249	500.8
642.665	503
643.06	504.8
643.477	509.4
643.894	492.8
644.31	496.4
644.727	504.8
645.123	498.8
645.54	492.2
645.957	501
646.374	505.6
646.77	501
647.187	533.8
647.604	503.6
648.021	484.2
648.439	499.2
648.835	505.4
649.252	491.2
649.67	506.8
650.088	500.6
650.484	496.6
650.902	506.6
651.32	514
651.738	501.6
652.134	496.8
652.552	521.2
652.971	503.8
653.389	502.8
653.786	517.8
654.204	509.6
654.622	500.4
655.019	505.8
655.438	502.2
655.857	508.2
656.275	508.6
656.673	495.8
657.091	513.2
657.51	502
657.908	513
658.327	517.8
658.746	496.2
659.144	498.8
659.563	507.2
659.982	496.6
660.38	486.6
660.8	500.8
661.219	505.2
661.617	504
662.037	496.6
662.457	516
662.855	498.4
663.275	528.2
663.695	498.6
664.094	492.8
664.514	497.6
664.934	501.6
665.333	502.4
665.753	500.6
666.152	487.4
666.572	501
666.993	507.4
667.392	491.2
667.812	498
668.212	498
668.632	511
669.053	492.4
669.453	501.4
669.874	499.8
670.273	493.8
670.694	499.2
671.116	506.8
671.515	506.6
671.937	503
672.337	492.8
672.758	498.4
673.158	504.8
673.58	490
673.98	489.4
674.402	517.2
674.824	504.4
675.224	495.4
675.646	490
676.047	496.8
676.469	498.6
676.869	496.6
677.292	500.4
677.693	497.8
678.115	493.4
678.516	498
678.939	496.6
679.34	502
679.762	504.4
680.164	505.4
680.586	490
680.988	503.4
681.411	520.2
681.812	491.2
682.236	488.4
682.637	488.4
683.061	491.2
683.462	496.8
683.864	498.2
684.288	500
684.69	489.6
685.114	501.4
685.516	512.6
685.94	491.4
686.342	507.8
686.766	498.6
687.168	491.2
687.571	517.2
687.995	501.6
688.398	490.8
688.822	495.4
689.225	505.8
689.628	513.2
690.052	500.8
690.456	510.4
690.88	495
691.284	494.2
691.687	505.8
692.112	485.6
692.515	494
692.919	497.6
693.344	498.2
693.747	497.6
694.173	495
694.577	510.4
694.98	498.2
695.406	493.2
695.81	495.6
696.214	496.4
696.64	496.8
697.044	499.2
697.448	507.6
697.874	491.8
698.279	497.4
698.684	489.6
699.11	483.2
699.514	492.8
699.919	493.6
700.324	494.6
700.75	495.4
701.156	495.6
701.561	507.6
701.987	498.2
702.393	512.4
702.798	502
703.203	500.8
703.63	488.6
704.036	489
704.442	505.4
704.847	494.2
705.274	493
705.68	501
706.086	502.6
706.492	490.6
706.92	495.8
707.326	501.4
707.732	494.2
708.139	492.6
708.545	490.6
708.973	491.8
709.38	500.4
709.786	490.8
710.193	505.6
710.6	500.6
711.028	492.6
711.435	492.6
711.842	500.4
712.249	492.6
712.656	492.2
713.064	504.6
713.492	498
713.9	498.4
714.307	502.8
714.715	499.2
715.123	499.4
715.53	500.8
715.938	509.2
716.367	503.6
716.775	497.6
717.184	489.8
717.592	496
718	503
718.408	520.6
718.816	528.6
719.225	496.8
719.633	503.8
720.042	489
720.472	492.4
720.881	508.8
721.29	500.2
721.699	486.4
722.108	495.8
722.517	502
722.926	488
723.335	503.6
723.744	492
724.154	491.4
724.563	494.6
724.973	492.4
725.382	497.2
725.792	492.6
726.202	489.2
726.612	500.4
727.022	498
727.432	488.6
779.813	491.8
780.223	528.8
780.634	490.2
781.044	493.4
781.454	494.2
781.865	509.6
782.276	485.6
782.686	502
783.097	488.6
783.508	487
783.919	498.6
784.33	506
784.741	503.8
785.152	491.8
785.563	483.6
785.974	490.2
786.386	499.6
786.776	479.8
787.188	493.2
787.599	492
788.011	491.4
788.423	499.8
788.835	484
789.247	485.6
789.659	495.6
790.071	488.4
790.483	532
790.874	489.6
791.286	498.6
791.699	497.2
792.111	495.4
792.524	503.2
792.937	491.8
793.349	484.4
793.741	489.2
794.154	482.6
794.567	511.8
794.98	486.2
795.393	482.4
795.785	502
796.198	489.2
796.612	495.4
797.026	488.2
797.439	482.6
797.831	493.2
798.245	485.8
798.659	493.6
799.073	495
799.487	484.4
799.88	496.2
800.294	486.8
800.708	498
801.123	495.6
801.516	506.2
801.93	484.8
802.345	489.8
802.76	493
803.153	502.8
803.568	506.4
803.983	497.8
804.377	493.4
804.792	487.8
805.207	487.6
805.601	498.6
806.016	518.8
806.432	487.2
806.826	520.2
807.242	503.8
807.658	494.4
808.052	487.8
808.468	493.4
808.884	486.4
809.279	488.2
809.695	496.2
810.111	502.6
810.506	494
810.922	508
811.339	490.2
811.734	497
812.151	491
812.546	485.8
812.963	493
813.38	494.4
813.776	493.6
814.193	508.4
814.589	487.2
815.006	489.6
815.402	491
815.82	488.6
816.237	490.8
816.633	499
817.051	489
817.448	498.2
817.866	483.6
818.262	514.6
818.68	489.8
819.077	493
819.495	495.4
819.892	524
820.311	488.8
820.708	495.4
821.127	490.4
821.524	498.6
821.943	492
822.34	498
822.759	492.8
823.157	490.8
823.576	492.4
823.974	492.6
824.393	541.8
824.791	491.8
825.189	481.8
825.609	487.8
826.007	488.2
826.427	482
826.826	488.4
827.246	486.2
827.644	478.8
828.043	491.4
828.463	488
828.862	500.2
829.261	492.4
829.682	480
830.081	494.6
830.502	487
830.901	492.4
831.301	488.6
831.722	476.8
832.121	481.4
832.521	482.6
832.943	491.6
833.342	495.6
833.742	489
834.164	492.8
834.564	483.6
834.965	488
835.386	496.2
835.787	483
836.188	493.6
836.588	494.6
837.01	486.6
837.411	490.2
837.812	499.2
838.213	491.6
838.636	488.2
839.037	549.6
839.438	492
839.84	497.4
840.263	498
840.664	501.6
841.066	490.2
841.468	486
841.891	493.2
842.293	497.6
842.695	501.8
843.098	503
843.5	487.4
843.902	494.4
844.326	486.8
844.729	494
845.131	500
845.534	487.2
845.937	496.8
846.34	501.6
846.764	486.2
847.167	488.6
847.571	484.4
847.974	489.8
848.377	492
848.781	528.6
849.184	506.6
849.588	488.6
849.992	490.4
850.396	490.2
850.821	504.8
851.225	496.8
851.63	487.4
852.034	498.6
852.438	486.2
852.843	544.6
853.247	485.6
853.652	481.6
854.057	507.2
854.462	496.4
854.867	499.4
