#lambda/nm	C1
208.295	465.6
208.67	435
209.045	389.8
209.419	401.6
209.794	530.2
210.169	528.4
210.544	612
210.919	528.6
211.295	515
211.67	520.6
212.045	525.6
212.421	525
212.796	556.8
213.172	523.2
213.547	524.4
213.923	523.4
214.299	522.6
214.675	532.8
215.051	531.6
215.427	535.6
215.803	541.2
216.179	534.4
216.555	524.8
216.932	541.2
217.308	540
217.684	528.8
218.061	533.8
218.438	535
218.814	525
219.191	540
219.568	527.4
219.945	532
220.322	534.2
220.699	525.4
221.076	540.6
221.453	532
221.83	521
222.208	531.2
222.585	522.8
222.962	529.6
223.34	529.2
223.717	520.6
224.095	523
224.473	526.2
224.851	528.8
225.229	519.4
225.607	532
225.985	526
226.363	532.6
226.741	533.8
227.119	531.2
227.497	536.8
227.876	516.6
228.254	532.8
228.633	536.2
229.011	533.8
229.39	532.2
229.769	526
230.148	537.8
230.527	545.8
230.905	530.8
231.284	531
231.664	525.4
232.043	536.4
232.422	534
232.801	527
233.181	532.8
233.56	523.2
233.94	533.2
234.319	519.6
234.699	521.4
235.079	564.4
235.458	556.8
235.838	538.6
236.218	522.8
236.598	520.6
236.978	528.8
237.358	516.8
237.738	532.2
238.119	538
238.499	511.2
238.88	525.2
239.26	537.8
239.641	517.2
240.021	526.8
240.402	532.2
240.783	530.6
241.163	525.4
241.544	526.6
241.925	536
242.306	538.8
242.687	520.4
243.069	523.2
243.45	534.8
243.831	528
244.212	530.6
244.594	567.2
244.975	528
245.357	533.2
245.739	528
246.12	528.8
246.502	544.6
246.884	530.4
247.266	531.2
247.648	531
248.03	540.6
248.412	524.6
248.794	539.2
249.176	524.2
249.559	540
249.941	528.6
250.323	511.2
250.706	521
251.089	521.4
251.471	523
251.854	527.8
252.237	526.2
252.62	538.6
253.002	530.6
253.385	532.4
253.769	539
254.152	528.4
254.535	534
254.918	514.6
255.301	528.2
255.685	526.2
256.068	524.8
256.452	551.2
256.835	536.2
257.219	526
257.603	537.8
257.986	521.2
258.37	528.8
258.754	522.6
259.138	532
259.522	537.2
259.906	529.8
260.29	528.2
260.675	526
261.059	527.2
261.443	522.2
261.828	536
262.212	530.2
262.597	515.2
262.981	525
263.366	530.2
263.751	534.8
264.136	520.8
264.521	523.4
264.906	527
265.291	537
265.676	526
266.061	531.2
266.446	542.6
266.831	524.6
267.217	535.2
267.602	526.6
267.987	535.6
268.373	522.2
268.759	537.8
269.144	536
269.53	520.6
269.916	512.2
270.302	525
270.688	535
271.074	533.4
271.46	538.4
271.846	556.2
272.232	527.8
272.618	517.2
273.004	519.8
273.391	537.6
273.777	537.6
274.164	530.8
274.55	535.6
274.937	526.2
275.324	515.2
275.71	533.8
276.097	532
276.484	515.8
276.871	528.4
277.258	525.2
277.645	518
278.032	530.6
278.419	522.6
278.807	531
279.194	519.8
279.581	518.4
279.969	529.2
280.356	530.4
280.744	526.8
281.131	547.6
281.519	534.6
281.907	531.6
282.295	526.4
282.682	542
283.07	529.2
283.458	542
283.846	538.4
284.235	539
284.623	533.4
285.011	522
285.399	524.2
285.788	523.6
286.176	515.8
286.565	540.2
286.953	526.6
287.342	520.6
287.731	520.6
288.119	518
288.508	518.4
288.897	530
289.286	517.8
289.675	530
290.064	534
290.453	527.8
290.821	524.6
291.21	541
291.599	523.8
291.989	529
292.378	531.4
292.768	542.8
293.157	526.8
293.547	533.6
293.936	516.2
294.326	521.8
294.716	525.8
295.106	524.8
295.496	531
295.886	529.6
296.276	523.6
296.666	516.8
297.056	524.4
297.446	512.8
297.836	542
298.227	531.8
298.617	530.8
299.008	537.6
299.398	525.6
299.789	526
300.179	531.8
300.57	535.4
300.961	519
301.352	520.6
301.742	538.2
302.133	521.4
302.524	519.8
302.915	524
303.307	510
303.698	528.4
304.089	528.4
304.48	517.4
304.872	528
305.263	526.4
305.655	525
306.046	526
306.438	535.4
306.829	516.4
307.221	536.8
307.613	526.2
308.005	534.8
308.397	529.4
308.789	536.2
309.181	548.6
309.573	543.2
309.965	529.2
310.357	518.4
310.749	533.8
311.142	516.4
311.534	519
311.926	526.8
312.319	524.4
312.711	515.6
313.104	530.4
313.497	525.6
313.889	556.6
314.282	539.4
314.675	550.6
315.068	527.8
315.461	527
315.854	552.6
316.247	529.2
316.64	522.2
317.033	524.2
317.405	538.6
317.798	520
318.192	532.8
318.585	522.6
318.979	532.4
319.372	517.2
319.766	532
320.16	534.4
320.553	536.2
320.947	538.8
321.341	520
321.735	531.8
322.129	521.6
322.523	549.6
322.917	524.6
323.311	539.6
323.705	536.2
324.099	537.8
324.494	540.2
324.888	536.8
325.282	534.2
325.677	537.6
326.071	532.8
326.466	544.4
326.861	533.4
327.255	541.8
327.65	541
328.045	542.6
328.44	533.2
328.835	531
329.23	527
329.625	545.8
330.02	520.4
330.415	541.4
330.81	524
331.206	526.6
331.601	527
331.996	531.4
332.37	546.8
332.766	521.6
333.161	541.2
333.557	532.2
333.953	526.6
334.348	695.2
334.744	536.2
335.14	525.6
335.536	531.4
335.932	539.8
336.328	530.6
336.724	534.6
337.12	522.2
337.516	529.2
337.913	534.6
338.309	540.2
338.705	529.8
339.102	535
339.498	518
339.895	536.6
340.291	523
340.688	541.2
341.085	525
341.481	522.4
341.878	525.8
342.275	548
342.672	522
343.069	522.2
343.466	509.6
343.842	533.4
344.239	528.2
344.636	534.2
345.033	515.4
345.431	517.6
345.828	520.4
346.225	521.4
346.623	556.2
347.02	525.4
347.418	536.8
347.816	533
348.213	518.2
348.611	527.8
349.009	524
349.407	535.2
349.805	521
350.203	514.2
350.601	534.4
350.999	522
351.397	551.4
351.795	522.8
352.193	530.2
352.57	528.8
352.969	536
353.367	524.2
353.766	522.4
354.164	525.4
354.563	534.4
354.961	521.6
355.36	521.6
355.759	521
356.158	514.4
356.557	525.4
356.956	525.6
357.355	521.4
357.754	523
358.153	527.8
358.552	546
358.951	523.4
359.35	535.8
359.75	521.6
360.149	515.4
360.527	516.6
360.926	522.6
361.326	522.4
361.726	523.8
362.125	520.6
362.525	521.8
362.925	520.8
363.325	533.4
363.724	525.8
364.124	521.4
364.524	508.6
364.924	514.2
365.324	523.6
365.725	513.2
366.125	531.6
366.525	518.6
366.904	516.6
367.304	512.8
367.705	530.8
368.105	533.2
368.506	521.8
368.906	525.8
369.307	518.2
369.708	524.4
370.108	507.8
370.509	527.6
370.91	516.2
371.311	523.6
371.712	519
372.113	517.8
372.514	518.8
372.894	522.4
373.295	514
373.696	525.2
374.097	524.2
374.499	540.2
374.9	517.4
375.301	509.6
375.703	516.6
376.105	518
376.506	519.6
376.908	522
377.309	523.6
377.711	518.4
378.113	514.4
378.493	521
378.895	513.6
379.297	531
379.699	507.2
380.102	524.8
380.504	514.6
380.906	512.4
381.308	541
381.71	516.4
382.113	526.4
382.515	510.4
382.918	525
383.299	519.4
383.701	520.4
384.104	523
384.507	507.6
384.909	518.4
385.312	513.8
385.715	504.4
386.118	514.4
386.521	517
386.924	525.6
387.327	516.4
387.709	499
388.112	501.8
388.515	518.2
388.918	509.2
389.322	517.6
389.725	513.2
390.129	533.6
390.532	515.6
390.936	507.6
391.339	504.8
391.743	520.2
392.125	516.8
392.529	524.6
392.933	527.2
393.337	515
393.74	518.2
394.144	521.2
394.548	512.2
394.953	512.6
395.357	531
395.761	511.4
396.144	516.6
396.548	517
396.952	516.2
397.357	525.4
397.761	514.8
398.166	513.4
398.57	514.4
398.975	508.8
399.379	515.2
399.763	549.2
400.168	513.2
400.572	513
400.977	510.4
401.382	521.6
401.787	520.4
402.192	526.2
402.597	524.8
403.002	500.2
403.386	525.8
403.791	535
404.197	508.6
404.602	511.4
405.007	522
405.413	508.4
405.818	505.8
406.224	506.8
406.608	510.2
407.014	507.4
407.42	527.6
407.825	506
408.231	524.2
408.637	519
409.043	528.8
409.449	516.6
409.834	517.8
410.24	514.8
410.646	528.6
411.052	523
411.458	524.8
411.865	519.4
412.271	525.6
412.677	524
413.062	528.6
413.469	516.2
413.875	543.8
414.282	535.4
414.689	519.4
415.095	524.2
415.502	511.8
415.888	529.8
416.294	507.4
416.701	552.2
417.108	516.6
417.515	524.2
417.923	518.6
418.33	537
418.715	531.8
419.123	516.8
419.53	520.8
419.937	515.6
420.345	534.8
420.752	514
421.16	519.2
421.546	517.2
421.953	532.6
422.361	515.4
422.769	521.6
423.177	512.8
423.585	538.8
423.992	534
424.379	527
424.787	531.8
425.195	536.8
425.603	517.6
426.011	533.6
426.419	525.2
426.806	525.4
427.214	517.4
427.623	528.8
428.031	534
428.44	524.8
428.848	523.2
429.235	535.6
429.644	519.8
430.053	519.6
430.461	532.8
430.87	542.2
431.279	527
431.666	515.8
432.075	519.6
432.484	521.8
432.893	518
433.302	530.8
433.711	552
434.099	526.2
434.508	514.4
434.918	516.8
435.327	518.8
435.737	517.8
436.125	520.6
436.534	526.8
436.944	518.4
437.353	525.6
437.763	540
438.173	519.4
438.561	529.6
438.971	512.4
439.381	516.2
439.791	519.4
440.201	497
440.589	525.8
440.999	524.2
441.409	516.6
441.819	510
442.23	519
442.619	526.4
443.029	520
443.439	523.8
443.85	528.4
444.26	533.2
444.649	525.4
445.06	514.6
445.471	514.8
445.881	519.4
446.292	532.2
446.682	539
447.092	516.2
447.503	565.6
447.914	519.8
448.325	514.4
448.715	516.4
449.126	517
449.537	517
449.948	523.4
450.338	522.6
450.75	527.2
451.161	519.6
451.572	525
451.984	514.2
452.374	513.2
452.786	516
453.197	528.2
453.609	520.8
453.999	516.2
454.411	515.4
454.823	526
455.235	519.4
455.647	524.6
456.037	530
456.449	505.4
456.862	515.4
457.274	523.8
457.665	514
458.077	516
458.489	539.2
458.902	521.6
459.293	529.4
459.705	520.6
460.118	518
460.53	516.6
460.921	514.2
461.334	524
461.747	514.6
462.16	530
462.551	532.6
462.964	519.2
463.377	505.8
463.79	523.4
464.182	525
464.595	516.8
465.008	514.4
465.421	519.6
465.813	519.2
466.226	523
466.64	510
467.053	555.6
467.445	520.8
467.859	531.8
468.272	517
468.686	523.2
469.078	516.2
469.492	505.4
469.906	517.8
470.298	515.2
470.712	504.4
471.126	538.6
471.54	504.4
471.933	507.2
472.347	515
472.761	511.4
473.175	503.8
473.568	515
473.982	499.8
474.397	504.2
474.79	510
475.204	514.4
475.619	511.8
476.033	513
476.426	515
476.841	511.6
477.256	532.8
477.649	505.2
478.064	512
478.479	512.6
478.872	508
479.287	503.2
479.702	511.6
480.118	508.2
480.511	517.2
480.927	503.2
481.342	514.2
481.736	518.6
482.151	503.8
482.566	522.4
482.96	511.2
483.376	515
483.792	503
484.186	523.4
484.602	507
485.017	511
485.412	511.4
485.827	517
486.243	510.4
486.638	522.4
487.054	509.2
487.47	518.4
487.865	508
488.281	506
488.697	507.8
489.092	502.6
489.508	505.2
489.925	522.8
490.32	510.2
490.736	517
491.153	516.4
491.548	512.2
491.964	520.6
492.381	506.2
492.776	518.2
493.193	506.8
493.61	514.6
494.006	519.4
494.422	515.8
494.84	505.2
495.235	519.6
495.652	504.8
496.069	512.6
496.465	498
496.883	506.2
497.3	527.4
497.696	509.6
498.113	511.2
498.509	501.2
498.927	498.4
499.344	505.2
499.741	499
500.158	512.2
500.576	515
500.973	507.6
501.39	493.6
501.787	501.8
502.205	501.8
502.623	496.2
503.02	498.6
503.438	504.2
503.856	501.6
504.253	512.4
504.671	509.6
505.068	502
505.486	503.2
505.905	523.6
506.302	515.6
506.72	511.4
507.118	499
507.536	500.8
507.955	507.6
508.352	512.4
508.771	519.4
509.169	508
509.587	508.4
510.006	518.8
510.404	503.6
510.823	507.4
511.221	504.2
511.64	502.6
512.038	518
512.457	510.2
512.877	511.6
513.275	505.6
513.694	503.6
514.092	509.4
514.512	511.2
514.91	517.8
515.33	511
515.749	507.4
516.148	510
516.568	507.6
516.966	509.8
517.386	513
517.785	507.4
518.205	501.4
518.603	498.4
519.024	500.8
519.444	507.6
519.843	515.8
520.263	517.4
520.662	509
521.082	496.2
521.481	516.2
521.902	502.6
522.301	511.8
522.722	512.8
523.121	507
523.542	502.8
523.963	506
524.362	502.8
524.783	504
525.183	514.2
525.604	517
526.003	504
526.425	498.8
526.824	512
527.246	515.2
527.646	512
528.067	504.6
528.467	508
528.888	512.8
529.289	516.4
529.71	508.8
530.11	506.4
530.532	509.2
530.932	505
531.354	503
531.755	531.4
532.176	511.8
532.577	511.6
532.999	517.8
533.4	502.8
533.822	519.8
534.223	505.4
534.645	516.6
535.046	500
535.468	511
535.869	523.6
536.292	508.4
536.693	539
537.115	513.4
537.516	512
537.939	504.2
538.34	522.4
538.742	515.4
539.165	508
539.566	515
539.989	505.6
540.391	505.8
540.814	500.6
541.216	510.2
541.639	508.2
542.041	513.2
542.464	505
542.866	501
543.268	501
543.691	516.6
544.093	516.4
544.517	519
544.919	502.6
545.343	513
545.745	505.8
546.147	504
546.571	505.6
546.974	499.8
547.398	508.4
547.8	513.8
548.224	496.6
548.627	510
549.03	513
549.454	499
549.857	497.8
550.281	505
550.684	501
551.087	505
551.512	503.4
551.915	508.6
552.34	506.8
552.743	502.4
553.146	504.4
553.571	498.8
553.975	518.6
554.399	505.6
554.803	544
555.207	507.2
555.632	497.6
556.036	509.8
556.461	504.4
556.865	508.4
557.268	507
557.694	500.2
558.098	512.8
558.502	512.4
558.927	499.6
559.332	505.2
559.736	501
560.162	516.2
560.566	506
560.992	511.8
561.396	511.8
561.801	501.8
562.227	503.4
562.631	506.8
563.036	509
563.462	515.4
563.867	510
564.272	496.6
564.698	512.4
565.103	501.4
565.508	520.4
565.935	505
566.34	511.8
566.745	519.4
567.172	507.2
567.577	529.6
567.982	512.6
568.409	511
568.815	501.2
569.22	507.8
569.626	514.6
570.053	490.6
570.459	505
570.865	509.2
571.292	504.2
571.698	513.2
572.104	490
572.531	502.4
572.937	507.4
573.343	504.2
573.75	504.8
574.177	504.8
574.583	511
574.99	511
575.396	507.6
575.824	504.8
576.231	515.2
576.637	501.6
577.065	528
577.472	497
577.879	506
578.286	524.4
578.714	501.4
579.121	500.8
579.528	504
579.935	506.4
580.364	513.8
580.771	490
581.178	492.2
581.585	506.4
582.014	499.2
582.421	499.4
582.829	495.6
583.236	513.6
583.644	499
584.073	495
584.481	502.4
584.889	508.4
585.296	507.4
585.726	501.2
586.134	499
586.542	496.4
586.95	521.2
587.358	497.4
587.787	497
588.196	491
588.604	500.8
589.012	504.4
589.421	493.6
589.851	501
590.259	503
590.668	505
591.076	530.4
591.485	497.4
591.894	506.6
592.324	515.6
592.733	513.6
593.142	482.6
593.551	501
593.96	523
594.369	490.6
594.8	502.6
595.209	497.2
595.618	494.4
596.028	499.2
596.437	493.8
596.847	497.4
597.256	499.2
597.687	509.6
598.097	505.2
598.507	489
598.917	503.2
599.327	507.2
599.736	499.8
600.146	503
600.556	502.8
600.988	507
601.398	494.2
601.808	503.6
602.219	497.4
602.629	505.6
603.039	502.4
603.45	523
603.86	501.4
604.271	516.2
604.703	510.6
605.114	504.8
605.525	502.6
605.935	508.6
606.346	518.2
606.757	505.6
607.168	503.6
607.579	498.2
607.99	513.6
608.402	499
608.813	507.2
609.224	500.2
609.636	494.6
610.047	504.6
610.48	506.8
610.892	510.6
611.303	516
611.715	498.4
612.127	495.2
612.539	503.2
612.95	506.2
613.362	490.6
613.774	486.6
614.186	493.8
614.599	494.4
615.011	509.4
615.423	506.6
615.835	504
616.248	487.6
616.66	501.6
617.073	492
617.485	498.8
617.898	505
618.311	499.8
618.723	495.8
619.136	527.4
619.549	512.6
619.962	519.2
620.375	502.8
620.788	502.8
621.201	505
621.614	509.8
622.028	499.6
622.441	511.6
622.854	513.8
623.268	502.2
623.681	509.8
624.095	501.4
624.509	505.8
624.922	507.6
625.336	504.4
625.728	505.4
626.142	506.4
626.556	519.6
626.97	509.6
627.384	500.2
627.799	498.8
628.213	507.8
628.627	500.8
629.041	504.2
629.456	502.8
629.87	496.4
630.285	505.6
630.699	513
631.093	501.8
631.507	504.2
631.922	503.8
632.337	517.4
632.752	490
633.167	497.6
633.582	497.2
633.997	491.4
634.412	496.4
634.806	505.2
635.221	491.6
635.637	506.6
636.052	496.8
636.468	506.8
636.883	509
637.299	506.2
637.715	491.6
638.109	506.8
638.525	489.2
638.941	499.8
639.357	506
639.773	520.8
640.189	500.8
640.584	494.6
641	502.2
641.416	492.8
641.832	507.2
642.249	503
642.665	504.6
643.06	504.8
643.477	505.8
643.894	490
644.31	502.2
644.727	498
645.123	500.4
645.54	496.2
645.957	503
646.374	510.6
646.77	486.4
647.187	518.6
647.604	501.8
648.021	489.8
648.439	489.4
648.835	499.8
649.252	497.2
649.67	501
650.088	498.8
650.484	503.2
650.902	501.6
651.32	505.6
651.738	495.2
652.134	500
652.552	516.2
652.971	505.2
653.389	498.2
653.786	518.8
654.204	503.6
654.622	498.6
655.019	495.6
655.438	502.8
655.857	498.4
656.275	501.4
656.673	487
657.091	506.8
657.51	491.8
657.908	511
658.327	510.6
658.746	490.2
659.144	495.8
659.563	504
659.982	502
660.38	492.8
660.8	499.8
661.219	513.2
661.617	500.8
662.037	499.6
662.457	512.2
662.855	489.8
663.275	524.8
663.695	500.8
664.094	490.2
664.514	499.6
664.934	491
665.333	499.4
665.753	498
666.152	492
666.572	490.2
666.993	503.2
667.392	483.2
667.812	499.6
668.212	495.2
668.632	507
669.053	498.2
669.453	489.8
669.874	499.8
670.273	494.2
670.694	495
671.116	508.6
671.515	504
671.937	500.6
672.337	490
672.758	496
673.158	499.8
673.58	493.6
673.98	490.2
674.402	497
674.824	504.2
675.224	494.6
675.646	500.2
676.047	497.2
676.469	492.2
676.869	500.8
677.292	508.6
677.693	494.8
678.115	496
678.516	499.8
678.939	504.8
679.34	490
679.762	505.6
680.164	496.4
680.586	494.2
680.988	502
681.411	510.8
681.812	496.2
682.236	493.8
682.637	485.8
683.061	485
683.462	501.2
683.864	490.2
684.288	497.8
684.69	484.6
685.114	497.8
685.516	509
685.94	487.2
686.342	492.4
686.766	492.6
687.168	490.2
687.571	511.6
687.995	504.4
688.398	487.4
688.822	494.2
689.225	512.2
689.628	504.6
690.052	495.8
690.456	499.4
690.88	496.6
691.284	483
691.687	496.6
692.112	486.6
692.515	496.2
692.919	501.4
693.344	495.8
693.747	486
694.173	493
694.577	510.6
694.98	485.6
695.406	495.6
695.81	493.4
696.214	495.8
696.64	492.4
697.044	498.2
697.448	499.2
697.874	498.6
698.279	497.2
698.684	475.4
699.11	490.2
699.514	498.8
699.919	493.8
700.324	489.4
700.75	496.8
701.156	498.2
701.561	504.8
701.987	496.6
702.393	500.2
702.798	508.4
703.203	496
703.63	497.4
704.036	501.8
704.442	496.8
704.847	495.2
705.274	501.4
705.68	497.8
706.086	501.8
706.492	493.2
706.92	500.8
707.326	506.4
707.732	487.6
708.139	496.2
708.545	494.6
708.973	496
709.38	498
709.786	492
710.193	508
710.6	492.6
711.028	489.4
711.435	499.2
711.842	505.2
712.249	499.6
712.656	490.4
713.064	495.2
713.492	498.2
713.9	492
714.307	489.8
714.715	496.2
715.123	497.8
715.53	502.8
715.938	509.4
716.367	497.8
716.775	492.4
717.184	495
717.592	494.2
718	499.8
718.408	510
718.816	531.8
719.225	501
719.633	501.6
720.042	496
720.472	495.6
720.881	518
721.29	498.4
721.699	491.8
722.108	500.2
722.517	502.2
722.926	489.8
723.335	498.4
723.744	494.6
724.154	499.2
724.563	493.4
724.973	498
725.382	497.2
725.792	497.4
726.202	492.6
726.612	498.4
727.022	499.4
727.432	488.6
779.813	493.8
780.223	531.4
780.634	492.2
781.044	487.6
781.454	493.6
781.865	509.4
782.276	495.8
782.686	502.8
783.097	501.4
783.508	487.6
783.919	500.8
784.33	507
784.741	501.8
785.152	494.4
785.563	477.6
785.974	491.8
786.386	506
786.776	485.4
787.188	497.2
787.599	490.8
788.011	498.8
788.423	504.6
788.835	489
789.247	492.4
789.659	496.4
790.071	485.8
790.483	527.4
790.874	492.8
791.286	496.2
791.699	489.4
792.111	495.2
792.524	491
792.937	495.8
793.349	489.4
793.741	491.4
794.154	491.6
794.567	506.2
794.98	496
795.393	489.8
795.785	504.6
796.198	487.6
796.612	492.8
797.026	487.6
797.439	481.8
797.831	489.2
798.245	484.8
798.659	487.2
799.073	488.2
799.487	488.4
799.88	491.6
800.294	496.8
800.708	496.2
801.123	489.6
801.516	510.6
801.93	479.6
802.345	483
802.76	489.6
803.153	501.6
803.568	507
803.983	503.6
804.377	493
804.792	484.6
805.207	482.6
805.601	494
806.016	521.2
806.432	485.8
806.826	515.2
807.242	496.6
807.658	493.8
808.052	495
808.468	496
808.884	485.4
809.279	493.8
809.695	500.2
810.111	510.4
810.506	492.8
810.922	508.4
811.339	494
811.734	493.4
812.151	493.6
812.546	496.4
812.963	485.6
813.38	497.4
813.776	487
814.193	510
814.589	491.8
815.006	491.4
815.402	485.4
815.82	479.4
816.237	496.6
816.633	487.2
817.051	487.8
817.448	498.6
817.866	488.8
818.262	504
818.68	483
819.077	496
819.495	487.8
819.892	523.6
820.311	484
820.708	488.6
821.127	484
821.524	494.8
821.943	491
822.34	506
822.759	497.4
823.157	498.4
823.576	505.6
823.974	497.8
824.393	543.2
824.791	490
825.189	487.2
825.609	488
826.007	490.2
826.427	484.6
826.826	489.4
827.246	495.8
827.644	480.2
828.043	500.2
828.463	482.8
828.862	496.4
829.261	494.8
829.682	473.2
830.081	492.4
830.502	488.6
830.901	493.2
831.301	479.6
831.722	483.4
832.121	488.8
832.521	485.2
832.943	491.6
833.342	492.2
833.742	489
834.164	491.8
834.564	479
834.965	491.8
835.386	488
835.787	492.2
836.188	486.2
836.588	493.8
837.01	490.4
837.411	486.4
837.812	495
838.213	491.6
838.636	484.4
839.037	536.2
839.438	481.4
839.84	487.2
840.263	499.2
840.664	491.2
841.066	492.8
841.468	494.8
841.891	484.2
842.293	497.4
842.695	493
843.098	502.8
843.5	491.2
843.902	495
844.326	495.6
844.729	497.4
845.131	499
845.534	487
845.937	497
846.34	499.6
846.764	479.6
847.167	493
847.571	483.4
847.974	483.8
848.377	492.8
848.781	528.4
849.184	502.6
849.588	489.2
849.992	488.8
850.396	488.2
850.821	497
851.225	497.4
851.63	490.8
852.034	492.2
852.438	489.6
852.843	558.6
853.247	487.6
853.652	492.6
854.057	501.6
854.462	497.8
854.867	493.8
855.272	514.2
855.677	489.2
856.082	480.8
856.487	483
856.893	487.6
857.298	486.8
