#lambda/nm	C1
208.295	461.4
208.67	431.2
209.045	391.2
209.419	396.8
209.794	535.2
210.169	517.6
210.544	620.4
210.919	532.8
211.295	524
211.67	526.2
212.045	521
212.421	526
212.796	554.6
213.172	527.6
213.547	528.8
213.923	529
214.299	531.4
214.675	538.4
215.051	528.8
215.427	537.2
215.803	542
216.179	536.4
216.555	520.8
216.932	536.6
217.308	530.6
217.684	535
218.061	533.4
218.438	532.4
218.814	525.6
219.191	538.4
219.568	514
219.945	524
220.322	536.2
220.699	528.6
221.076	538.4
221.453	526.4
221.83	515
222.208	526.6
222.585	520
222.962	524.2
223.34	530.8
223.717	531
224.095	531.4
224.473	529.8
224.851	522.6
225.229	522
225.607	534.6
225.985	517.8
226.363	520.2
226.741	531.8
227.119	530.8
227.497	532.8
227.876	524.6
228.254	532.6
228.633	535
229.011	527.2
229.39	532.2
229.769	526.4
230.148	535.4
230.527	543
230.905	528.4
231.284	534
231.664	523.8
232.043	536.6
232.422	535.6
232.801	526.8
233.181	531.8
233.56	526.4
233.94	527.4
234.319	515.6
234.699	518
235.079	565.2
235.458	556.2
235.838	539
236.218	526
236.598	521.4
236.978	515
237.358	514.8
237.738	526.6
238.119	530.8
238.499	523.6
238.88	530.4
239.26	537.8
239.641	522.2
240.021	527.4
240.402	532
240.783	516.2
241.163	533
241.544	530
241.925	527.4
242.306	539.8
242.687	526.2
243.069	536.4
243.45	529.8
243.831	523
244.212	528.4
244.594	558.6
244.975	537.8
245.357	525
245.739	524.2
246.12	535.6
246.502	544.6
246.884	528.6
247.266	526.6
247.648	527.2
248.03	536
248.412	531.6
248.794	530.8
249.176	523
249.559	534.4
249.941	531.6
250.323	519.4
250.706	523.2
251.089	530.2
251.471	523.6
251.854	528.8
252.237	517.8
252.62	537.2
253.002	528.2
253.385	525.8
253.769	538.2
254.152	534
254.535	526.4
254.918	520.4
255.301	529.6
255.685	527.6
256.068	520
256.452	544.6
256.835	534.6
257.219	533.4
257.603	547
257.986	519
258.37	536
258.754	516.4
259.138	525.4
259.522	531
259.906	528.2
260.29	527.6
260.675	533.2
261.059	532.4
261.443	515.8
261.828	528.8
262.212	525.8
262.597	519
262.981	519.2
263.366	524.6
263.751	521.6
264.136	521
264.521	532.8
264.906	517.6
265.291	532.4
265.676	520.6
266.061	532.6
266.446	539.2
266.831	527.8
267.217	539.2
267.602	528.8
267.987	530
268.373	532.8
268.759	539.4
269.144	526.2
269.53	528
269.916	520.6
270.302	522.6
270.688	533
271.074	523
271.46	539.6
271.846	547.2
272.232	522.2
272.618	516.4
273.004	522.2
273.391	535.8
273.777	531.2
274.164	534.8
274.55	538.6
274.937	527
275.324	527.8
275.71	530.2
276.097	530.8
276.484	523.4
276.871	523.6
277.258	532.8
277.645	515.2
278.032	524
278.419	524.4
278.807	528.8
279.194	515.2
279.581	519.4
279.969	531.6
280.356	528.4
280.744	531.2
281.131	550.8
281.519	532
281.907	524
282.295	517.8
282.682	543.6
283.07	527.2
283.458	528.8
283.846	540.2
284.235	531.4
284.623	530.4
285.011	519.8
285.399	537.4
285.788	528.8
286.176	521.4
286.565	532.8
286.953	520.2
287.342	522.6
287.731	521.2
288.119	517.8
288.508	522.4
288.897	524.4
289.286	514.8
289.675	530.2
290.064	534.8
290.453	525.4
290.821	524
291.21	546.6
291.599	522.2
291.989	530.2
292.378	534.4
292.768	541.8
293.157	530
293.547	534.8
293.936	527.2
294.326	521.4
294.716	538.4
295.106	528.2
295.496	529
295.886	532.8
296.276	523.2
296.666	523.4
297.056	523.4
297.446	522.2
297.836	543
298.227	518.6
298.617	531
299.008	535.4
299.398	530.8
299.789	528.4
300.179	533.2
300.57	535
300.961	528.6
301.352	528.2
301.742	532.8
302.133	534.6
302.524	530.8
302.915	523.2
303.307	516.6
303.698	536.6
304.089	543.6
304.48	526
304.872	530.4
305.263	528.4
305.655	523.6
306.046	536.8
306.438	539.2
306.829	520.4
307.221	537.4
307.613	539.4
308.005	538.6
308.397	536.6
308.789	543
309.181	547.2
309.573	545.8
309.965	535.8
310.357	527
310.749	539.4
311.142	521.6
311.534	523.8
311.926	534.2
312.319	531.4
312.711	521.2
313.104	540.8
313.497	528
313.889	560.6
314.282	539
314.675	544.6
315.068	530.6
315.461	536.6
315.854	552.6
316.247	540.4
316.64	532.2
317.033	533.8
317.405	527.4
317.798	518.4
318.192	524.6
318.585	521.6
318.979	531
319.372	525
319.766	520.4
320.16	534.8
320.553	542.4
320.947	550.4
321.341	525.2
321.735	532.4
322.129	518.2
322.523	549.8
322.917	517.6
323.311	533.6
323.705	529.8
324.099	529.8
324.494	541.4
324.888	531.8
325.282	526.2
325.677	540.2
326.071	540.8
326.466	542.2
326.861	526.4
327.255	540.8
327.65	543.8
328.045	543.4
328.44	537.2
328.835	531.6
329.23	524
329.625	548
330.02	521.4
330.415	548.2
330.81	530.8
331.206	535.4
331.601	524.2
331.996	530.8
332.37	539.4
332.766	517.6
333.161	545.8
333.557	520.4
333.953	528.6
334.348	766.6
334.744	524.2
335.14	526.2
335.536	516.2
335.932	539.6
336.328	526.4
336.724	536
337.12	527.6
337.516	525
337.913	520.8
338.309	539.8
338.705	526.8
339.102	537.2
339.498	523.4
339.895	537.6
340.291	527.2
340.688	526.2
341.085	525.2
341.481	523.2
341.878	526.6
342.275	544.6
342.672	522.8
343.069	522.4
343.466	516.4
343.842	534
344.239	523.4
344.636	532
345.033	516.2
345.431	515
345.828	529.2
346.225	521.8
346.623	549.2
347.02	531.8
347.418	534.6
347.816	539.4
348.213	516
348.611	524.6
349.009	525.8
349.407	547.6
349.805	524.6
350.203	518.8
350.601	534.6
350.999	528
351.397	576.6
351.795	528.6
352.193	532.8
352.57	528.6
352.969	532.4
353.367	513.4
353.766	515.6
354.164	532.8
354.563	529.2
354.961	530.8
355.36	520.4
355.759	523
356.158	517.2
356.557	519.4
356.956	520.8
357.355	515.6
357.754	523
358.153	529.6
358.552	542
358.951	517.6
359.35	535.6
359.75	516.8
360.149	517.4
360.527	498.2
360.926	517.6
361.326	517
361.726	517.8
362.125	514.2
362.525	521.6
362.925	511.4
363.325	514.4
363.724	520.4
364.124	514
364.524	518.4
364.924	515
365.324	527.8
365.725	512.8
366.125	518.6
366.525	517.2
366.904	506.4
367.304	504.8
367.705	528.2
368.105	530.4
368.506	522
368.906	519.2
369.307	513.2
369.708	523.8
370.108	509.6
370.509	524.6
370.91	517.2
371.311	520.4
371.712	522.4
372.113	518.2
372.514	509
372.894	518
373.295	509.2
373.696	530.4
374.097	523.6
374.499	545.4
374.9	518
375.301	516.6
375.703	519
376.105	505.4
376.506	526.4
376.908	522
377.309	516.8
377.711	520
378.113	513.6
378.493	524.6
378.895	519.8
379.297	525.6
379.699	503.6
380.102	526.2
380.504	521.2
380.906	513.2
381.308	545.2
381.71	511.8
382.113	522.6
382.515	522.2
382.918	516.6
383.299	516.4
383.701	517.8
384.104	514.4
384.507	498.8
384.909	511.8
385.312	506.4
385.715	514.4
386.118	522.8
386.521	511
386.924	532.4
387.327	520.8
387.709	514
388.112	505
388.515	519.8
388.918	512.2
389.322	524
389.725	517.8
390.129	539.8
390.532	524.6
390.936	510.8
391.339	513.4
391.743	520.6
392.125	515.2
392.529	525
392.933	528
393.337	518.6
393.74	515.8
394.144	514.8
394.548	517.8
394.953	515.2
395.357	515.2
395.761	526.2
396.144	515.8
396.548	524.4
396.952	510.4
397.357	516.2
397.761	518.6
398.166	511.2
398.57	515.2
398.975	515.2
399.379	521
399.763	557.8
400.168	522.4
400.572	521.6
400.977	516.6
401.382	527.8
401.787	530.4
402.192	531
402.597	528
403.002	512.6
403.386	530.4
403.791	535
404.197	523.6
404.602	527.6
405.007	518.2
405.413	514.2
405.818	523.8
406.224	515.6
406.608	515
407.014	513.2
407.42	525
407.825	508.6
408.231	519.4
408.637	525.4
409.043	531.2
409.449	517
409.834	512.8
410.24	524.2
410.646	520.4
411.052	526.6
411.458	518.8
411.865	522.4
412.271	525.2
412.677	520
413.062	517.8
413.469	512.8
413.875	540.8
414.282	526.8
414.689	522.4
415.095	522.2
415.502	518.2
415.888	527.4
416.294	504
416.701	547.8
417.108	515.4
417.515	529.2
417.923	511.8
418.33	534.6
418.715	524.8
419.123	523.4
419.53	517
419.937	516
420.345	526.6
420.752	521.6
421.16	528.6
421.546	518.8
421.953	528
422.361	514.4
422.769	519.2
423.177	519.8
423.585	533
423.992	537.2
424.379	523.6
424.787	528.6
425.195	535
425.603	517.6
426.011	523.8
426.419	531.6
426.806	525.2
427.214	523.8
427.623	535.4
428.031	525.4
428.44	526.6
428.848	531.8
429.235	528.4
429.644	521.2
430.053	525
430.461	542.8
430.87	543.6
431.279	517.4
431.666	519.6
432.075	528.2
432.484	528
432.893	526
433.302	531.4
433.711	560.4
434.099	522.6
434.508	518.8
434.918	518
435.327	523.4
435.737	525.6
436.125	529
436.534	520
436.944	527.8
437.353	532.8
437.763	539.8
438.173	518.8
438.561	527.4
438.971	507.4
439.381	518.6
439.791	526.2
440.201	507.8
440.589	522
440.999	526
441.409	520.2
441.819	511.2
442.23	525.6
442.619	529
443.029	513.6
443.439	522.4
443.85	525.8
444.26	531.6
444.649	533.4
445.06	519
445.471	518
445.881	522.4
446.292	536.4
446.682	541.8
447.092	510.2
447.503	565.4
447.914	517.2
448.325	524.4
448.715	528
449.126	520
449.537	515.2
449.948	524.4
450.338	530.2
450.75	522
451.161	525.8
451.572	526.8
451.984	513.8
452.374	511
452.786	520.8
453.197	519.6
453.609	524.8
453.999	513.4
454.411	512.4
454.823	530.4
455.235	522.8
455.647	516.4
456.037	515.6
456.449	500.4
456.862	519.2
457.274	517.6
457.665	502.4
458.077	525.6
458.489	536.6
458.902	517
459.293	514.6
459.705	512.8
460.118	508.8
460.53	516.4
460.921	513.2
461.334	514.2
461.747	516.2
462.16	523
462.551	524.6
462.964	516.6
463.377	503
463.79	512.4
464.182	522
464.595	507.4
465.008	519
465.421	525.8
465.813	512
466.226	518.8
466.64	507.8
467.053	545.4
467.445	527.8
467.859	530.6
468.272	517.8
468.686	526.8
469.078	507.4
469.492	496.2
469.906	511.8
470.298	516.4
470.712	513.6
471.126	538.2
471.54	504.2
471.933	503.4
472.347	517.2
472.761	522.2
473.175	505.6
473.568	509.4
473.982	504.2
474.397	514.4
474.79	518.8
475.204	516.6
475.619	510.2
476.033	523.8
476.426	518.4
476.841	512.4
477.256	530.8
477.649	505.8
478.064	513.8
478.479	507.2
478.872	507.2
479.287	500.2
479.702	507.2
480.118	512
480.511	505.8
480.927	513.6
481.342	502.8
481.736	507.4
482.151	507.4
482.566	518.2
482.96	511.2
483.376	522
483.792	515.2
484.186	510.6
484.602	505.4
485.017	508.4
485.412	514.8
485.827	521.2
486.243	505.6
486.638	535.4
487.054	518
487.47	528.6
487.865	504.6
488.281	512.6
488.697	510
489.092	508
489.508	504.6
489.925	513.2
490.32	506
490.736	517.2
491.153	517.4
491.548	517.4
491.964	515
492.381	500.6
492.776	517.6
493.193	512.2
493.61	519.4
494.006	510
494.422	513.8
494.84	506.8
495.235	512
495.652	508.4
496.069	509.8
496.465	509.4
496.883	507.2
497.3	530.8
497.696	509
498.113	518.2
498.509	510.2
498.927	502.6
499.344	509.6
499.741	504.8
500.158	515
500.576	521.4
500.973	516
501.39	508.6
501.787	502.4
502.205	504.4
502.623	508.2
503.02	504.6
503.438	515.2
503.856	504.4
504.253	515
504.671	516.4
505.068	508.2
505.486	510.8
505.905	523.6
506.302	518
506.72	518.4
507.118	502.2
507.536	516.6
507.955	514.6
508.352	511.2
508.771	521
509.169	519.2
509.587	510.6
510.006	506.2
510.404	500
510.823	510
511.221	501
511.64	507.6
512.038	514.2
512.457	509.8
512.877	508.4
513.275	503.8
513.694	507
514.092	505.4
514.512	513.6
514.91	514.8
515.33	503.6
515.749	513
516.148	508.8
516.568	509.8
516.966	498.6
517.386	505
517.785	518
518.205	504.2
518.603	506.6
519.024	502.8
519.444	509.8
519.843	523.4
520.263	517.4
520.662	516.6
521.082	506.2
521.481	507.4
521.902	512.8
522.301	505.4
522.722	514.2
523.121	505.4
523.542	512
523.963	517.8
524.362	511.4
524.783	513.2
525.183	508.6
525.604	520
526.003	503
526.425	501.6
526.824	514
527.246	518.8
527.646	513.2
528.067	509.2
528.467	510.4
528.888	503
529.289	503.6
529.71	511.2
530.11	503.2
530.532	510.4
530.932	500.6
531.354	501.4
531.755	532
532.176	522.2
532.577	509.6
532.999	501
533.4	508.2
533.822	518.2
534.223	508.6
534.645	510.4
535.046	510.2
535.468	512.6
535.869	523
536.292	504.8
536.693	538.4
537.115	514.8
537.516	506.2
537.939	510.2
538.34	521
538.742	520.4
539.165	514.6
539.566	513
539.989	505.4
540.391	504.6
540.814	510.8
541.216	507.4
541.639	512.4
542.041	514.2
542.464	513.4
542.866	507.6
543.268	498.6
543.691	514.8
544.093	511
544.517	522.6
544.919	506.4
545.343	526.4
545.745	503.8
546.147	514.8
546.571	506.8
546.974	506.6
547.398	511.8
547.8	521
548.224	502.6
548.627	505.8
549.03	513.8
549.454	505.2
549.857	493.2
550.281	506
550.684	502.6
551.087	517.4
551.512	504.8
551.915	511.2
552.34	511
552.743	501.2
553.146	504.6
553.571	511.2
553.975	513.4
554.399	504.2
554.803	548.8
555.207	504.2
555.632	504.2
556.036	505.6
556.461	503.2
556.865	504
557.268	495.4
557.694	499.8
558.098	512.2
558.502	508
558.927	501.2
559.332	504.6
559.736	511.4
560.162	507.2
560.566	500.8
560.992	514.8
561.396	507.4
561.801	503.8
562.227	508.4
562.631	504.4
563.036	506.2
563.462	512.2
563.867	502.2
564.272	494.8
564.698	508.6
565.103	497.4
565.508	515.2
565.935	506.2
566.34	506.2
566.745	510.2
567.172	517
567.577	530
567.982	524.8
568.409	516.4
568.815	496.6
569.22	509.8
569.626	510.2
570.053	498.4
570.459	513.2
570.865	515.4
571.292	512.2
571.698	511.4
572.104	498.8
572.531	507.8
572.937	512.6
573.343	511.2
573.75	507.8
574.177	503.4
574.583	510.2
574.99	504.4
575.396	505.4
575.824	503.2
576.231	504.4
576.637	501
577.065	530.6
577.472	497.4
577.879	507
578.286	522.6
578.714	505.4
579.121	505.4
579.528	504
579.935	512
580.364	503
580.771	493
581.178	497.8
581.585	514
582.014	509.4
582.421	503.6
582.829	500.2
583.236	510.8
583.644	499.4
584.073	505
584.481	505.2
584.889	504.2
585.296	511
585.726	514
586.134	499.4
586.542	500.8
586.95	517.2
587.358	500.6
587.787	509.2
588.196	499.8
588.604	504
589.012	508
589.421	500.6
589.851	503.6
590.259	506.2
590.668	503.8
591.076	533.6
591.485	497.8
591.894	503.6
592.324	512.6
592.733	516
593.142	498
593.551	503.8
593.96	506.4
594.369	500
594.8	495
595.209	508.6
595.618	496.2
596.028	495.2
596.437	501.2
596.847	495.4
597.256	503
597.687	513.8
598.097	509
598.507	497.2
598.917	503.8
599.327	513
599.736	506.6
600.146	508.2
600.556	503.2
600.988	523.8
601.398	502.8
601.808	511
602.219	494.2
602.629	512
603.039	509.6
603.45	527.6
603.86	502.2
604.271	517.2
604.703	513.4
605.114	503.2
605.525	502.8
605.935	509.8
606.346	526.2
606.757	512.2
607.168	503.8
607.579	499.8
607.99	517
608.402	509.2
608.813	507.8
609.224	501.4
609.636	500.4
610.047	499.4
610.48	506.6
610.892	512.4
611.303	517.8
611.715	505.4
612.127	502.6
612.539	504.6
612.95	507.2
613.362	499.6
613.774	495.2
614.186	498.6
614.599	503.4
615.011	507.2
615.423	506.4
615.835	501.4
616.248	493.6
616.66	505.4
617.073	496.2
617.485	503.4
617.898	513.6
618.311	503.2
618.723	504.6
619.136	526.6
619.549	517.2
619.962	524.8
620.375	505.8
620.788	517
621.201	506.4
621.614	508.2
622.028	504.2
622.441	508.6
622.854	518.2
623.268	496.4
623.681	510.2
624.095	508.2
624.509	517.4
624.922	505.4
625.336	494.2
625.728	504.2
626.142	510.4
626.556	514.6
626.97	505.2
627.384	504.2
627.799	515.6
628.213	517.2
628.627	506.6
629.041	501.8
629.456	497
629.87	503.2
630.285	513
630.699	507.8
631.093	507.6
631.507	510.6
631.922	510.4
632.337	519
632.752	505
633.167	506.2
633.582	514.6
633.997	514.6
634.412	499.2
634.806	505.6
635.221	499.2
635.637	512.4
636.052	496.6
636.468	509.2
636.883	516.8
637.299	504.4
637.715	500
638.109	503.8
638.525	495.2
638.941	509.2
639.357	505.8
639.773	512.4
640.189	497.4
640.584	508.6
641	511.8
641.416	493
641.832	507.4
642.249	506.4
642.665	502.6
643.06	514.8
643.477	509.8
643.894	498.2
644.31	505
644.727	503.6
645.123	505.2
645.54	499.6
645.957	505.8
646.374	515.6
646.77	502.6
647.187	523.8
647.604	501.6
648.021	491.8
648.439	500.6
648.835	500.4
649.252	498
649.67	498.4
650.088	507
650.484	504.2
650.902	504.8
651.32	508.6
651.738	492.4
652.134	497
652.552	513.4
652.971	502.8
653.389	503.4
653.786	509.6
654.204	502.4
654.622	497.4
655.019	500.2
655.438	505.2
655.857	493.6
656.275	503.6
656.673	503.2
657.091	501.8
657.51	493.6
657.908	502.4
658.327	509.8
658.746	489.2
659.144	493.8
659.563	501.8
659.982	502.8
660.38	494
660.8	501.6
661.219	505.6
661.617	508.8
662.037	502
662.457	507.8
662.855	487
663.275	525
663.695	506.2
664.094	500.8
664.514	501
664.934	494
665.333	502.6
665.753	503.6
666.152	497.8
666.572	492.4
666.993	510.8
667.392	498.2
667.812	494.2
668.212	506.8
668.632	505.8
669.053	502.8
669.453	504.2
669.874	501.6
670.273	497.6
670.694	493
671.116	509.8
671.515	507.2
671.937	496
672.337	497.6
672.758	503.4
673.158	504.4
673.58	490.2
673.98	502.2
674.402	502.6
674.824	502.6
675.224	499.2
675.646	488.6
676.047	500.6
676.469	494
676.869	505.8
677.292	501.4
677.693	492.8
678.115	493.4
678.516	500.2
678.939	502.2
679.34	497.4
679.762	507.4
680.164	500.4
680.586	500
680.988	504.6
681.411	514.6
681.812	495.8
682.236	494.6
682.637	497
683.061	490.4
683.462	505.6
683.864	495.2
684.288	511.6
684.69	496.8
685.114	503.4
685.516	508.6
685.94	491.2
686.342	506.2
686.766	491.6
687.168	497.8
687.571	516.6
687.995	494.2
688.398	485.2
688.822	498
689.225	515.4
689.628	512.6
690.052	505.8
690.456	505
690.88	500.2
691.284	504.2
691.687	504.6
692.112	492.2
692.515	493.8
692.919	495
693.344	506.2
693.747	488
694.173	497.2
694.577	508.2
694.98	491.2
695.406	503.4
695.81	494.2
696.214	502.6
696.64	506.4
697.044	500.2
697.448	504.2
697.874	496.2
698.279	493
698.684	491.6
699.11	497.8
699.514	500.2
699.919	496.8
700.324	492.8
700.75	500.4
701.156	502.4
701.561	506.6
701.987	499.4
702.393	508
702.798	503.8
703.203	498.8
703.63	493.4
704.036	497.6
704.442	501.2
704.847	490.6
705.274	501.4
705.68	500.6
706.086	501.2
706.492	492
706.92	494.2
707.326	501.8
707.732	495.8
708.139	490
708.545	487
708.973	489
709.38	499.4
709.786	480
710.193	513.6
710.6	499.2
711.028	493
711.435	494.6
711.842	500
712.249	490.6
712.656	500
713.064	504.2
713.492	490.4
713.9	493.4
714.307	499.2
714.715	494.6
715.123	500
715.53	499
715.938	511.6
716.367	495.2
716.775	495.2
717.184	497.6
717.592	494.8
718	502.6
718.408	528.8
718.816	526.6
719.225	502.2
719.633	493.8
720.042	488
720.472	494.2
720.881	510.2
721.29	494.8
721.699	487.2
722.108	491
722.517	498
722.926	479.8
723.335	503.6
723.744	494.6
724.154	489.4
724.563	490.4
724.973	496.6
725.382	493.6
725.792	490.4
726.202	485.6
726.612	506.6
727.022	496
727.432	494.4
779.813	487.2
780.223	534.8
780.634	496
781.044	488
781.454	494.2
781.865	513.4
782.276	481.4
782.686	509.2
783.097	496.8
783.508	491.8
783.919	500.8
784.33	500.4
784.741	498.4
785.152	495.8
785.563	476.8
785.974	490
786.386	500
786.776	493.4
787.188	492.4
787.599	486.6
788.011	502
788.423	495.4
788.835	487.6
789.247	491.4
789.659	487.2
790.071	494
790.483	532
790.874	492
791.286	504.6
791.699	487.8
792.111	491.6
792.524	496.2
792.937	495.6
793.349	482.6
793.741	496.2
794.154	487.2
794.567	502.8
794.98	502.6
795.393	484.4
795.785	507.2
796.198	489
796.612	499
797.026	496
797.439	474.2
797.831	489.8
798.245	486.6
798.659	489.2
799.073	494
799.487	484.4
799.88	494
800.294	491.2
800.708	495.8
801.123	492.4
801.516	505.6
801.93	482.2
802.345	489.6
802.76	487.6
803.153	505
803.568	498
803.983	490.2
804.377	495.2
804.792	486
805.207	486.2
805.601	490.6
806.016	512
806.432	483.2
806.826	516.6
807.242	504.8
807.658	496
808.052	488.2
808.468	484.4
808.884	487
809.279	488.4
809.695	497.4
810.111	504.8
810.506	494.6
810.922	513.6
811.339	493.4
811.734	495.6
812.151	486.4
812.546	485.6
812.963	488.8
813.38	490.6
813.776	486.2
814.193	507.2
814.589	496.4
815.006	490.8
815.402	488
815.82	479.2
816.237	493.4
816.633	498.4
817.051	486.2
817.448	494.2
817.866	486.8
818.262	503.6
818.68	480.6
819.077	491.2
819.495	490.2
819.892	520.6
820.311	482
820.708	489.8
821.127	494
821.524	493.8
821.943	493.2
822.34	505
822.759	494.6
823.157	491.6
823.576	496.2
823.974	488.6
824.393	574.4
824.791	483.8
825.189	489.6
825.609	495.2
826.007	488.6
826.427	483.4
826.826	490
827.246	495.8
827.644	475
828.043	504
828.463	486.8
828.862	495.2
829.261	494
829.682	492.6
830.081	508.8
830.502	482.8
830.901	498
831.301	486
831.722	492.6
832.121	490.6
832.521	487
832.943	487.6
833.342	494.2
833.742	482.2
834.164	487.6
834.564	482.6
834.965	492.2
835.386	489.6
835.787	494.6
836.188	490.2
836.588	489.6
837.01	493.2
837.411	483.2
837.812	501.6
838.213	495.2
838.636	500.2
839.037	553.4
839.438	490.6
839.84	495.2
840.263	488.6
840.664	488.8
841.066	490.8
841.468	498.4
841.891	480.4
842.293	504
842.695	495
843.098	502.8
843.5	494.2
843.902	493.6
844.326	495
844.729	492.6
845.131	506.4
845.534	492.4
845.937	505.6
846.34	507.2
846.764	493.4
847.167	494.4
847.571	483
847.974	486
848.377	486
848.781	528.6
849.184	504.8
849.588	490.6
849.992	487.4
850.396	484.6
850.821	507.6
851.225	494.8
851.63	489.6
852.034	503.2
852.438	492.2
852.843	557.6
853.247	478.6
853.652	484.2
854.057	501.2
854.462	489.8
