#lambda/nm	C1
208.295	461
208.67	434
209.045	395.4
209.419	397
209.794	528.2
210.169	520.4
210.544	620.2
210.919	534.6
211.295	521.6
211.67	529.8
212.045	520.8
212.421	529.6
212.796	556.4
213.172	514.8
213.547	523.6
213.923	520.8
214.299	528.6
214.675	534.6
215.051	532.8
215.427	535.8
215.803	545
216.179	535.6
216.555	524.8
216.932	536
217.308	529.8
217.684	525.2
218.061	538.2
218.438	528.2
218.814	526.2
219.191	537.6
219.568	519.6
219.945	527.6
220.322	528.4
220.699	534
221.076	537
221.453	530.8
221.83	517
222.208	525.2
222.585	525.6
222.962	528
223.34	542.8
223.717	524
224.095	520.6
224.473	524
224.851	527.4
225.229	527.4
225.607	540.4
225.985	523.8
226.363	527
226.741	530.4
227.119	528.6
227.497	538.6
227.876	515.6
228.254	529.4
228.633	529.2
229.011	528.4
229.39	535.6
229.769	529.2
230.148	533
230.527	548.4
230.905	523.4
231.284	525.4
231.664	523.6
232.043	539.8
232.422	534
232.801	520
233.181	525.4
233.56	525
233.94	522.2
234.319	512.2
234.699	527.6
235.079	563.6
235.458	562.4
235.838	541.6
236.218	520.2
236.598	518.6
236.978	518.6
237.358	519
237.738	519
238.119	529
238.499	523
238.88	528
239.26	549.2
239.641	525.4
240.021	529.2
240.402	534.6
240.783	524.4
241.163	528.6
241.544	535.6
241.925	533
242.306	540.2
242.687	522.4
243.069	537.2
243.45	534.6
243.831	530.2
244.212	530.2
244.594	555.4
244.975	541.2
245.357	537.6
245.739	524.6
246.12	531.8
246.502	540.2
246.884	532.2
247.266	528
247.648	534.8
248.03	545.8
248.412	530
248.794	535.2
249.176	520
249.559	535.4
249.941	524.8
250.323	523.4
250.706	530.2
251.089	526.2
251.471	536.8
251.854	524.8
252.237	526.4
252.62	534
253.002	527.2
253.385	531.4
253.769	539.4
254.152	525.2
254.535	538.8
254.918	527.4
255.301	523.6
255.685	524.2
256.068	517.8
256.452	545.8
256.835	538.2
257.219	534.8
257.603	533.6
257.986	520.6
258.37	531.8
258.754	513.8
259.138	524.4
259.522	546.8
259.906	526.8
260.29	533.4
260.675	528.8
261.059	528.4
261.443	520.8
261.828	527.4
262.212	531.2
262.597	514.4
262.981	522
263.366	529.2
263.751	530.6
264.136	521.2
264.521	531.4
264.906	517.8
265.291	529.4
265.676	524.8
266.061	537.8
266.446	544.2
266.831	536.6
267.217	539.4
267.602	536.6
267.987	529.4
268.373	527.6
268.759	536
269.144	536.4
269.53	527.6
269.916	524.4
270.302	529.2
270.688	537.4
271.074	537
271.46	529.6
271.846	561.2
272.232	526.2
272.618	516.8
273.004	530
273.391	543.4
273.777	536.6
274.164	530.8
274.55	534.4
274.937	525.2
275.324	529.4
275.71	532
276.097	527.8
276.484	522.8
276.871	533.2
277.258	524.6
277.645	518.8
278.032	523.8
278.419	530.2
278.807	533
279.194	521.6
279.581	522.6
279.969	530
280.356	538.6
280.744	531.8
281.131	543
281.519	527.2
281.907	529.6
282.295	529.4
282.682	544.2
283.07	531.2
283.458	536.6
283.846	540.8
284.235	535
284.623	538.6
285.011	516.2
285.399	527
285.788	527.8
286.176	517.8
286.565	533.8
286.953	532.2
287.342	531.4
287.731	522
288.119	518.4
288.508	526.2
288.897	528
289.286	517.6
289.675	535
290.064	541.2
290.453	527.2
290.821	526
291.21	540.2
291.599	526.4
291.989	526.8
292.378	529.2
292.768	540.4
293.157	533
293.547	536.6
293.936	524.8
294.326	531.6
294.716	526.4
295.106	521.4
295.496	536.8
295.886	534
296.276	527.4
296.666	528.4
297.056	523.8
297.446	519.4
297.836	543.2
298.227	527.2
298.617	526.8
299.008	533.6
299.398	522
299.789	524.8
300.179	531
300.57	537
300.961	523.2
301.352	522.6
301.742	529.6
302.133	521.2
302.524	529.6
302.915	528.2
303.307	523
303.698	534.6
304.089	529.6
304.48	529.4
304.872	534.8
305.263	523.4
305.655	519.6
306.046	530.2
306.438	529.2
306.829	519.4
307.221	536.6
307.613	531.4
308.005	537.6
308.397	535.4
308.789	538.8
309.181	547.4
309.573	541.2
309.965	548.6
310.357	524.6
310.749	534.8
311.142	527.6
311.534	529.2
311.926	533
312.319	536.8
312.711	515.4
313.104	532.6
313.497	525.8
313.889	557.2
314.282	542.2
314.675	551.8
315.068	529.2
315.461	532.6
315.854	559.4
316.247	539.4
316.64	528.6
317.033	531
317.405	531.4
317.798	524.8
318.192	539.6
318.585	522.6
318.979	538.4
319.372	530.4
319.766	525.4
320.16	535.6
320.553	535.8
320.947	542
321.341	523.8
321.735	521.8
322.129	515.4
322.523	549.4
322.917	525.8
323.311	535.4
323.705	526.2
324.099	534.4
324.494	546
324.888	533.2
325.282	525
325.677	542
326.071	538.2
326.466	535.2
326.861	537
327.255	542.4
327.65	537.6
328.045	540.6
328.44	532.6
328.835	528.2
329.23	523
329.625	538.2
330.02	520.2
330.415	544.6
330.81	527.4
331.206	533.2
331.601	525.8
331.996	538.8
332.37	545.8
332.766	521.6
333.161	553.8
333.557	529.6
333.953	530.4
334.348	781.2
334.744	520
335.14	523.4
335.536	522.6
335.932	540.4
336.328	527.4
336.724	541.8
337.12	530.4
337.516	531.8
337.913	530.6
338.309	540.4
338.705	530.2
339.102	530.4
339.498	520.4
339.895	535.2
340.291	530.4
340.688	537.6
341.085	524
341.481	532
341.878	529.2
342.275	544
342.672	517.8
343.069	532.2
343.466	522.2
343.842	542.6
344.239	525.8
344.636	526.6
345.033	524.2
345.431	515.6
345.828	522.8
346.225	519.4
346.623	544.8
347.02	530
347.418	534.6
347.816	534
348.213	519.4
348.611	530.4
349.009	519.2
349.407	531.6
349.805	517.4
350.203	514.6
350.601	538
350.999	522
351.397	567.8
351.795	521.2
352.193	535.2
352.57	529.6
352.969	532.6
353.367	523.6
353.766	519.4
354.164	525.2
354.563	534
354.961	525.4
355.36	516.2
355.759	520.2
356.158	517.8
356.557	520
356.956	521.8
357.355	511.2
357.754	517
358.153	521.6
358.552	542.4
358.951	517.8
359.35	534.8
359.75	520.8
360.149	511.2
360.527	512.4
360.926	521
361.326	526
361.726	516.2
362.125	516.4
362.525	526.4
362.925	530.8
363.325	526.4
363.724	522.8
364.124	514.2
364.524	521.2
364.924	524.8
365.324	530.6
365.725	517.8
366.125	530.6
366.525	525
366.904	514
367.304	507.2
367.705	534
368.105	524
368.506	519.6
368.906	524.2
369.307	522.2
369.708	523
370.108	514.6
370.509	529.8
370.91	513.8
371.311	533.2
371.712	525.2
372.113	519.8
372.514	511.6
372.894	519.2
373.295	518.6
373.696	531.2
374.097	524.4
374.499	541.2
374.9	526
375.301	516.8
375.703	524
376.105	516.6
376.506	533.8
376.908	523.2
377.309	520
377.711	514.6
378.113	517.8
378.493	524.2
378.895	517.8
379.297	523
379.699	509.2
380.102	521.8
380.504	527.2
380.906	513.8
381.308	540.4
381.71	517.8
382.113	529.4
382.515	514.2
382.918	525.6
383.299	521.6
383.701	524.2
384.104	513.6
384.507	502.4
384.909	513.6
385.312	513.2
385.715	511.8
386.118	521.6
386.521	511
386.924	532.4
387.327	512.8
387.709	511.8
388.112	502
388.515	517.4
388.918	520.8
389.322	525.2
389.725	520.2
390.129	536.4
390.532	528.6
390.936	514.8
391.339	514.4
391.743	524.4
392.125	513.2
392.529	526
392.933	533.2
393.337	515.6
393.74	516.2
394.144	519.6
394.548	515.8
394.953	511.4
395.357	528
395.761	521.8
396.144	517.2
396.548	518.6
396.952	515.8
397.357	516.4
397.761	517.6
398.166	511.6
398.57	518.2
398.975	504.8
399.379	514.8
399.763	548
400.168	517.2
400.572	516
400.977	514.4
401.382	528.8
401.787	519.2
402.192	536
402.597	532.6
403.002	509
403.386	526.2
403.791	531.4
404.197	515.8
404.602	522
405.007	519.8
405.413	511.6
405.818	517.2
406.224	512.4
406.608	513.8
407.014	516
407.42	530.2
407.825	516.6
408.231	528.6
408.637	529.4
409.043	528
409.449	514
409.834	513.8
410.24	515.8
410.646	529.8
411.052	519.8
411.458	523.2
411.865	520
412.271	530.2
412.677	521.6
413.062	530
413.469	511
413.875	545.4
414.282	525.6
414.689	519.4
415.095	516.6
415.502	513
415.888	528.8
416.294	508.2
416.701	557.8
417.108	515
417.515	524.6
417.923	518
418.33	528.2
418.715	524.4
419.123	516
419.53	516.6
419.937	519.2
420.345	535
420.752	508.2
421.16	531.8
421.546	522.4
421.953	520.2
422.361	508
422.769	530.4
423.177	515.4
423.585	546.8
423.992	538.8
424.379	537.8
424.787	521.6
425.195	537
425.603	519.4
426.011	532.4
426.419	532.8
426.806	521.2
427.214	518.4
427.623	523.6
428.031	535.2
428.44	521.6
428.848	524.2
429.235	533.2
429.644	524.8
430.053	520.4
430.461	535.6
430.87	546.2
431.279	532.2
431.666	520.4
432.075	529.8
432.484	527
432.893	520.2
433.302	534
433.711	553.2
434.099	529.4
434.508	516.2
434.918	516.6
435.327	524
435.737	521.6
436.125	518.2
436.534	523.2
436.944	528.4
437.353	522.4
437.763	532.6
438.173	513.8
438.561	525.4
438.971	509.8
439.381	515.8
439.791	522.8
440.201	506.4
440.589	521
440.999	519.4
441.409	523.6
441.819	502.2
442.23	528.2
442.619	528
443.029	519.4
443.439	522
443.85	541.6
444.26	527.4
444.649	517.2
445.06	517.8
445.471	519.4
445.881	517.2
446.292	532.4
446.682	536.6
447.092	509.8
447.503	555.8
447.914	523
448.325	528.2
448.715	519.2
449.126	509.4
449.537	520.6
449.948	512
450.338	511.4
450.75	520.2
451.161	518.4
451.572	522.2
451.984	516.2
452.374	506.2
452.786	513
453.197	517.4
453.609	522.2
453.999	508
454.411	508.8
454.823	524.8
455.235	517.4
455.647	517.4
456.037	525.2
456.449	511
456.862	519.4
457.274	511.4
457.665	514
458.077	519.6
458.489	538.6
458.902	510.6
459.293	514
459.705	518.4
460.118	508.8
460.53	516
460.921	516.6
461.334	520.2
461.747	518.2
462.16	527.4
462.551	522.2
462.964	518.2
463.377	509.4
463.79	514.4
464.182	527.6
464.595	509.4
465.008	518
465.421	522.2
465.813	511.8
466.226	518
466.64	513.6
467.053	550.8
467.445	527
467.859	528.6
468.272	518.6
468.686	532.6
469.078	517.2
469.492	506.6
469.906	516.4
470.298	521.8
470.712	521
471.126	533.6
471.54	506.2
471.933	506.2
472.347	514.2
472.761	508.6
473.175	506.2
473.568	517.8
473.982	511
474.397	514
474.79	515.2
475.204	517.6
475.619	514
476.033	523.6
476.426	514.2
476.841	509.8
477.256	530.6
477.649	499.6
478.064	505.6
478.479	503.2
478.872	507.2
479.287	497.8
479.702	510.6
480.118	511.2
480.511	510.6
480.927	513.2
481.342	507.8
481.736	505.8
482.151	515.4
482.566	508.4
482.96	516
483.376	520.8
483.792	503.4
484.186	516
484.602	510.4
485.017	513.8
485.412	510
485.827	514.6
486.243	516.6
486.638	528.4
487.054	513.8
487.47	524
487.865	514.8
488.281	507.2
488.697	506.2
489.092	515
489.508	510.6
489.925	510.4
490.32	501.2
490.736	519.2
491.153	512.8
491.548	512.4
491.964	514.8
492.381	498.8
492.776	510.8
493.193	510.6
493.61	509.6
494.006	511
494.422	518.4
494.84	499
495.235	513.4
495.652	501.6
496.069	508.2
496.465	502.4
496.883	503.2
497.3	529.4
497.696	503.8
498.113	519.6
498.509	500.4
498.927	502.6
499.344	506.8
499.741	502
500.158	513.2
500.576	516.6
500.973	512.8
501.39	510.4
501.787	498.4
502.205	513
502.623	507
503.02	497.4
503.438	498.4
503.856	509
504.253	507.4
504.671	512.6
505.068	502.8
505.486	510.2
505.905	530.2
506.302	509.4
506.72	523
507.118	503.4
507.536	513.6
507.955	504.2
508.352	513
508.771	517
509.169	508.6
509.587	504.8
510.006	507.6
510.404	507
510.823	509.6
511.221	505.4
511.64	511.2
512.038	520.2
512.457	510.4
512.877	505.6
513.275	508.4
513.694	505.4
514.092	512.8
514.512	512.8
514.91	507.6
515.33	504.6
515.749	509.2
516.148	509
516.568	506.8
516.966	505.6
517.386	499.4
517.785	507.2
518.205	499.2
518.603	501
519.024	503.2
519.444	508.8
519.843	512
520.263	520.4
520.662	518
521.082	506.2
521.481	508
521.902	509.4
522.301	499.2
522.722	502.8
523.121	508.6
523.542	512.2
523.963	499.6
524.362	510
524.783	501.8
525.183	499.4
525.604	507
526.003	506.4
526.425	508.6
526.824	516.2
527.246	511.6
527.646	513.6
528.067	509.8
528.467	501.4
528.888	509.6
529.289	508
529.71	512.4
530.11	510
530.532	512.2
530.932	504.2
531.354	505
531.755	529
532.176	513
532.577	506.8
532.999	508.4
533.4	503.2
533.822	517.6
534.223	507
534.645	506
535.046	500.4
535.468	506.2
535.869	517
536.292	502.2
536.693	541
537.115	513.4
537.516	502
537.939	506.2
538.34	520.8
538.742	517
539.165	513.8
539.566	504
539.989	496
540.391	509.4
540.814	509
541.216	503.4
541.639	505
542.041	513.4
542.464	507.6
542.866	494.8
543.268	503.6
543.691	519.4
544.093	513.6
544.517	518.8
544.919	506.6
545.343	530.4
545.745	497.2
546.147	514.4
546.571	501
546.974	507.4
547.398	513
547.8	512.4
548.224	506.2
548.627	500.4
549.03	506.8
549.454	505.4
549.857	497.8
550.281	499.8
550.684	502.4
551.087	516.6
551.512	505.4
551.915	504.6
552.34	514
552.743	504.6
553.146	502.6
553.571	504.4
553.975	524.6
554.399	498.8
554.803	544.4
555.207	497.6
555.632	498.8
556.036	510.2
556.461	493.4
556.865	507.6
557.268	501
557.694	509.6
558.098	509.4
558.502	518
558.927	502.8
559.332	508
559.736	509
560.162	510
560.566	504.6
560.992	512
561.396	498
561.801	508.6
562.227	507.2
562.631	514
563.036	504.2
563.462	508.6
563.867	508
564.272	496.8
564.698	501.8
565.103	492.4
565.508	523.2
565.935	508.6
566.34	502.6
566.745	514.6
567.172	501.6
567.577	521.6
567.982	514.8
568.409	511.2
568.815	494.4
569.22	505.4
569.626	508.2
570.053	495.2
570.459	502.4
570.865	511
571.292	511.2
571.698	505.6
572.104	494
572.531	502.4
572.937	517.2
573.343	509.2
573.75	503.6
574.177	505.4
574.583	518.8
574.99	499
575.396	511.8
575.824	504.4
576.231	508.8
576.637	503.8
577.065	523.2
577.472	499.2
577.879	503.6
578.286	508.4
578.714	497
579.121	496.8
579.528	513
579.935	513.8
580.364	506.6
580.771	492.6
581.178	496.2
581.585	512.6
582.014	511.8
582.421	504
582.829	500
583.236	511.2
583.644	491.8
584.073	504.2
584.481	499.4
584.889	499.2
585.296	501.4
585.726	509.2
586.134	498.8
586.542	504.6
586.95	512
587.358	497.2
587.787	498
588.196	495
588.604	508.2
589.012	503
589.421	500.2
589.851	488.8
590.259	503.2
590.668	502.6
591.076	532.2
591.485	497.8
591.894	501.4
592.324	517
592.733	512.6
593.142	492.6
593.551	501
593.96	533
594.369	491.2
594.8	497
595.209	497.4
595.618	492.6
596.028	502.2
596.437	496.6
596.847	500.6
597.256	511.2
597.687	504.2
598.097	504.8
598.507	496
598.917	499
599.327	506.8
599.736	504.4
600.146	511.6
600.556	503.6
600.988	519.2
601.398	501
601.808	510.8
602.219	494.8
602.629	511.8
603.039	503.8
603.45	527.6
603.86	503.6
604.271	514
604.703	511
605.114	510.8
605.525	508.2
605.935	512.4
606.346	529
606.757	505.8
607.168	512.6
607.579	505.2
607.99	517.2
608.402	511.4
608.813	518.2
609.224	509
609.636	501.2
610.047	502.6
610.48	515.2
610.892	509.2
611.303	513.8
611.715	511.2
612.127	503.6
612.539	502.4
612.95	509.2
613.362	503.2
613.774	499.4
614.186	509.6
614.599	508.6
615.011	520
615.423	514.4
615.835	512.8
616.248	504.2
616.66	512.4
617.073	506.2
617.485	508.8
617.898	518.8
618.311	515
618.723	507.4
619.136	533
619.549	522.4
619.962	532.8
620.375	503.8
620.788	517.8
621.201	505.8
621.614	514.8
622.028	517.8
622.441	513.6
622.854	525.4
623.268	508.6
623.681	516.6
624.095	513.2
624.509	523.6
624.922	513.4
625.336	514
625.728	518.4
626.142	518.8
626.556	533.8
626.97	528.6
627.384	520
627.799	518.8
628.213	526.4
628.627	516.4
629.041	511.6
629.456	516
629.87	515
630.285	519
630.699	517.8
631.093	520.8
631.507	515.8
631.922	514
632.337	523.8
632.752	509.4
633.167	523.6
633.582	514.2
633.997	510
634.412	510.8
634.806	514.2
635.221	508.4
635.637	520.8
636.052	514.6
636.468	516.6
636.883	533.4
637.299	513.8
637.715	498.2
638.109	515.2
638.525	500.4
638.941	523.6
639.357	514.8
639.773	514.2
640.189	505.6
640.584	511.8
641	513.2
641.416	503.2
641.832	510.2
642.249	511.4
642.665	509.6
643.06	516.2
643.477	516.2
643.894	503.8
644.31	512.4
644.727	506.6
645.123	508
645.54	500.4
645.957	509.6
646.374	521.4
646.77	507.4
647.187	525
647.604	508.4
648.021	490.6
648.439	495.6
648.835	505.2
649.252	503.2
649.67	501.4
650.088	508.2
650.484	514.2
650.902	509
651.32	505.8
651.738	506.2
652.134	505.2
652.552	523.4
652.971	514.8
653.389	508
653.786	503.8
654.204	513
654.622	502.6
655.019	505
655.438	509.4
655.857	497.8
656.275	503.6
656.673	508.8
657.091	514.2
657.51	494
657.908	511
658.327	512.8
658.746	492.4
659.144	507
659.563	511
659.982	504.4
660.38	494.4
660.8	510
661.219	519.2
661.617	504.4
662.037	504
662.457	515.4
662.855	489.6
663.275	530.2
663.695	502.2
664.094	507.2
664.514	501.2
664.934	492
665.333	498
665.753	494
666.152	494.4
666.572	492.2
666.993	509.6
667.392	500.8
667.812	499.6
668.212	497.8
668.632	506.8
669.053	506.4
669.453	507.8
669.874	504.2
670.273	502.2
670.694	491
671.116	503.8
671.515	507.4
671.937	495.6
672.337	500
672.758	490.4
673.158	508.8
673.58	496
673.98	497.4
674.402	507.2
674.824	494.6
675.224	495
675.646	490.4
676.047	499.2
676.469	504.6
676.869	501
677.292	498.4
677.693	494.4
678.115	500.2
678.516	506.2
678.939	500
679.34	498
679.762	502.4
680.164	500.6
680.586	492.4
680.988	508.4
681.411	518.4
681.812	496.6
682.236	498.2
682.637	495.8
683.061	490
683.462	498
683.864	487.8
684.288	507.4
684.69	494.8
685.114	510.8
685.516	508.4
685.94	494.6
686.342	500.4
686.766	492.6
687.168	493.6
687.571	506.2
687.995	494.6
688.398	481
688.822	486
689.225	517
689.628	509.4
690.052	496.6
690.456	494.2
690.88	496.2
691.284	487.4
691.687	495.4
692.112	491.4
692.515	491.8
692.919	496.6
693.344	491.4
693.747	497.2
694.173	495.6
694.577	510
694.98	506.6
695.406	490.8
695.81	503.8
696.214	504
696.64	504.4
697.044	497
697.448	506
697.874	500.8
698.279	495
698.684	485.2
699.11	492.2
699.514	495.6
699.919	494.2
700.324	486.2
700.75	492.8
701.156	494
701.561	508.6
701.987	499
702.393	496.2
702.798	513.8
703.203	493.4
703.63	499
704.036	496
704.442	496.4
704.847	499.4
705.274	500
705.68	502.8
706.086	506.8
706.492	488.2
706.92	494.6
707.326	503.6
707.732	498.4
708.139	494.2
708.545	489.2
708.973	493.2
709.38	503.6
709.786	490.8
710.193	515.6
710.6	495.8
711.028	490.8
711.435	491.8
711.842	502
712.249	493.2
712.656	496.8
713.064	502
713.492	489.4
713.9	497.2
714.307	500.2
714.715	492.6
715.123	497.4
715.53	489.6
715.938	508.2
716.367	491.2
716.775	487.8
717.184	494
717.592	497.4
718	504.2
718.408	525.4
718.816	525.2
719.225	498.4
719.633	496.2
720.042	486.2
720.472	487
720.881	507.2
721.29	498.4
721.699	483.2
722.108	500.8
722.517	500.6
722.926	496.2
723.335	501.6
723.744	493.6
724.154	499.2
724.563	497
724.973	505.8
725.382	492.4
725.792	494.6
726.202	492.6
726.612	502.4
727.022	497.6
727.432	499.2
779.813	499.6
780.223	532.6
780.634	490.2
781.044	496.2
781.454	486.2
781.865	503
782.276	488.2
782.686	499.4
783.097	498.8
783.508	498.4
783.919	504
784.33	509.8
784.741	513.2
785.152	490.8
785.563	490.6
785.974	489
786.386	498.8
786.776	495.4
787.188	493.4
787.599	490
788.011	501.6
788.423	506.4
788.835	492.2
789.247	489.2
789.659	493.6
790.071	490.2
790.483	537.4
790.874	487.6
791.286	503.6
791.699	487.4
792.111	499
792.524	490.4
792.937	495.8
793.349	484.8
793.741	486
794.154	485.2
794.567	502
794.98	487.8
795.393	482.4
795.785	503.2
796.198	490.4
796.612	498.4
797.026	493.2
797.439	479.6
797.831	483.2
798.245	487.4
798.659	488.8
799.073	486.8
799.487	490.8
799.88	499.4
800.294	491
800.708	502.4
801.123	491.4
801.516	505.8
801.93	478.2
802.345	485.4
802.76	497.2
803.153	510.2
803.568	503.2
803.983	501.8
804.377	499.4
804.792	483.8
805.207	483.6
805.601	491.4
806.016	523.8
806.432	487.6
806.826	522
807.242	508.2
807.658	493.8
808.052	490.6
808.468	494.4
808.884	495
809.279	498.8
809.695	506
810.111	512.6
810.506	499.6
810.922	509.8
811.339	486.8
811.734	501.4
812.151	489
812.546	493.6
812.963	488.8
813.38	490.2
813.776	499.8
814.193	503.8
814.589	489.2
815.006	491.2
815.402	487.4
815.82	491.4
816.237	491.4
816.633	496.4
817.051	490.2
817.448	492.8
817.866	493.8
818.262	506.8
818.68	483.8
819.077	491.8
819.495	493.4
819.892	522.2
820.311	484.6
820.708	489.2
821.127	480.4
821.524	506
821.943	491.8
822.34	500.4
822.759	490.6
823.157	491.8
823.576	497
823.974	494.2
824.393	545.8
824.791	492.8
825.189	485.2
825.609	488.8
826.007	491.6
826.427	484
826.826	492.2
827.246	487.8
827.644	485.6
828.043	505.4
828.463	488.6
828.862	499.8
829.261	497.4
829.682	479.8
830.081	493.6
830.502	489.2
830.901	491.2
831.301	492.2
831.722	482.8
832.121	500.2
832.521	490.4
832.943	485.2
833.342	487.6
833.742	488.8
834.164	487.6
834.564	482.2
834.965	488.4
835.386	491.8
835.787	483.2
836.188	496.6
836.588	490.6
837.01	489.6
837.411	482
837.812	487
838.213	489
838.636	486.8
839.037	545.4
839.438	491.4
839.84	496.8
840.263	493.6
840.664	489.6
841.066	489.6
841.468	493
841.891	489
842.293	495.6
842.695	497.2
843.098	498.8
843.5	488.4
843.902	494.8
844.326	490.8
844.729	493.2
845.131	497.4
845.534	494.4
845.937	499.6
846.34	507.2
846.764	483.2
847.167	499.6
847.571	494.4
847.974	492
848.377	484.8
848.781	534.8
849.184	504.2
849.588	488.6
849.992	492.6
850.396	497.4
850.821	506.8
851.225	497.4
851.63	489.2
852.034	504.6
852.438	492.6
852.843	560
853.247	488
853.652	484
854.057	501.6
854.462	494.8
854.867	486.4
