#lambda/nm	C1
208.295	475.2
208.67	427.4
209.045	393.2
209.419	403
209.794	537.6
210.169	515
210.544	625.8
210.919	535.2
211.295	528.2
211.67	536.8
212.045	526.8
212.421	530.4
212.796	562.4
213.172	532.6
213.547	534.8
213.923	525.4
214.299	530.4
214.675	543.8
215.051	538.2
215.427	545.8
215.803	551
216.179	531.4
216.555	535
216.932	542.8
217.308	539.2
217.684	536.4
218.061	537.8
218.438	540.2
218.814	533
219.191	548.8
219.568	531.2
219.945	535.6
220.322	536.4
220.699	533.8
221.076	542.8
221.453	538.8
221.83	527.2
222.208	529.2
222.585	529.4
222.962	535.4
223.34	541.6
223.717	542.4
224.095	529.8
224.473	544.2
224.851	530.2
225.229	529.8
225.607	545.6
225.985	524.8
226.363	541.4
226.741	536.6
227.119	537.2
227.497	542
227.876	525
228.254	535.8
228.633	542.4
229.011	536.8
229.39	536.4
229.769	536.8
230.148	546.2
230.527	555
230.905	542
231.284	542.2
231.664	535.8
232.043	547.8
232.422	536.4
232.801	531.8
233.181	533.2
233.56	530
233.94	529.8
234.319	526
234.699	536
235.079	569.8
235.458	567
235.838	542.8
236.218	530.4
236.598	526
236.978	526.2
237.358	526
237.738	523.6
238.119	543
238.499	529.8
238.88	534.6
239.26	546.2
239.641	530.4
240.021	530.2
240.402	541.8
240.783	530.8
241.163	539.4
241.544	543
241.925	537.8
242.306	552.8
242.687	528.2
243.069	535.2
243.45	550.8
243.831	531
244.212	541.4
244.594	565.8
244.975	538.8
245.357	539.2
245.739	533.6
246.12	536.6
246.502	543.4
246.884	532.4
247.266	533.4
247.648	538.8
248.03	561
248.412	539.6
248.794	536.4
249.176	542.6
249.559	547
249.941	530.4
250.323	530.8
250.706	528
251.089	529
251.471	538.6
251.854	524.4
252.237	537.2
252.62	540.8
253.002	541.4
253.385	529
253.769	550.8
254.152	535
254.535	542.2
254.918	530
255.301	530.4
255.685	534
256.068	535.2
256.452	553.4
256.835	537.6
257.219	542.8
257.603	545.2
257.986	528.8
258.37	538.8
258.754	522
259.138	538.6
259.522	540.8
259.906	534.2
260.29	532.2
260.675	534.8
261.059	533.4
261.443	526.6
261.828	534.2
262.212	540.4
262.597	522.8
262.981	528
263.366	532.6
263.751	534.6
264.136	536.4
264.521	529.4
264.906	530.2
265.291	537.6
265.676	534.4
266.061	544.8
266.446	544.6
266.831	538.4
267.217	549.4
267.602	536.8
267.987	536.4
268.373	526
268.759	537.8
269.144	541.4
269.53	532.6
269.916	529.8
270.302	536.6
270.688	540.4
271.074	536.4
271.46	547.4
271.846	557.6
272.232	534.8
272.618	532.6
273.004	533.8
273.391	544.4
273.777	546.6
274.164	532.8
274.55	543.4
274.937	541.8
275.324	533.2
275.71	540.2
276.097	537.2
276.484	531
276.871	542.2
277.258	543.4
277.645	526
278.032	532.6
278.419	530.4
278.807	540.6
279.194	521.8
279.581	529.6
279.969	542.4
280.356	535
280.744	540.6
281.131	553
281.519	543
281.907	531.8
282.295	536.4
282.682	549.2
283.07	532.4
283.458	551
283.846	554
284.235	550.6
284.623	544.8
285.011	526.2
285.399	547.2
285.788	540.2
286.176	535.2
286.565	547.6
286.953	532.6
287.342	531.4
287.731	529
288.119	531.2
288.508	534.6
288.897	538.8
289.286	522.6
289.675	537.6
290.064	541.6
290.453	540.6
290.821	531.4
291.21	549.2
291.599	534.6
291.989	538.2
292.378	538.8
292.768	551.8
293.157	547.2
293.547	547
293.936	536.6
294.326	536.6
294.716	533
295.106	532
295.496	541.6
295.886	544.4
296.276	536.8
296.666	534
297.056	530.8
297.446	531
297.836	549
298.227	532.4
298.617	530.4
299.008	551
299.398	536
299.789	526.8
300.179	538.8
300.57	545.4
300.961	529.8
301.352	536.2
301.742	533.2
302.133	539.8
302.524	535.2
302.915	535.2
303.307	518.8
303.698	541.4
304.089	537.2
304.48	533.8
304.872	541.8
305.263	527.4
305.655	528
306.046	538.6
306.438	538
306.829	534
307.221	543.2
307.613	535.2
308.005	534.8
308.397	543.8
308.789	542.4
309.181	550.6
309.573	538.2
309.965	536.4
310.357	528.8
310.749	543
311.142	534.2
311.534	534.6
311.926	535
312.319	545
312.711	531
313.104	544.6
313.497	537.4
313.889	567
314.282	541.6
314.675	544.6
315.068	546.8
315.461	538
315.854	561.8
316.247	538.4
316.64	529.2
317.033	535.8
317.405	535.8
317.798	543.6
318.192	534.8
318.585	529.6
318.979	537.4
319.372	535
319.766	532
320.16	540.6
320.553	543
320.947	556.4
321.341	529.8
321.735	536.6
322.129	525.6
322.523	563.2
322.917	537.2
323.311	546.8
323.705	538.2
324.099	543
324.494	547.2
324.888	546
325.282	534.4
325.677	543.6
326.071	539.4
326.466	548
326.861	541
327.255	548.2
327.65	550.2
328.045	553.6
328.44	536.8
328.835	532.8
329.23	533
329.625	556.6
330.02	522.2
330.415	549.8
330.81	532
331.206	532
331.601	539
331.996	538.2
332.37	542.6
332.766	531.6
333.161	553.2
333.557	539
333.953	527.4
334.348	801.6
334.744	534
335.14	534.4
335.536	531.4
335.932	552.6
336.328	536.4
336.724	547.8
337.12	531.8
337.516	536.4
337.913	539.8
338.309	545.4
338.705	538.6
339.102	545.2
339.498	537.2
339.895	551.8
340.291	526.8
340.688	533.6
341.085	531.4
341.481	532
341.878	531.2
342.275	542.8
342.672	528.6
343.069	528.8
343.466	518
343.842	541.4
344.239	526.4
344.636	535.8
345.033	526.2
345.431	521.4
345.828	538.4
346.225	526.4
346.623	563.6
347.02	532.4
347.418	537
347.816	541
348.213	531
348.611	531.2
349.009	538.4
349.407	540.8
349.805	523.4
350.203	527.2
350.601	543
350.999	534.4
351.397	578.2
351.795	534.4
352.193	543
352.57	536.6
352.969	549.8
353.367	531
353.766	534.6
354.164	527.8
354.563	542
354.961	527
355.36	525.6
355.759	536.8
356.158	524.4
356.557	525
356.956	521.6
357.355	515.4
357.754	530.4
358.153	527.2
358.552	547.6
358.951	519
359.35	538.8
359.75	525.2
360.149	524.2
360.527	518.2
360.926	516
361.326	533.8
361.726	525.4
362.125	525.4
362.525	528.6
362.925	534.8
363.325	528.2
363.724	526.8
364.124	514.4
364.524	526.4
364.924	527.4
365.324	535.4
365.725	513.2
366.125	536.8
366.525	532.6
366.904	529.6
367.304	520.6
367.705	538
368.105	539.6
368.506	533.4
368.906	525
369.307	529.6
369.708	534
370.108	516.8
370.509	540.2
370.91	526.6
371.311	535.2
371.712	529.6
372.113	518.2
372.514	520.8
372.894	525.6
373.295	518.8
373.696	535.4
374.097	535.6
374.499	545.8
374.9	532.4
375.301	522.2
375.703	528.4
376.105	522.8
376.506	535.2
376.908	539.6
377.309	534
377.711	528
378.113	531.4
378.493	535
378.895	523.8
379.297	534.6
379.699	516.4
380.102	537.6
380.504	531.8
380.906	526.4
381.308	543
381.71	531
382.113	536.4
382.515	526.4
382.918	529
383.299	530
383.701	540.8
384.104	527.6
384.507	509.4
384.909	519.6
385.312	526
385.715	517.6
386.118	528.2
386.521	521.6
386.924	538.8
387.327	528.8
387.709	519.4
388.112	518
388.515	520
388.918	525
389.322	529.2
389.725	519.8
390.129	532.8
390.532	533.4
390.936	527.8
391.339	524.2
391.743	533
392.125	524.8
392.529	530
392.933	536.8
393.337	526.4
393.74	529
394.144	525.6
394.548	520
394.953	528.2
395.357	525.4
395.761	531.6
396.144	524.4
396.548	526.4
396.952	521.8
397.357	529.2
397.761	519.4
398.166	525.8
398.57	522.6
398.975	514.4
399.379	523.8
399.763	571.6
400.168	529.4
400.572	525.2
400.977	528.8
401.382	536.8
401.787	533
402.192	536.2
402.597	541.6
403.002	523.8
403.386	533.6
403.791	538.2
404.197	521.4
404.602	526.2
405.007	522.2
405.413	523.2
405.818	531.2
406.224	522
406.608	518
407.014	512.8
407.42	537.6
407.825	516
408.231	530.2
408.637	524.2
409.043	535
409.449	518
409.834	517.2
410.24	528.6
410.646	532.6
411.052	537.6
411.458	525.2
411.865	536.2
412.271	526.4
412.677	529.6
413.062	528.4
413.469	517.2
413.875	544.2
414.282	537
414.689	529.6
415.095	537.4
415.502	523.2
415.888	527.6
416.294	513
416.701	566.4
417.108	521.6
417.515	530.2
417.923	521.2
418.33	546.4
418.715	532.8
419.123	522.6
419.53	522.4
419.937	525.8
420.345	540.2
420.752	527.2
421.16	537.2
421.546	524.6
421.953	530
422.361	516
422.769	529
423.177	516.2
423.585	547
423.992	544.6
424.379	533
424.787	537
425.195	538
425.603	527.2
426.011	536.6
426.419	537
426.806	525
427.214	534
427.623	535.6
428.031	534.2
428.44	531.4
428.848	539.6
429.235	543
429.644	531.2
430.053	534.8
430.461	540.8
430.87	550
431.279	533.2
431.666	528.6
432.075	532.2
432.484	530
432.893	528.8
433.302	537.6
433.711	565.2
434.099	536.4
434.508	529.4
434.918	518
435.327	536.6
435.737	524.8
436.125	531.8
436.534	533.2
436.944	520
437.353	534.4
437.763	550.4
438.173	522.8
438.561	533.8
438.971	506.4
439.381	521.6
439.791	523.2
440.201	506.4
440.589	525.4
440.999	527.4
441.409	524.6
441.819	515.4
442.23	533.2
442.619	534
443.029	527.8
443.439	529.2
443.85	529.8
444.26	536.6
444.649	535.2
445.06	525.4
445.471	526.2
445.881	532
446.292	544.6
446.682	541.4
447.092	519.4
447.503	574.6
447.914	525.2
448.325	530.4
448.715	521.2
449.126	515.6
449.537	518.2
449.948	529.4
450.338	523.8
450.75	530
451.161	530.8
451.572	531.2
451.984	512.2
452.374	514.6
452.786	525.8
453.197	519.6
453.609	522.4
453.999	510.2
454.411	520.8
454.823	520.2
455.235	521.6
455.647	511.6
456.037	526.2
456.449	508.4
456.862	522.2
457.274	524
457.665	509.4
458.077	527.8
458.489	542.6
458.902	525.6
459.293	527.2
459.705	519
460.118	519.6
460.53	525
460.921	521.8
461.334	521.2
461.747	514.8
462.16	536.8
462.551	535
462.964	528.6
463.377	511.6
463.79	521.2
464.182	523.8
464.595	522
465.008	529.8
465.421	523.8
465.813	518
466.226	529.4
466.64	522.8
467.053	566.2
467.445	533.6
467.859	539.6
468.272	525
468.686	538.6
469.078	523.8
469.492	510.2
469.906	525.6
470.298	539.6
470.712	515
471.126	552.2
471.54	508.4
471.933	520.6
472.347	514.8
472.761	519.4
473.175	505.4
473.568	519.4
473.982	516.8
474.397	522.4
474.79	515.4
475.204	521.8
475.619	522.6
476.033	525.4
476.426	517
476.841	518
477.256	534.8
477.649	516.4
478.064	507.2
478.479	519
478.872	520.4
479.287	514.6
479.702	509.6
480.118	517.4
480.511	517
480.927	520.2
481.342	509.2
481.736	515
482.151	509
482.566	535.6
482.96	520.8
483.376	526.4
483.792	512.6
484.186	531.8
484.602	530.4
485.017	520.4
485.412	517.6
485.827	523.4
486.243	519
486.638	533
487.054	533.6
487.47	528.2
487.865	518
488.281	517.6
488.697	521.2
489.092	519.2
489.508	517
489.925	528
490.32	513
490.736	525.2
491.153	523.2
491.548	520.6
491.964	512.8
492.381	515
492.776	521
493.193	525.8
493.61	524.4
494.006	521
494.422	524.4
494.84	519
495.235	532.4
495.652	516.2
496.069	518.2
496.465	514.2
496.883	516.6
497.3	534.4
497.696	519.8
498.113	527
498.509	514
498.927	513.8
499.344	512.6
499.741	515.6
500.158	523.6
500.576	526.4
500.973	519.2
501.39	503
501.787	517.8
502.205	523.8
502.623	508.8
503.02	513
503.438	519.6
503.856	509.8
504.253	512.8
504.671	513.6
505.068	502.2
505.486	509.2
505.905	526.8
506.302	519.8
506.72	518
507.118	513
507.536	511.4
507.955	520.8
508.352	517.6
508.771	513.6
509.169	518.6
509.587	513.2
510.006	516.4
510.404	511.8
510.823	516
511.221	513.8
511.64	518.4
512.038	526.4
512.457	515.8
512.877	517.8
513.275	516.4
513.694	517
514.092	516.2
514.512	523.4
514.91	525.6
515.33	517.6
515.749	510.6
516.148	518.2
516.568	509.4
516.966	514.4
517.386	511.2
517.785	515.6
518.205	516
518.603	508.4
519.024	510.6
519.444	515.2
519.843	529.4
520.263	519
520.662	521.8
521.082	520.4
521.481	511.8
521.902	513.2
522.301	521.8
522.722	518.2
523.121	515.2
523.542	508.8
523.963	511.4
524.362	515
524.783	520.2
525.183	513
525.604	514
526.003	509.8
526.425	515.4
526.824	520.6
527.246	524.6
527.646	517.2
528.067	514.4
528.467	514
528.888	514.8
529.289	512.6
529.71	521.2
530.11	516.8
530.532	519.4
530.932	505.8
531.354	505
531.755	547.8
532.176	516
532.577	518.8
532.999	509.8
533.4	517
533.822	523.2
534.223	508.4
534.645	507.6
535.046	510.6
535.468	513.6
535.869	530.6
536.292	501
536.693	542
537.115	515
537.516	507
537.939	514
538.34	527.8
538.742	531.6
539.165	517
539.566	509.2
539.989	511.4
540.391	509.2
540.814	520.2
541.216	515.2
541.639	516.8
542.041	524.8
542.464	510.6
542.866	508.8
543.268	506.2
543.691	522.8
544.093	519.2
544.517	529.8
544.919	506.2
545.343	533
545.745	512
546.147	522.6
546.571	517.8
546.974	507.6
547.398	518.2
547.8	521.2
548.224	513.2
548.627	506
549.03	512.6
549.454	508.8
549.857	503.8
550.281	504.2
550.684	507.2
551.087	519.6
551.512	520.4
551.915	514.8
552.34	499
552.743	511
553.146	511.8
553.571	509.2
553.975	522
554.399	507.6
554.803	553.2
555.207	503.6
555.632	512.6
556.036	519.8
556.461	509
556.865	519.4
557.268	512.2
557.694	519
558.098	518.2
558.502	514.4
558.927	509.6
559.332	518
559.736	515.4
560.162	517
560.566	513.6
560.992	520.4
561.396	520
561.801	506.2
562.227	520.4
562.631	510.4
563.036	509.8
563.462	518.6
563.867	514
564.272	503.8
564.698	517.4
565.103	501
565.508	534.4
565.935	516.4
566.34	515.8
566.745	526.8
567.172	514.6
567.577	535.2
567.982	528.2
568.409	513
568.815	505.6
569.22	521.4
569.626	515
570.053	504.8
570.459	516.6
570.865	520.4
571.292	513.2
571.698	521.6
572.104	504.2
572.531	506.4
572.937	524.6
573.343	522.4
573.75	509.8
574.177	514.2
574.583	518.4
574.99	507.2
575.396	515
575.824	509.6
576.231	520
576.637	509.6
577.065	540.2
577.472	512.8
577.879	511
578.286	529
578.714	512
579.121	513.8
579.528	512.4
579.935	524
580.364	512.2
580.771	504.8
581.178	508.6
581.585	513.4
582.014	516.2
582.421	509.8
582.829	507.8
583.236	519.4
583.644	506
584.073	519
584.481	513
584.889	509.6
585.296	511.6
585.726	512.8
586.134	506.2
586.542	509.6
586.95	525.4
587.358	497
587.787	520.2
588.196	510.4
588.604	508.4
589.012	514.8
589.421	495.4
589.851	503.2
590.259	513.4
590.668	510.6
591.076	546.6
591.485	500.6
591.894	519.8
592.324	525.4
592.733	515.6
593.142	507
593.551	511
593.96	512.4
594.369	501.4
594.8	504
595.209	505.2
595.618	495.2
596.028	504.6
596.437	509.4
596.847	511
597.256	518
597.687	517.2
598.097	515.8
598.507	497.2
598.917	519.2
599.327	516.8
599.736	513.2
600.146	525.8
600.556	508.6
600.988	518.8
601.398	501.8
601.808	511.8
602.219	495.4
602.629	503.4
603.039	511.8
603.45	529.2
603.86	512.2
604.271	525.4
604.703	514.4
605.114	517.4
605.525	521.8
605.935	505.8
606.346	525.6
606.757	515.6
607.168	510.2
607.579	509
607.99	517.4
608.402	516
608.813	513.8
609.224	513.6
609.636	504.2
610.047	510
610.48	514.4
610.892	521.2
611.303	516.8
611.715	514
612.127	510.6
612.539	506.2
612.95	514.2
613.362	502.4
613.774	506.4
614.186	515
614.599	509.2
615.011	521.8
615.423	511.8
615.835	514.6
616.248	502.4
616.66	512.8
617.073	510.8
617.485	513.8
617.898	520.2
618.311	512.6
618.723	508
619.136	540.2
619.549	524.2
619.962	533.4
620.375	521
620.788	517.6
621.201	510.4
621.614	520.2
622.028	509.8
622.441	514.2
622.854	517.2
623.268	508.4
623.681	519.8
624.095	500.6
624.509	521.4
624.922	522.4
625.336	505.2
625.728	508.2
626.142	519.4
626.556	519.2
626.97	522.6
627.384	510.8
627.799	514.6
628.213	523.4
628.627	512.8
629.041	509.4
629.456	509.8
629.87	509
630.285	513.8
630.699	520.6
631.093	507.8
631.507	517.2
631.922	514.4
632.337	526.6
632.752	503.6
633.167	507.2
633.582	507.2
633.997	511
634.412	508.4
634.806	514.8
635.221	501.2
635.637	515.4
636.052	497
636.468	510.6
636.883	524
637.299	512.4
637.715	502.4
638.109	510.8
638.525	510.2
638.941	513.8
639.357	516.8
639.773	516.8
640.189	502
640.584	512
641	513.6
641.416	495
641.832	511.8
642.249	505
642.665	515.2
643.06	512.6
643.477	526.6
643.894	504.2
644.31	506.6
644.727	509
645.123	510.6
645.54	500.6
645.957	508.4
646.374	515.4
646.77	509.4
647.187	535.4
647.604	506.4
648.021	499.4
648.439	503.6
648.835	513
649.252	506.4
649.67	509.6
650.088	504.4
650.484	506.6
650.902	508
651.32	508.8
651.738	500.4
652.134	510.8
652.552	524.6
652.971	514.2
653.389	510.2
653.786	525
654.204	513.2
654.622	501.6
655.019	506.8
655.438	509.2
655.857	515.4
656.275	509.8
656.673	501.4
657.091	509.6
657.51	512
657.908	515.4
658.327	519.2
658.746	503.4
659.144	510.2
659.563	522
659.982	512.2
660.38	502.8
660.8	517.2
661.219	522
661.617	507.6
662.037	505
662.457	519.4
662.855	496.8
663.275	536.6
663.695	512
664.094	505.4
664.514	507.4
664.934	503.8
665.333	518.8
665.753	500.8
666.152	500.6
666.572	504
666.993	521.8
667.392	507.4
667.812	509.6
668.212	507.2
668.632	514.8
669.053	506.4
669.453	514.6
669.874	505.8
670.273	515.2
670.694	503.4
671.116	518.6
671.515	515.8
671.937	511.8
672.337	506
672.758	498
673.158	506.4
673.58	504
673.98	510
674.402	519
674.824	503.2
675.224	506.2
675.646	502.8
676.047	505
676.469	503.2
676.869	509.2
677.292	510.4
677.693	509.6
678.115	498.2
678.516	508.8
678.939	511.4
679.34	506.6
679.762	509
680.164	503.6
680.586	495.8
680.988	505.8
681.411	526
681.812	510.2
682.236	509.2
682.637	500.8
683.061	499.2
683.462	509.4
683.864	504
684.288	513.6
684.69	507.6
685.114	516.4
685.516	515
685.94	502.2
686.342	515.4
686.766	504.8
687.168	504.8
687.571	521.6
687.995	509.6
688.398	499.8
688.822	504.8
689.225	519.6
689.628	523.4
690.052	502.4
690.456	511.8
690.88	508.4
691.284	499.4
691.687	507.4
692.112	498.8
692.515	498
692.919	502.4
693.344	505
693.747	496
694.173	505
694.577	511.6
694.98	507
695.406	499.2
695.81	502.2
696.214	507
696.64	506.6
697.044	505
697.448	514.6
697.874	496.6
698.279	496.4
698.684	496
699.11	498.4
699.514	502
699.919	497.6
700.324	501.6
700.75	508.6
701.156	501.4
701.561	511.4
701.987	510.4
702.393	508.4
702.798	510.6
703.203	507
703.63	499
704.036	503.6
704.442	502
704.847	504
705.274	506.2
705.68	515.2
706.086	516
706.492	501
706.92	494.2
707.326	510
707.732	499.4
708.139	495.6
708.545	489.6
708.973	505.2
709.38	505.2
709.786	500.8
710.193	519.2
710.6	503
711.028	500.2
711.435	506.2
711.842	511.2
712.249	502.6
712.656	500.4
713.064	507.6
713.492	497.6
713.9	500.2
714.307	508.4
714.715	503.6
715.123	512.6
715.53	506.8
715.938	519.2
716.367	504.6
716.775	505.8
717.184	503.8
717.592	501
718	501.2
718.408	530.8
718.816	548
719.225	507.6
719.633	509
720.042	493.6
720.472	496.4
720.881	523.2
721.29	518.4
721.699	496.4
722.108	500.8
722.517	503.8
722.926	501.6
723.335	507.4
723.744	497.2
724.154	500.4
724.563	506
724.973	505.2
725.382	507
725.792	506
726.202	497.6
726.612	516.4
727.022	508.2
727.432	498
779.813	497.4
780.223	539.4
780.634	501
781.044	498.4
781.454	503.4
781.865	518.8
782.276	495.8
782.686	503
783.097	499.2
783.508	498.2
783.919	497.8
784.33	515.8
784.741	507.4
785.152	505.2
785.563	493.6
785.974	493
786.386	510.6
786.776	500.8
787.188	496.6
787.599	492.8
788.011	511.8
788.423	501.2
788.835	502.2
789.247	496.4
789.659	493
790.071	493
790.483	538.4
790.874	500.6
791.286	504.2
791.699	496
792.111	497
792.524	500.6
792.937	493.2
793.349	495.8
793.741	498.4
794.154	491
794.567	517
794.98	497.4
795.393	491.2
795.785	510.4
796.198	492.6
796.612	489.8
797.026	489.8
797.439	484
797.831	490
798.245	489.2
798.659	496
799.073	501.2
799.487	493.2
799.88	494.2
800.294	504
800.708	506.6
801.123	500
801.516	518.8
801.93	488.6
802.345	489
802.76	501.8
803.153	510.4
803.568	505.8
803.983	506.6
804.377	506.6
804.792	492.6
805.207	484
805.601	501
806.016	529.8
806.432	494.4
806.826	529
807.242	518.6
807.658	513.8
808.052	496.2
808.468	504
808.884	497.2
809.279	502.6
809.695	521.4
810.111	521.8
810.506	508
810.922	510
811.339	498.6
811.734	507.2
812.151	498.8
812.546	496.4
812.963	496.6
813.38	507.4
813.776	499.8
814.193	523.6
814.589	493.8
815.006	493.6
815.402	503.2
815.82	489.2
816.237	497.2
816.633	503.8
817.051	489.4
817.448	508.4
817.866	488.6
818.262	521.6
818.68	498
819.077	495.8
819.495	500.2
819.892	527.6
820.311	502.8
820.708	505.4
821.127	497.4
821.524	510
821.943	499.8
822.34	516
822.759	501.4
823.157	499.2
823.576	513.6
823.974	507.8
824.393	587.8
824.791	498.4
825.189	498.2
825.609	500.8
826.007	492.4
826.427	496
826.826	496.4
827.246	494.6
827.644	491.6
828.043	510.6
828.463	488
828.862	509.4
829.261	506.8
829.682	490.8
830.081	511.2
830.502	490.6
830.901	500.2
831.301	496
831.722	489.8
832.121	500.6
832.521	493
832.943	502.4
833.342	503.4
833.742	496
834.164	493.2
834.564	492.4
834.965	494.8
835.386	499.4
835.787	496.6
836.188	500.8
836.588	497.4
837.01	499.4
837.411	489.8
837.812	508.2
838.213	506.6
838.636	492.4
839.037	564
839.438	506.2
839.84	503.4
840.263	502.6
840.664	500.6
841.066	494.2
841.468	498.6
841.891	497.4
842.293	512.6
842.695	503.4
843.098	509.2
843.5	495.4
843.902	505.6
844.326	501.4
844.729	500.8
845.131	509.2
845.534	501.6
845.937	502.6
846.34	505.4
846.764	493.2
847.167	499.6
847.571	484.2
847.974	498.2
848.377	490.4
848.781	537
849.184	508.4
849.588	494.8
849.992	486
850.396	496
850.821	516.6
851.225	498.2
851.63	499.4
852.034	505.6
852.438	496
852.843	560.2
853.247	493.4
853.652	496.4
854.057	510.4
854.462	504
854.867	500.6
855.272	529.4
855.677	500.4
856.082	495.6
856.487	491.4
