#lambda/nm	C1
208.295	463
208.67	432.6
209.045	399.4
209.419	407.8
209.794	536
210.169	531.4
210.544	623.2
210.919	542
211.295	536
211.67	544.8
212.045	534.6
212.421	541.6
212.796	566.2
213.172	531.6
213.547	535.2
213.923	531
214.299	531.4
214.675	539.8
215.051	547.8
215.427	540.6
215.803	555.4
216.179	541.6
216.555	532.6
216.932	541.4
217.308	538.6
217.684	538.8
218.061	542.6
218.438	546.4
218.814	535
219.191	544.4
219.568	536.6
219.945	527.4
220.322	546.2
220.699	537.2
221.076	542.4
221.453	544.2
221.83	529.8
222.208	532.8
222.585	535.6
222.962	535.8
223.34	545.6
223.717	531.4
224.095	535.8
224.473	532.6
224.851	536.4
225.229	525
225.607	546
225.985	520.6
226.363	537.6
226.741	538.8
227.119	533.4
227.497	549.6
227.876	525
228.254	545.6
228.633	541
229.011	539.8
229.39	539.2
229.769	532.4
230.148	547.6
230.527	552.4
230.905	535.4
231.284	543.8
231.664	529.6
232.043	545.4
232.422	545.8
232.801	536.2
233.181	547.4
233.56	534.2
233.94	540.2
234.319	525.2
234.699	532
235.079	569.6
235.458	569.4
235.838	546
236.218	524.8
236.598	522.6
236.978	524
237.358	531.8
237.738	528.2
238.119	548.2
238.499	530.4
238.88	538.4
239.26	552.4
239.641	528.2
240.021	533.8
240.402	539.8
240.783	535.2
241.163	544.2
241.544	535.2
241.925	537.4
242.306	554.6
242.687	532.4
243.069	541.8
243.45	545.6
243.831	533.8
244.212	533
244.594	572.4
244.975	541.2
245.357	531.6
245.739	531
246.12	538.6
246.502	552.2
246.884	526.4
247.266	530.6
247.648	540.4
248.03	558.2
248.412	531.6
248.794	536.2
249.176	540.2
249.559	540.2
249.941	525.6
250.323	532.8
250.706	530.6
251.089	542.2
251.471	539.8
251.854	533
252.237	536.4
252.62	539
253.002	537.6
253.385	534.2
253.769	547.2
254.152	531.8
254.535	539.6
254.918	531.4
255.301	540.8
255.685	535.2
256.068	533.8
256.452	562.2
256.835	544.4
257.219	542.8
257.603	549.6
257.986	538.6
258.37	541.2
258.754	528.2
259.138	542.6
259.522	539.2
259.906	543.2
260.29	543
260.675	535
261.059	533.2
261.443	531.2
261.828	533.8
262.212	536.8
262.597	526.2
262.981	536.4
263.366	544.6
263.751	531.4
264.136	538
264.521	534
264.906	527.8
265.291	546.6
265.676	533.8
266.061	540.6
266.446	557.2
266.831	535.6
267.217	550.6
267.602	542
267.987	535.6
268.373	538.2
268.759	540.2
269.144	546.4
269.53	532.6
269.916	534.8
270.302	535.6
270.688	534.2
271.074	542
271.46	546.6
271.846	553.6
272.232	530.8
272.618	520.4
273.004	534.6
273.391	540.4
273.777	541.4
274.164	537.6
274.55	545.4
274.937	538
275.324	535.8
275.71	540.6
276.097	540.4
276.484	533.2
276.871	542
277.258	544.4
277.645	523.8
278.032	534.8
278.419	527
278.807	537
279.194	530.2
279.581	533.6
279.969	540.2
280.356	541.2
280.744	544.2
281.131	558.8
281.519	540
281.907	534.8
282.295	540.6
282.682	542.6
283.07	539.4
283.458	546.2
283.846	544.8
284.235	545
284.623	550.8
285.011	526.8
285.399	537
285.788	534
286.176	528.8
286.565	549
286.953	537.8
287.342	532.8
287.731	529.4
288.119	525.8
288.508	534.2
288.897	536.6
289.286	522.6
289.675	535.8
290.064	535.2
290.453	527.4
290.821	534.6
291.21	543.4
291.599	534.8
291.989	533.6
292.378	540.4
292.768	549.4
293.157	541.8
293.547	548.4
293.936	528.8
294.326	538.4
294.716	544.4
295.106	526
295.496	550
295.886	547.2
296.276	536.4
296.666	536.8
297.056	530.8
297.446	540.8
297.836	562.4
298.227	531
298.617	536.4
299.008	547.4
299.398	529
299.789	526.2
300.179	540.6
300.57	544
300.961	529.6
301.352	528
301.742	539.8
302.133	534
302.524	530
302.915	533.4
303.307	516.6
303.698	538.6
304.089	541.8
304.48	532.8
304.872	540.2
305.263	533.4
305.655	535.2
306.046	545.6
306.438	541.6
306.829	536.4
307.221	556.4
307.613	536.2
308.005	551
308.397	553.6
308.789	557
309.181	551.4
309.573	553.6
309.965	544.2
310.357	533.4
310.749	543.6
311.142	538.6
311.534	535
311.926	544
312.319	545.4
312.711	530.2
313.104	549.2
313.497	535.6
313.889	570.2
314.282	555.2
314.675	552.2
315.068	543.4
315.461	539.8
315.854	567.2
316.247	544.4
316.64	538.2
317.033	537.8
317.405	544.2
317.798	538.2
318.192	539
318.585	528.4
318.979	544.2
319.372	544
319.766	535.8
320.16	550.6
320.553	548.4
320.947	560.2
321.341	533.4
321.735	534
322.129	525.4
322.523	553.6
322.917	529.8
323.311	544.8
323.705	537.8
324.099	531.8
324.494	548.2
324.888	546.2
325.282	523.4
325.677	547.6
326.071	538
326.466	543.4
326.861	543.6
327.255	545.8
327.65	541.2
328.045	541
328.44	538.6
328.835	541.2
329.23	527.2
329.625	553.2
330.02	529.4
330.415	551.4
330.81	544.8
331.206	537.4
331.601	539.6
331.996	542.8
332.37	554.6
332.766	523.8
333.161	547
333.557	529.4
333.953	540
334.348	834.6
334.744	537
335.14	544.4
335.536	535
335.932	546.6
336.328	531.2
336.724	542.6
337.12	540
337.516	543.6
337.913	535.4
338.309	544.4
338.705	537.6
339.102	544.2
339.498	535.8
339.895	545.2
340.291	531.6
340.688	539.6
341.085	534.6
341.481	538.2
341.878	535
342.275	551.8
342.672	529.8
343.069	534.6
343.466	524.6
343.842	551.6
344.239	523.2
344.636	527.2
345.033	529.2
345.431	528.6
345.828	532
346.225	525.4
346.623	561.8
347.02	539.4
347.418	537.8
347.816	549.2
348.213	526.4
348.611	536.2
349.009	529.2
349.407	547.4
349.805	523
350.203	529.4
350.601	543.8
350.999	528
351.397	566.8
351.795	531
352.193	538
352.57	539.8
352.969	542.8
353.367	532
353.766	525.8
354.164	533.4
354.563	535.4
354.961	535.6
355.36	524.4
355.759	529.6
356.158	528.8
356.557	529.8
356.956	536
357.355	523
357.754	537.2
358.153	539
358.552	551.8
358.951	527
359.35	537.6
359.75	528.4
360.149	522
360.527	524.4
360.926	519.8
361.326	535.4
361.726	532.2
362.125	533.6
362.525	545.4
362.925	535
363.325	537.2
363.724	533.6
364.124	532
364.524	526.2
364.924	536
365.324	549.2
365.725	524.2
366.125	531.6
366.525	522.6
366.904	522.6
367.304	514.2
367.705	541.8
368.105	545.4
368.506	527.4
368.906	526.8
369.307	525
369.708	537.6
370.108	518.4
370.509	535
370.91	514
371.311	529
371.712	534.2
372.113	528
372.514	518.2
372.894	518.2
373.295	522.6
373.696	534
374.097	530.6
374.499	549.6
374.9	533.4
375.301	532.2
375.703	535.6
376.105	524.8
376.506	530.8
376.908	524.4
377.309	523.8
377.711	523
378.113	524.6
378.493	533
378.895	522.6
379.297	533.8
379.699	518
380.102	537
380.504	520.4
380.906	523.2
381.308	541.4
381.71	525.6
382.113	537.2
382.515	519.8
382.918	532.8
383.299	528
383.701	536
384.104	529.4
384.507	514
384.909	521.2
385.312	520.2
385.715	523.8
386.118	520.8
386.521	520.2
386.924	538.4
387.327	522.2
387.709	521
388.112	516.8
388.515	527.8
388.918	523.6
389.322	538.8
389.725	525.6
390.129	549.6
390.532	530.6
390.936	524.6
391.339	524.4
391.743	530.8
392.125	526.8
392.529	529.6
392.933	535
393.337	534.4
393.74	527
394.144	536.4
394.548	527
394.953	531.2
395.357	526.4
395.761	523.6
396.144	530
396.548	524
396.952	534.8
397.357	527.2
397.761	520.8
398.166	521.6
398.57	523.8
398.975	521
399.379	530.6
399.763	562.2
400.168	527
400.572	527.2
400.977	528.4
401.382	545.6
401.787	538
402.192	545.6
402.597	536.6
403.002	515.6
403.386	533
403.791	541.6
404.197	531.8
404.602	532.6
405.007	528.6
405.413	528.2
405.818	526.2
406.224	523.4
406.608	526.2
407.014	520.2
407.42	547.8
407.825	529
408.231	537.6
408.637	526.4
409.043	538.8
409.449	523.4
409.834	529.4
410.24	530.2
410.646	536.8
411.052	533.4
411.458	534.8
411.865	537.6
412.271	534.2
412.677	531.6
413.062	541.2
413.469	524.2
413.875	547.8
414.282	546.8
414.689	534.8
415.095	539.6
415.502	522.4
415.888	532.4
416.294	515.2
416.701	565
417.108	527.2
417.515	529
417.923	528.6
418.33	549.4
418.715	535.8
419.123	525.2
419.53	524
419.937	528.2
420.345	544
420.752	528
421.16	540.8
421.546	524
421.953	540.4
422.361	519.4
422.769	517.8
423.177	521.2
423.585	548
423.992	535.4
424.379	534
424.787	533.2
425.195	537.2
425.603	524.2
426.011	537.2
426.419	536.4
426.806	530
427.214	538.2
427.623	536.2
428.031	541.4
428.44	532
428.848	532.2
429.235	535
429.644	518
430.053	525.4
430.461	539
430.87	543.2
431.279	537.4
431.666	522.8
432.075	533.6
432.484	536.8
432.893	527
433.302	537
433.711	565
434.099	530.6
434.508	536.8
434.918	517
435.327	529.2
435.737	535
436.125	521.8
436.534	537.2
436.944	531.8
437.353	530.2
437.763	548
438.173	524.6
438.561	541.6
438.971	519.6
439.381	525
439.791	532.2
440.201	511
440.589	535.6
440.999	529
441.409	536.2
441.819	517.4
442.23	530
442.619	533
443.029	529.4
443.439	531.8
443.85	536.4
444.26	542.8
444.649	536.4
445.06	533.6
445.471	522.6
445.881	533.6
446.292	546
446.682	546.8
447.092	518.8
447.503	570.4
447.914	525.2
448.325	531.6
448.715	538.8
449.126	516
449.537	530.6
449.948	526.8
450.338	523.6
450.75	537.4
451.161	524.2
451.572	527.4
451.984	519
452.374	515.4
452.786	523.2
453.197	533.6
453.609	526.2
453.999	512.4
454.411	519.4
454.823	540.2
455.235	536
455.647	526.8
456.037	532.8
456.449	519.6
456.862	531
457.274	533.2
457.665	520.6
458.077	530.2
458.489	549.6
458.902	529.2
459.293	531
459.705	528.8
460.118	518.8
460.53	521.4
460.921	524.2
461.334	520.4
461.747	527
462.16	530
462.551	533
462.964	529.2
463.377	512.2
463.79	529.2
464.182	525
464.595	517
465.008	524.2
465.421	520.8
465.813	519.4
466.226	526
466.64	519.6
467.053	550.4
467.445	531.8
467.859	535.6
468.272	529.6
468.686	532.8
469.078	523.4
469.492	516.6
469.906	522.6
470.298	525.8
470.712	518.6
471.126	545.8
471.54	507.8
471.933	515.8
472.347	516
472.761	516.8
473.175	520
473.568	522
473.982	519.4
474.397	519.4
474.79	523.8
475.204	524.6
475.619	521.8
476.033	530.2
476.426	524.2
476.841	516.2
477.256	542.4
477.649	515
478.064	522
478.479	511
478.872	515.4
479.287	505.4
479.702	511.2
480.118	514.2
480.511	524.2
480.927	522.4
481.342	509.8
481.736	517
482.151	513.6
482.566	523.6
482.96	526.2
483.376	530.8
483.792	521.8
484.186	516
484.602	518.2
485.017	519.2
485.412	518.4
485.827	527.8
486.243	518.6
486.638	542.4
487.054	526.8
487.47	524.8
487.865	509.8
488.281	516
488.697	518
489.092	516.8
489.508	518.4
489.925	527.8
490.32	510.4
490.736	527.4
491.153	523.6
491.548	520.6
491.964	527.2
492.381	509.8
492.776	518.6
493.193	515.6
493.61	524.4
494.006	515.6
494.422	521.6
494.84	508.4
495.235	527.2
495.652	510.6
496.069	522
496.465	512.4
496.883	513.2
497.3	541.6
497.696	518
498.113	517.8
498.509	516.2
498.927	511.2
499.344	507.6
499.741	521.4
500.158	521.8
500.576	534.2
500.973	523.8
501.39	514.2
501.787	511.6
502.205	521.8
502.623	519
503.02	512.4
503.438	512.6
503.856	517.8
504.253	518.4
504.671	519.6
505.068	512.2
505.486	507.6
505.905	528.2
506.302	509.6
506.72	530.6
507.118	510.4
507.536	519
507.955	513.2
508.352	525
508.771	520
509.169	524.8
509.587	509.8
510.006	516.2
510.404	507.2
510.823	519.4
511.221	514.8
511.64	512
512.038	531
512.457	516.4
512.877	524.2
513.275	515.2
513.694	518
514.092	519.4
514.512	522.8
514.91	529.4
515.33	516.2
515.749	517.6
516.148	518.8
516.568	520
516.966	514.2
517.386	513.2
517.785	518.4
518.205	516.4
518.603	509.8
519.024	516
519.444	522.4
519.843	514.8
520.263	525.8
520.662	524.2
521.082	519
521.481	510.8
521.902	512.6
522.301	517
522.722	510.2
523.121	518.8
523.542	510
523.963	516.4
524.362	521.2
524.783	515.8
525.183	515.6
525.604	518
526.003	515.2
526.425	509.8
526.824	521.2
527.246	519.4
527.646	523.6
528.067	523.8
528.467	518.8
528.888	522.6
529.289	512.6
529.71	510.4
530.11	515.6
530.532	516.6
530.932	510.6
531.354	508.6
531.755	544.6
532.176	531.8
532.577	517
532.999	523.6
533.4	512
533.822	515.4
534.223	514
534.645	518.6
535.046	511.4
535.468	513.6
535.869	523.2
536.292	505.8
536.693	545.2
537.115	513.8
537.516	511.6
537.939	511.2
538.34	533.6
538.742	525.4
539.165	512.8
539.566	516
539.989	503.4
540.391	518.4
540.814	517
541.216	515
541.639	516.8
542.041	525.8
542.464	514.4
542.866	519.8
543.268	511.4
543.691	522.6
544.093	523
544.517	535
544.919	511.8
545.343	536.6
545.745	503.2
546.147	511.2
546.571	513.2
546.974	511
547.398	509
547.8	521.8
548.224	509.4
548.627	505.8
549.03	514
549.454	512
549.857	511.2
550.281	514.6
550.684	518.8
551.087	526
551.512	518
551.915	524
552.34	513.2
552.743	518
553.146	519.2
553.571	511.8
553.975	525.4
554.399	516.6
554.803	557
555.207	516.6
555.632	510.8
556.036	522.6
556.461	508.4
556.865	517.2
557.268	502.4
557.694	512
558.098	526.8
558.502	517.2
558.927	514.4
559.332	523
559.736	515
560.162	521.4
560.566	509.6
560.992	517.8
561.396	512.6
561.801	510.8
562.227	514.2
562.631	512.2
563.036	510.4
563.462	518.2
563.867	519.6
564.272	506.8
564.698	522.2
565.103	502
565.508	532.8
565.935	511.2
566.34	519.4
566.745	523.6
567.172	505
567.577	531.6
567.982	532.4
568.409	516.8
568.815	503.6
569.22	513.4
569.626	518.2
570.053	506
570.459	518.6
570.865	522.4
571.292	522.2
571.698	521.4
572.104	513.4
572.531	515
572.937	523.2
573.343	519.2
573.75	509.2
574.177	516.8
574.583	528.2
574.99	516
575.396	521.8
575.824	505.4
576.231	515.6
576.637	513.2
577.065	530
577.472	512
577.879	514.2
578.286	524.6
578.714	509.4
579.121	513.6
579.528	516
579.935	520.8
580.364	503.2
580.771	501
581.178	507.4
581.585	511.4
582.014	516.4
582.421	507.2
582.829	510.8
583.236	523
583.644	507.4
584.073	513.2
584.481	515.4
584.889	508.2
585.296	517.8
585.726	512.4
586.134	509.8
586.542	516.4
586.95	529
587.358	511
587.787	512.8
588.196	506.4
588.604	515.4
589.012	512.4
589.421	506
589.851	508.6
590.259	518.4
590.668	513.8
591.076	537.6
591.485	511.2
591.894	513.2
592.324	523.4
592.733	520.8
593.142	496.8
593.551	512.6
593.96	538.6
594.369	505.8
594.8	510
595.209	515
595.618	490.6
596.028	504.2
596.437	507.2
596.847	509.8
597.256	507.6
597.687	509
598.097	512.8
598.507	497.2
598.917	516.8
599.327	514
599.736	514.4
600.146	517.4
600.556	517.4
600.988	519.2
601.398	511.4
601.808	519.6
602.219	510.4
602.629	510.2
603.039	511.4
603.45	538.8
603.86	516.6
604.271	528.2
604.703	517.2
605.114	511.2
605.525	515.6
605.935	516.6
606.346	519.2
606.757	519.2
607.168	511.6
607.579	512.2
607.99	521
608.402	517.8
608.813	518.8
609.224	513
609.636	504.8
610.047	503.4
610.48	519.2
610.892	522.6
611.303	518.8
611.715	515.4
612.127	500.2
612.539	508.2
612.95	515.6
613.362	501.6
613.774	500.2
614.186	508.8
614.599	501.2
615.011	514.4
615.423	506.4
615.835	508.6
616.248	497
616.66	507.8
617.073	500.8
617.485	509.4
617.898	527.4
618.311	507.6
618.723	510.8
619.136	527.2
619.549	517
619.962	527.2
620.375	512.2
620.788	515.4
621.201	506.6
621.614	516.8
622.028	509.4
622.441	508
622.854	517.6
623.268	501.2
623.681	518
624.095	511.8
624.509	522
624.922	515.6
625.336	498.2
625.728	510.8
626.142	519.2
626.556	533.6
626.97	514.8
627.384	505.6
627.799	506.4
628.213	517.2
628.627	508
629.041	519.6
629.456	509.6
629.87	517.4
630.285	508.8
630.699	515.8
631.093	514.2
631.507	515.6
631.922	515.2
632.337	517.8
632.752	507.6
633.167	516.4
633.582	508
633.997	509.8
634.412	505
634.806	504.8
635.221	501.4
635.637	518.8
636.052	496.4
636.468	513.2
636.883	529.6
637.299	509.8
637.715	499.8
638.109	511.8
638.525	504.6
638.941	526.8
639.357	514.2
639.773	512.4
640.189	499.8
640.584	512
641	513.2
641.416	504.2
641.832	505
642.249	499.8
642.665	504.4
643.06	510.4
643.477	523.2
643.894	500.2
644.31	507.2
644.727	502.6
645.123	508.2
645.54	505.4
645.957	512.2
646.374	526
646.77	513.8
647.187	530
647.604	505.6
648.021	495.8
648.439	511.2
648.835	509
649.252	511.6
649.67	506
650.088	507.4
650.484	511
650.902	507
651.32	508.6
651.738	505
652.134	516.8
652.552	524
652.971	508.6
653.389	514.6
653.786	511.6
654.204	508.8
654.622	502.4
655.019	509.4
655.438	514.2
655.857	514
656.275	520
656.673	506
657.091	511
657.51	499
657.908	510.8
658.327	518.6
658.746	502.8
659.144	513
659.563	525.6
659.982	512.8
660.38	503.8
660.8	512.4
661.219	519
661.617	513.2
662.037	500.4
662.457	520.8
662.855	499.8
663.275	530.6
663.695	500
664.094	511.6
664.514	509.8
664.934	504.4
665.333	511.4
665.753	505
666.152	505.2
666.572	509
666.993	522.8
667.392	512
667.812	502.4
668.212	507.6
668.632	516
669.053	506.8
669.453	509.4
669.874	509.2
670.273	512.6
670.694	504.2
671.116	517.4
671.515	519.6
671.937	513.4
672.337	510
672.758	504.6
673.158	515.8
673.58	493.6
673.98	510
674.402	521.8
674.824	503.6
675.224	499.4
675.646	496
676.047	502.4
676.469	507.6
676.869	516.8
677.292	506
677.693	503
678.115	507.2
678.516	515.4
678.939	514.4
679.34	516.6
679.762	513.2
680.164	512.2
680.586	496
680.988	508.8
681.411	526.4
681.812	504.2
682.236	500.8
682.637	502.6
683.061	506.6
683.462	510.6
683.864	506.6
684.288	518.8
684.69	510.8
685.114	509.6
685.516	511.8
685.94	499.8
686.342	515.4
686.766	493.8
687.168	498.8
687.571	524.2
687.995	517.4
688.398	500.2
688.822	504.2
689.225	519
689.628	523.4
690.052	506
690.456	516.4
690.88	508.8
691.284	496.4
691.687	511.4
692.112	497
692.515	495
692.919	508.8
693.344	507.4
693.747	505.6
694.173	502.6
694.577	517.2
694.98	511.6
695.406	496
695.81	509.2
696.214	505.6
696.64	508
697.044	505
697.448	519.6
697.874	508.8
698.279	506.8
698.684	498.6
699.11	500.4
699.514	505.8
699.919	503.8
700.324	506.6
700.75	507.4
701.156	500.6
701.561	519.2
701.987	515.8
702.393	520.8
702.798	515.6
703.203	512
703.63	496
704.036	511.4
704.442	506.2
704.847	494
705.274	508.8
705.68	509.2
706.086	508.4
706.492	498.8
706.92	500.8
707.326	520.4
707.732	507
708.139	506.6
708.545	496
708.973	506.4
709.38	503
709.786	497.6
710.193	516.2
710.6	497.8
711.028	500.8
711.435	505.2
711.842	501.4
712.249	495.4
712.656	501.8
713.064	511.2
713.492	494.8
713.9	497.6
714.307	505.4
714.715	503
715.123	507
715.53	506.2
715.938	509.4
716.367	500.8
716.775	503.2
717.184	498.2
717.592	499.2
718	508.6
718.408	528.4
718.816	546.4
719.225	502.8
719.633	510
720.042	492.6
720.472	499.8
720.881	514.8
721.29	504.6
721.699	493
722.108	505.6
722.517	505.6
722.926	498.4
723.335	511.2
723.744	506.2
724.154	511
724.563	504.8
724.973	503.4
725.382	508.8
725.792	505
726.202	500.8
726.612	515.6
727.022	507.4
727.432	496.6
779.813	503
780.223	533.6
780.634	498.8
781.044	499.6
781.454	499.6
781.865	515
782.276	494
782.686	513.4
783.097	500.8
783.508	505.8
783.919	510.4
784.33	516.4
784.741	519.8
785.152	502.2
785.563	499.8
785.974	499.4
786.386	514.8
786.776	506.2
787.188	498.6
787.599	501.2
788.011	514.4
788.423	503.4
788.835	502.8
789.247	502.6
789.659	502.6
790.071	500.6
790.483	539.6
790.874	506.4
791.286	506.8
791.699	500.6
792.111	500.4
792.524	507.6
792.937	500.8
793.349	494.4
793.741	498.8
794.154	499
794.567	519.8
794.98	498.8
795.393	494.8
795.785	519.6
796.198	498.2
796.612	505.4
797.026	499.2
797.439	494.6
797.831	507.2
798.245	498.4
798.659	499
799.073	497.8
799.487	496
799.88	508
800.294	505.8
800.708	509
801.123	505.4
801.516	515.8
801.93	495.4
802.345	490.6
802.76	505.4
803.153	510.2
803.568	511.8
803.983	514.4
804.377	505.6
804.792	497.4
805.207	489.4
805.601	497.4
806.016	530.4
806.432	496
806.826	526.6
807.242	508.8
807.658	509.6
808.052	496.2
808.468	497.8
808.884	494.4
809.279	500
809.695	514.8
810.111	516.2
810.506	500.2
810.922	519.2
811.339	500
811.734	504.6
812.151	496.2
812.546	506.4
812.963	500.6
813.38	502.4
813.776	498.4
814.193	521.6
814.589	501
815.006	497.8
815.402	499.6
815.82	495.8
816.237	493.8
816.633	500.2
817.051	494.2
817.448	501.6
817.866	493.4
818.262	521.8
818.68	501.4
819.077	501.8
819.495	501.8
819.892	537.2
820.311	495.2
820.708	498
821.127	504
821.524	514
821.943	498.4
822.34	519.8
822.759	501
823.157	500.2
823.576	505
823.974	507.8
824.393	592
824.791	490.2
825.189	492.2
825.609	499
826.007	498.6
826.427	496.6
826.826	507.8
827.246	507.2
827.644	487.4
828.043	507.6
828.463	490.8
828.862	510
829.261	510.2
829.682	486.4
830.081	512.4
830.502	500.6
830.901	506.6
831.301	492
831.722	487.2
832.121	503.6
832.521	498.6
832.943	504.4
833.342	504.4
833.742	493.6
834.164	497.6
834.564	490.6
834.965	497
835.386	495.4
835.787	497
836.188	494.4
836.588	497.4
837.01	493.4
837.411	493
837.812	503.6
838.213	496.2
838.636	498.8
839.037	558.4
839.438	498.8
839.84	500.4
840.263	506.8
840.664	499.4
841.066	495.8
841.468	503.8
841.891	496.2
842.293	510
842.695	509.8
843.098	506.6
843.5	501.6
843.902	509.8
844.326	506.6
844.729	495.6
845.131	511.2
845.534	503.8
845.937	513.6
846.34	514.8
846.764	494
847.167	501
847.571	499.4
847.974	495.4
848.377	504.8
848.781	539.2
849.184	512.8
849.588	495
849.992	495.8
850.396	505.8
850.821	519.6
851.225	504.6
851.63	495.6
852.034	516.6
852.438	506.4
852.843	523.6
853.247	494
853.652	494.8
854.057	514.2
854.462	505.4
854.867	503.8
855.272	523.2
855.677	500.8
