#lambda/nm	C1
208.295	468.6
208.67	439.4
209.045	398.6
209.419	404.8
209.794	541
210.169	520.2
210.544	618.6
210.919	542.6
211.295	536.8
211.67	533.2
212.045	536.2
212.421	534
212.796	563.4
213.172	540.2
213.547	535.8
213.923	533.6
214.299	535.8
214.675	547.4
215.051	538
215.427	540
215.803	545.8
216.179	543.8
216.555	535.8
216.932	552
217.308	548.4
217.684	533.6
218.061	537
218.438	534.6
218.814	530.8
219.191	545.6
219.568	528.6
219.945	528
220.322	541.2
220.699	537.4
221.076	548.6
221.453	535
221.83	533
222.208	527.6
222.585	526
222.962	532.2
223.34	535.2
223.717	533.2
224.095	529.4
224.473	537
224.851	529.6
225.229	529.2
225.607	548.4
225.985	526
226.363	534.4
226.741	538.2
227.119	543.6
227.497	541.2
227.876	524.6
228.254	549.2
228.633	540.8
229.011	541.6
229.39	542
229.769	538
230.148	548
230.527	556.4
230.905	539.4
231.284	536.6
231.664	533.6
232.043	546.2
232.422	530.2
232.801	526.2
233.181	539.4
233.56	535.4
233.94	528.8
234.319	512
234.699	524.2
235.079	563.4
235.458	550.4
235.838	549.8
236.218	525
236.598	524.8
236.978	526
237.358	527.6
237.738	521.8
238.119	543.4
238.499	522.6
238.88	536.2
239.26	548
239.641	531.8
240.021	535.6
240.402	542.4
240.783	530.4
241.163	528.6
241.544	539.8
241.925	534.2
242.306	543.4
242.687	532
243.069	539.2
243.45	539.6
243.831	544.6
244.212	531.6
244.594	572.6
244.975	545.6
245.357	531.6
245.739	536
246.12	538.4
246.502	551.4
246.884	527.4
247.266	533
247.648	545
248.03	562.4
248.412	548
248.794	540.2
249.176	524.4
249.559	544.8
249.941	531.6
250.323	528.8
250.706	532.4
251.089	535.4
251.471	543
251.854	539.2
252.237	532.4
252.62	540.4
253.002	548
253.385	534.6
253.769	548.2
254.152	541.6
254.535	546
254.918	527.4
255.301	537.2
255.685	539.4
256.068	526.2
256.452	553.2
256.835	542.2
257.219	536.8
257.603	539.8
257.986	526.6
258.37	536.6
258.754	527
259.138	536.8
259.522	543.4
259.906	534.2
260.29	531.2
260.675	532.8
261.059	528.2
261.443	530.4
261.828	541
262.212	542.4
262.597	525.2
262.981	533.8
263.366	537.4
263.751	535.4
264.136	521.6
264.521	538.8
264.906	527.4
265.291	538.6
265.676	532
266.061	539.6
266.446	555.6
266.831	536.2
267.217	551.6
267.602	537.4
267.987	545.4
268.373	530.4
268.759	543
269.144	536.2
269.53	530.4
269.916	535.6
270.302	539
270.688	542.2
271.074	546.8
271.46	550.2
271.846	562.2
272.232	530
272.618	533.2
273.004	537
273.391	545.6
273.777	547.6
274.164	542.2
274.55	550.2
274.937	542.2
275.324	531.2
275.71	546.4
276.097	539
276.484	528.4
276.871	532.8
277.258	542.8
277.645	530.4
278.032	526
278.419	534.2
278.807	540.4
279.194	525.8
279.581	527.8
279.969	543.8
280.356	535.8
280.744	539.8
281.131	553.6
281.519	536.8
281.907	530.8
282.295	531.6
282.682	536.8
283.07	532.6
283.458	540
283.846	547.4
284.235	547.2
284.623	546.6
285.011	525.6
285.399	545.8
285.788	530
286.176	524.2
286.565	539.2
286.953	528.4
287.342	536.2
287.731	523.4
288.119	524.2
288.508	530.4
288.897	525
289.286	526.6
289.675	538.4
290.064	540.2
290.453	534.2
290.821	534
291.21	547.4
291.599	524.4
291.989	536.2
292.378	547
292.768	551.4
293.157	542.2
293.547	544
293.936	536
294.326	523.8
294.716	543.2
295.106	530
295.496	551.8
295.886	544.2
296.276	536.4
296.666	538.6
297.056	531
297.446	526.6
297.836	545.2
298.227	540
298.617	531.8
299.008	543.2
299.398	532.2
299.789	536.8
300.179	537.6
300.57	555
300.961	538.8
301.352	536
301.742	537
302.133	540.6
302.524	528.8
302.915	542.6
303.307	525
303.698	547
304.089	534
304.48	534.4
304.872	540
305.263	534.8
305.655	533.4
306.046	538.2
306.438	541.2
306.829	537.4
307.221	546.4
307.613	534.2
308.005	544
308.397	553
308.789	555.8
309.181	553
309.573	560
309.965	546.8
310.357	537
310.749	543.6
311.142	532.2
311.534	531.4
311.926	544.6
312.319	538.8
312.711	529.6
313.104	547.2
313.497	538.6
313.889	569.4
314.282	551
314.675	551.8
315.068	545.2
315.461	548.4
315.854	564
316.247	545
316.64	533.8
317.033	538.8
317.405	540.2
317.798	535
318.192	535.6
318.585	530.4
318.979	544
319.372	524.2
319.766	532.8
320.16	543
320.553	550
320.947	550.6
321.341	532.6
321.735	536.8
322.129	524.8
322.523	548.6
322.917	530.2
323.311	540.6
323.705	530.4
324.099	538.2
324.494	552.4
324.888	538.8
325.282	530.8
325.677	535.6
326.071	541.8
326.466	547.6
326.861	537.8
327.255	549.2
327.65	537.8
328.045	554.8
328.44	536.4
328.835	532.6
329.23	533
329.625	555.2
330.02	533.4
330.415	549.2
330.81	534.6
331.206	538.6
331.601	531.2
331.996	550.6
332.37	550.6
332.766	525
333.161	549.2
333.557	533.4
333.953	535.6
334.348	826.4
334.744	530.4
335.14	539.8
335.536	530.2
335.932	547.6
336.328	540.6
336.724	541.8
337.12	525
337.516	531.6
337.913	538.2
338.309	548.4
338.705	536.6
339.102	545
339.498	538
339.895	548.6
340.291	535.2
340.688	546.8
341.085	529
341.481	536.6
341.878	532
342.275	547.4
342.672	531.2
343.069	524.2
343.466	522.8
343.842	549.2
344.239	525.8
344.636	535.4
345.033	533.2
345.431	531
345.828	536
346.225	531.4
346.623	567
347.02	532.8
347.418	546.8
347.816	549.8
348.213	527.8
348.611	536.8
349.009	540.8
349.407	541.8
349.805	528.4
350.203	526
350.601	539.4
350.999	534
351.397	576.8
351.795	529.4
352.193	543.4
352.57	535
352.969	546
353.367	523.8
353.766	524.4
354.164	527.2
354.563	537.2
354.961	538.8
355.36	531.4
355.759	529.6
356.158	519
356.557	526.6
356.956	518.6
357.355	523.2
357.754	530.2
358.153	533.4
358.552	548
358.951	529.6
359.35	540.8
359.75	530.2
360.149	516.8
360.527	521.2
360.926	526
361.326	529.8
361.726	534
362.125	526.2
362.525	539.6
362.925	531.4
363.325	533.6
363.724	526.6
364.124	523.4
364.524	524.2
364.924	522.2
365.324	534.8
365.725	520
366.125	532.4
366.525	532.6
366.904	528.8
367.304	518.4
367.705	550.4
368.105	543
368.506	532
368.906	536.4
369.307	521
369.708	533.8
370.108	521.8
370.509	542.6
370.91	525.2
371.311	529.4
371.712	531.6
372.113	531.6
372.514	524.2
372.894	532.8
373.295	523.2
373.696	536
374.097	539.8
374.499	551.2
374.9	531
375.301	527
375.703	530.2
376.105	525
376.506	536.8
376.908	527.6
377.309	525.4
377.711	530.6
378.113	526.4
378.493	522.4
378.895	522
379.297	528.8
379.699	518.4
380.102	531.8
380.504	521
380.906	521.8
381.308	544.4
381.71	526.2
382.113	538.4
382.515	521
382.918	526.8
383.299	525.4
383.701	527
384.104	531.4
384.507	509.8
384.909	524
385.312	515.6
385.715	516.2
386.118	520.6
386.521	506.8
386.924	531.8
387.327	518.8
387.709	515.4
388.112	506.6
388.515	519.4
388.918	524.6
389.322	526.4
389.725	517.2
390.129	540.8
390.532	530.8
390.936	528
391.339	521.8
391.743	525.6
392.125	516.6
392.529	532.8
392.933	542.4
393.337	522.6
393.74	532.6
394.144	528.2
394.548	521.4
394.953	522.8
395.357	524
395.761	527.2
396.144	527
396.548	523.8
396.952	521
397.357	533.4
397.761	528.2
398.166	529.6
398.57	522.4
398.975	519.6
399.379	532.6
399.763	567.8
400.168	534.4
400.572	536
400.977	520.6
401.382	543.4
401.787	535.4
402.192	540.4
402.597	534.4
403.002	513.6
403.386	537.4
403.791	540.8
404.197	528.8
404.602	523.6
405.007	523.6
405.413	525.4
405.818	528.2
406.224	526
406.608	519
407.014	517.8
407.42	545.6
407.825	525.6
408.231	530.6
408.637	531.2
409.043	544.4
409.449	522
409.834	522
410.24	531.6
410.646	537.8
411.052	532.4
411.458	533.4
411.865	540
412.271	536
412.677	533.2
413.062	535.4
413.469	520.4
413.875	556.2
414.282	529
414.689	533.4
415.095	533.4
415.502	523.6
415.888	534.6
416.294	517.8
416.701	557.4
417.108	525.2
417.515	535.8
417.923	531.6
418.33	546.2
418.715	539.8
419.123	523.6
419.53	521.4
419.937	530
420.345	536.8
420.752	524.8
421.16	537.2
421.546	526.4
421.953	530.4
422.361	520.4
422.769	534.2
423.177	521.6
423.585	547.4
423.992	544
424.379	539.6
424.787	548.4
425.195	542.8
425.603	526.2
426.011	534.6
426.419	544
426.806	524.8
427.214	524
427.623	526.2
428.031	539.6
428.44	528.8
428.848	533.2
429.235	535.6
429.644	531.4
430.053	522.2
430.461	537.6
430.87	543.8
431.279	534.2
431.666	520.4
432.075	530.4
432.484	534.2
432.893	525.2
433.302	536.2
433.711	561.2
434.099	521.6
434.508	523.6
434.918	520.6
435.327	535.8
435.737	534.4
436.125	528.8
436.534	530.2
436.944	528
437.353	526.6
437.763	548.4
438.173	519.8
438.561	538.4
438.971	517.4
439.381	523.6
439.791	532.6
440.201	516.6
440.589	525
440.999	531
441.409	531
441.819	518.2
442.23	529
442.619	536.8
443.029	526.8
443.439	526.4
443.85	530.8
444.26	534.8
444.649	536.4
445.06	535
445.471	519.6
445.881	525.4
446.292	544.2
446.682	545.8
447.092	513.8
447.503	568.4
447.914	529.8
448.325	525.8
448.715	526.8
449.126	522
449.537	522.6
449.948	525.8
450.338	522.6
450.75	530
451.161	524.6
451.572	527.8
451.984	517
452.374	512.2
452.786	520.8
453.197	526.8
453.609	534.2
453.999	515.6
454.411	517.4
454.823	530.6
455.235	521.2
455.647	522.2
456.037	528.8
456.449	516.2
456.862	523.4
457.274	528.6
457.665	526.2
458.077	531.2
458.489	547.4
458.902	530.6
459.293	526.8
459.705	527
460.118	518.8
460.53	527.2
460.921	531
461.334	528.6
461.747	523.2
462.16	527.2
462.551	533.8
462.964	520.4
463.377	514.6
463.79	520.8
464.182	532.6
464.595	525.6
465.008	522.8
465.421	538
465.813	520.8
466.226	526.8
466.64	524
467.053	562.4
467.445	534.8
467.859	532.8
468.272	529
468.686	539.6
469.078	526
469.492	519.2
469.906	524.4
470.298	527.2
470.712	524.8
471.126	542.4
471.54	516.4
471.933	518.4
472.347	519.4
472.761	519
473.175	517.4
473.568	513.6
473.982	511.2
474.397	516
474.79	522.6
475.204	519.4
475.619	520.8
476.033	519.6
476.426	525.4
476.841	515
477.256	544.2
477.649	506.8
478.064	509.8
478.479	514
478.872	519
479.287	502.6
479.702	515
480.118	512.8
480.511	522.2
480.927	515
481.342	514.6
481.736	519.6
482.151	510
482.566	524.4
482.96	519.6
483.376	529.2
483.792	510
484.186	531.6
484.602	515.6
485.017	522.2
485.412	520.2
485.827	516.8
486.243	525.2
486.638	542
487.054	520.8
487.47	530.4
487.865	520.8
488.281	513.2
488.697	521
489.092	520.4
489.508	521.6
489.925	525.6
490.32	510
490.736	529.2
491.153	523.4
491.548	520.2
491.964	524.8
492.381	510
492.776	521.8
493.193	521.4
493.61	533
494.006	516
494.422	521
494.84	515.4
495.235	530
495.652	519
496.069	512.8
496.465	514.6
496.883	515
497.3	550
497.696	514.8
498.113	528
498.509	515.4
498.927	504.8
499.344	515.8
499.741	510
500.158	529.6
500.576	529.4
500.973	516
501.39	505.8
501.787	516
502.205	520.6
502.623	512.6
503.02	504.8
503.438	509.8
503.856	519
504.253	522.6
504.671	518.6
505.068	512.6
505.486	516.4
505.905	530.8
506.302	523.2
506.72	519.4
507.118	507.8
507.536	518.2
507.955	519.8
508.352	520.4
508.771	515.4
509.169	517.4
509.587	510.4
510.006	518.6
510.404	504.6
510.823	510.4
511.221	520.8
511.64	513
512.038	530.4
512.457	518
512.877	520.2
513.275	517.2
513.694	515.8
514.092	511.8
514.512	517.8
514.91	523.6
515.33	518.8
515.749	516.2
516.148	515.6
516.568	515.2
516.966	518
517.386	517.2
517.785	511.2
518.205	512.4
518.603	506.6
519.024	511.4
519.444	518.6
519.843	525.6
520.263	526.4
520.662	520
521.082	517.6
521.481	513.4
521.902	515.4
522.301	515.6
522.722	513.6
523.121	509.2
523.542	512
523.963	518.4
524.362	511.8
524.783	510.4
525.183	511.6
525.604	514.6
526.003	518.6
526.425	513.6
526.824	513.8
527.246	518.6
527.646	515.6
528.067	515
528.467	513.4
528.888	516.4
529.289	513.8
529.71	513.2
530.11	513.4
530.532	511.6
530.932	508.4
531.354	511.6
531.755	542.4
532.176	522.6
532.577	516.4
532.999	521.2
533.4	514.8
533.822	524.6
534.223	518
534.645	510.6
535.046	513.8
535.468	511.4
535.869	527.6
536.292	513
536.693	549.2
537.115	517.4
537.516	513.8
537.939	507
538.34	525.8
538.742	528.8
539.165	513.2
539.566	517.2
539.989	515.2
540.391	508.6
540.814	512.4
541.216	515.6
541.639	511.6
542.041	523.6
542.464	513.2
542.866	513.2
543.268	502.2
543.691	522.4
544.093	523.4
544.517	536.6
544.919	511.6
545.343	534.6
545.745	506.2
546.147	514.8
546.571	503.4
546.974	511.6
547.398	515
547.8	518.2
548.224	512.2
548.627	509.4
549.03	519.2
549.454	510
549.857	505.4
550.281	508.8
550.684	501.4
551.087	524
551.512	515.2
551.915	513.8
552.34	513
552.743	511
553.146	511.8
553.571	505.6
553.975	525.6
554.399	509.4
554.803	556.6
555.207	513.2
555.632	512
556.036	516.6
556.461	511.2
556.865	513.4
557.268	510.8
557.694	515.6
558.098	521.4
558.502	521.2
558.927	509.8
559.332	513.4
559.736	514.4
560.162	513.8
560.566	511.4
560.992	513.8
561.396	508.6
561.801	510.6
562.227	507
562.631	521.8
563.036	516
563.462	521.8
563.867	519.4
564.272	498
564.698	516.4
565.103	506.4
565.508	533.4
565.935	509.8
566.34	510.6
566.745	525.8
567.172	514.6
567.577	533.6
567.982	522.2
568.409	521.2
568.815	506.8
569.22	510.2
569.626	518
570.053	504.6
570.459	512.8
570.865	512
571.292	522.8
571.698	513.2
572.104	504
572.531	510.4
572.937	521.6
573.343	509.6
573.75	498.4
574.177	511.2
574.583	516.8
574.99	503.6
575.396	516.6
575.824	513.4
576.231	515
576.637	510.2
577.065	539.4
577.472	509.2
577.879	501.2
578.286	524.8
578.714	500.4
579.121	510.2
579.528	503
579.935	514.2
580.364	509
580.771	499.4
581.178	503.8
581.585	512.4
582.014	508.8
582.421	506.2
582.829	509
583.236	515.4
583.644	513.2
584.073	512.2
584.481	507.2
584.889	508.2
585.296	512.4
585.726	513
586.134	499.2
586.542	514.8
586.95	523.6
587.358	503.4
587.787	513.4
588.196	505.2
588.604	511.2
589.012	513.8
589.421	504.4
589.851	515
590.259	513.2
590.668	513.4
591.076	542
591.485	505
591.894	510
592.324	514.8
592.733	526
593.142	501
593.551	511.2
593.96	511.2
594.369	508.4
594.8	508.6
595.209	511.6
595.618	498
596.028	510
596.437	504.2
596.847	509.2
597.256	513
597.687	518
598.097	519.4
598.507	500.8
598.917	519.6
599.327	514
599.736	514.6
600.146	511
600.556	524.4
600.988	522.6
601.398	509.8
601.808	517
602.219	505.6
602.629	520.2
603.039	508.8
603.45	541.2
603.86	513.2
604.271	523.4
604.703	512.8
605.114	510.6
605.525	509
605.935	521
606.346	532.4
606.757	505.8
607.168	513.2
607.579	512.4
607.99	519.6
608.402	520
608.813	513.2
609.224	512.4
609.636	506.2
610.047	507.6
610.48	517.6
610.892	514.6
611.303	514.2
611.715	523
612.127	503.2
612.539	515.4
612.95	519
613.362	505.8
613.774	511.2
614.186	501
614.599	511.4
615.011	522
615.423	517.6
615.835	511.8
616.248	507
616.66	516
617.073	509.6
617.485	512.2
617.898	517.4
618.311	518.2
618.723	516
619.136	531.6
619.549	517.6
619.962	526.6
620.375	510.8
620.788	514.2
621.201	506.8
621.614	524.8
622.028	512.6
622.441	515.8
622.854	531
623.268	507.2
623.681	511
624.095	507.6
624.509	521.4
624.922	515.6
625.336	501.4
625.728	518
626.142	524
626.556	522.4
626.97	518
627.384	508.4
627.799	514.6
628.213	529.4
628.627	520.4
629.041	514
629.456	517
629.87	512
630.285	527
630.699	526.8
631.093	512.4
631.507	516.2
631.922	518.8
632.337	527.4
632.752	513.6
633.167	516.6
633.582	524.2
633.997	512.2
634.412	506.4
634.806	517.2
635.221	513.6
635.637	518.4
636.052	509.2
636.468	518.4
636.883	538.4
637.299	518
637.715	508.6
638.109	517.4
638.525	507.2
638.941	529.4
639.357	522
639.773	530.4
640.189	515.6
640.584	512.4
641	521.6
641.416	500.8
641.832	513
642.249	513
642.665	513.4
643.06	515
643.477	517.6
643.894	504.8
644.31	515.4
644.727	504
645.123	508.4
645.54	504.2
645.957	517
646.374	525
646.77	513.2
647.187	536.4
647.604	510.2
648.021	503.2
648.439	500.4
648.835	514.4
649.252	511.6
649.67	505.8
650.088	512.2
650.484	515.6
650.902	516.2
651.32	520
651.738	508.8
652.134	509.8
652.552	533.8
652.971	509
653.389	510
653.786	525.4
654.204	513.4
654.622	501
655.019	512.2
655.438	517.4
655.857	511
656.275	517.8
656.673	511.2
657.091	519.4
657.51	509.4
657.908	518.6
658.327	518.8
658.746	509.2
659.144	511.6
659.563	525.2
659.982	516.8
660.38	504.6
660.8	514.4
661.219	519.4
661.617	520.4
662.037	516.2
662.457	523
662.855	498
663.275	540.6
663.695	516.8
664.094	510.4
664.514	511.4
664.934	506.2
665.333	514.6
665.753	507.2
666.152	505.2
666.572	514
666.993	514.4
667.392	505.4
667.812	511
668.212	501.2
668.632	515.8
669.053	510.2
669.453	518.6
669.874	501.4
670.273	509.6
670.694	509
671.116	521.6
671.515	517
671.937	502.6
672.337	502.2
672.758	498.8
673.158	510.8
673.58	496.6
673.98	516.4
674.402	514
674.824	504.6
675.224	501.4
675.646	496.6
676.047	505.6
676.469	508.2
676.869	514.2
677.292	513.2
677.693	499.6
678.115	502.4
678.516	511.8
678.939	502.4
679.34	505.4
679.762	516.4
680.164	509
680.586	493
680.988	511.2
681.411	524.8
681.812	499.6
682.236	502.2
682.637	505
683.061	502.4
683.462	515.2
683.864	509
684.288	521.2
684.69	503.2
685.114	517.4
685.516	513.4
685.94	502.4
686.342	516
686.766	504.6
687.168	508.8
687.571	517.8
687.995	506.8
688.398	505.2
688.822	498.4
689.225	512.2
689.628	529.4
690.052	501.2
690.456	507.6
690.88	503
691.284	502.2
691.687	509.4
692.112	498.6
692.515	500.4
692.919	506.2
693.344	512.2
693.747	500.4
694.173	497.6
694.577	517
694.98	506.8
695.406	508.2
695.81	509.8
696.214	510.2
696.64	508
697.044	502.2
697.448	516.6
697.874	499.4
698.279	502.8
698.684	498.2
699.11	500.8
699.514	498.6
699.919	503
700.324	499.8
700.75	507.2
701.156	505.4
701.561	516.6
701.987	505.4
702.393	513.4
702.798	522.2
703.203	511
703.63	503.4
704.036	498.6
704.442	504.2
704.847	501.4
705.274	507
705.68	514.8
706.086	512.2
706.492	498.4
706.92	506.6
707.326	517.6
707.732	503.2
708.139	500.2
708.545	501.6
708.973	495.2
709.38	505.6
709.786	497.6
710.193	508.8
710.6	493
711.028	500
711.435	512
711.842	498.6
712.249	494.4
712.656	507
713.064	506.8
713.492	500.4
713.9	499.8
714.307	505.6
714.715	499.4
715.123	509.6
715.53	507.4
715.938	508.4
716.367	502.8
716.775	498.8
717.184	501.4
717.592	503.6
718	507
718.408	529.2
718.816	536.8
719.225	506
719.633	498.4
720.042	496
720.472	496.2
720.881	519.6
721.29	505.6
721.699	493.8
722.108	502.4
722.517	495.6
722.926	502.8
723.335	502.2
723.744	503.4
724.154	505.8
724.563	512.2
724.973	502.4
725.382	503.4
725.792	511.8
726.202	498.4
726.612	510
727.022	501.8
727.432	498.8
779.813	504.8
780.223	538.8
780.634	498.4
781.044	502.8
781.454	502.4
781.865	510.8
782.276	499
782.686	507.8
783.097	509
783.508	507.4
783.919	504.6
784.33	512.2
784.741	519.2
785.152	500.4
785.563	494.4
785.974	503.8
786.386	514.4
786.776	501.6
787.188	502.4
787.599	495.8
788.011	517.2
788.423	508.6
788.835	501.2
789.247	498
789.659	493
790.071	499.6
790.483	535
790.874	499.2
791.286	506.4
791.699	497.6
792.111	502.4
792.524	505.8
792.937	490.8
793.349	503.6
793.741	494.6
794.154	490.2
794.567	517.2
794.98	499.8
795.393	489.8
795.785	507.6
796.198	499.2
796.612	497
797.026	499.6
797.439	487.4
797.831	500.6
798.245	494.4
798.659	503.6
799.073	496
799.487	500
799.88	502
800.294	503.6
800.708	506.4
801.123	505
801.516	520.8
801.93	495.6
802.345	491.4
802.76	508.2
803.153	514.4
803.568	512.2
803.983	509.8
804.377	495.6
804.792	491.8
805.207	489.4
805.601	508
806.016	529.4
806.432	498.6
806.826	532.8
807.242	520.8
807.658	502.2
808.052	496
808.468	496.2
808.884	499.8
809.279	506.6
809.695	503.6
810.111	520.8
810.506	497.6
810.922	517
811.339	507.6
811.734	510.6
812.151	503
812.546	499.8
812.963	500
813.38	503
813.776	513.4
814.193	521
814.589	503.4
815.006	503
815.402	501
815.82	491.6
816.237	502
816.633	511
817.051	494.6
817.448	504.2
817.866	493.4
818.262	516.6
818.68	495.4
819.077	494.6
819.495	501.8
819.892	534.4
820.311	494.6
820.708	498.4
821.127	504.8
821.524	519.2
821.943	499.6
822.34	514.4
822.759	501.2
823.157	503.4
823.576	505.2
823.974	495
824.393	553.4
824.791	488.4
825.189	499
825.609	496.4
826.007	499.2
826.427	490.6
826.826	490.2
827.246	499.2
827.644	490.6
828.043	514.2
828.463	496.4
828.862	506.8
829.261	510.8
829.682	489.2
830.081	509.8
830.502	490.8
830.901	500.2
831.301	495.4
831.722	494.2
832.121	495.4
832.521	491.8
832.943	507.2
833.342	496.2
833.742	492.2
834.164	508.8
834.564	499
834.965	499.4
835.386	500.2
835.787	506.4
836.188	504.4
836.588	502.6
837.01	503.8
837.411	496.4
837.812	510.8
838.213	502
838.636	502.8
839.037	549.8
839.438	496.8
839.84	501.6
840.263	515.4
840.664	503.4
841.066	506
841.468	504.4
841.891	499.2
842.293	503.2
842.695	507.6
843.098	507.8
843.5	505.6
843.902	510
844.326	508.8
844.729	501.6
845.131	509.8
845.534	506.6
845.937	510
846.34	509.2
846.764	492.4
847.167	503.4
847.571	491.2
847.974	491
848.377	489.4
848.781	535.4
849.184	503.8
849.588	499.2
849.992	490
850.396	503.8
850.821	520.2
851.225	504.4
851.63	505.4
852.034	511.8
852.438	495.4
852.843	561.4
853.247	496.6
853.652	489
854.057	510.2
854.462	500.8
854.867	505.6
855.272	525.6
855.677	496.4
