#lambda/nm	C1
208.295	471.2
208.67	433.6
209.045	397.4
209.419	402.4
209.794	539.8
210.169	529.4
210.544	622.4
210.919	538
211.295	528.8
211.67	546
212.045	534.2
212.421	534.8
212.796	567.2
213.172	533.6
213.547	534.2
213.923	530
214.299	539.8
214.675	546.2
215.051	543
215.427	541.2
215.803	548.6
216.179	538.6
216.555	542.4
216.932	551.6
217.308	537.4
217.684	536.2
218.061	540.2
218.438	544.4
218.814	540.4
219.191	546.6
219.568	525.8
219.945	530
220.322	546.8
220.699	547
221.076	542.8
221.453	540.4
221.83	528
222.208	533.4
222.585	528.8
222.962	535.2
223.34	535.4
223.717	543.2
224.095	533.4
224.473	533
224.851	536
225.229	528.8
225.607	553
225.985	526.2
226.363	540.8
226.741	537.6
227.119	535.2
227.497	550.6
227.876	521.4
228.254	544
228.633	540.2
229.011	536
229.39	537.2
229.769	534
230.148	546
230.527	557.6
230.905	538.2
231.284	540
231.664	528.4
232.043	543
232.422	548
232.801	529.4
233.181	541
233.56	533.2
233.94	539
234.319	527.2
234.699	539.4
235.079	567.4
235.458	569.2
235.838	543.2
236.218	532.2
236.598	528.4
236.978	534
237.358	530
237.738	529
238.119	548
238.499	523.8
238.88	537
239.26	550.8
239.641	521.8
240.021	531.4
240.402	536.4
240.783	539
241.163	528.2
241.544	536.8
241.925	541.4
242.306	544.4
242.687	529.4
243.069	543.2
243.45	550.4
243.831	534
244.212	531.4
244.594	564.6
244.975	539.8
245.357	544
245.739	526
246.12	540.6
246.502	538.6
246.884	530.2
247.266	524
247.648	544.6
248.03	552.2
248.412	535.6
248.794	539.6
249.176	534
249.559	544.6
249.941	536.2
250.323	530.2
250.706	532.6
251.089	539.2
251.471	536.8
251.854	538.6
252.237	535
252.62	553.8
253.002	535.8
253.385	534.6
253.769	548.8
254.152	539.6
254.535	547
254.918	536.6
255.301	535.6
255.685	527.4
256.068	528
256.452	559.8
256.835	538.2
257.219	535
257.603	543.6
257.986	525
258.37	531.2
258.754	526.4
259.138	534.8
259.522	537.2
259.906	531.2
260.29	547.8
260.675	535
261.059	534.8
261.443	526.8
261.828	533.6
262.212	537.6
262.597	532.2
262.981	529.4
263.366	548.6
263.751	536
264.136	528.8
264.521	532.6
264.906	529.8
265.291	541.8
265.676	525
266.061	539.8
266.446	556.6
266.831	533.4
267.217	549
267.602	537.8
267.987	537.8
268.373	541
268.759	546.8
269.144	544.2
269.53	534.2
269.916	537.2
270.302	531.2
270.688	540.4
271.074	529
271.46	541.6
271.846	548
272.232	530.8
272.618	529.2
273.004	528
273.391	536
273.777	546.2
274.164	533.8
274.55	547.2
274.937	528.2
275.324	536
275.71	536.2
276.097	542.4
276.484	524
276.871	536.2
277.258	532.6
277.645	527.2
278.032	535.6
278.419	535.6
278.807	537.8
279.194	531.6
279.581	527.8
279.969	541.2
280.356	533.6
280.744	536
281.131	554.2
281.519	543.2
281.907	534.8
282.295	527.6
282.682	546.4
283.07	534
283.458	535.6
283.846	539.2
284.235	541.6
284.623	539.4
285.011	526.2
285.399	542.4
285.788	541.4
286.176	523.2
286.565	544
286.953	538.4
287.342	534.4
287.731	530.2
288.119	528.8
288.508	536
288.897	530.4
289.286	523.8
289.675	532.8
290.064	542.4
290.453	534.6
290.821	531.6
291.21	553.2
291.599	538.2
291.989	537.8
292.378	541
292.768	555.2
293.157	541
293.547	546.2
293.936	531.2
294.326	534.8
294.716	544.2
295.106	529.8
295.496	546.4
295.886	547
296.276	530.8
296.666	528.8
297.056	533.4
297.446	531.8
297.836	543.8
298.227	533.2
298.617	532.8
299.008	548
299.398	536.8
299.789	535
300.179	540.8
300.57	546.2
300.961	532.8
301.352	534.8
301.742	547
302.133	535
302.524	539.6
302.915	532.2
303.307	526
303.698	542
304.089	539.6
304.48	541
304.872	546.2
305.263	539.8
305.655	534.8
306.046	543
306.438	538.2
306.829	533
307.221	547.2
307.613	543.8
308.005	546.2
308.397	542.8
308.789	554.8
309.181	564.8
309.573	547.6
309.965	547
310.357	538.4
310.749	549.4
311.142	529.6
311.534	528.4
311.926	543
312.319	532
312.711	533.6
313.104	547.2
313.497	538.4
313.889	564
314.282	552.8
314.675	551.2
315.068	534.2
315.461	542.2
315.854	557.8
316.247	537.6
316.64	532.4
317.033	540.6
317.405	547.8
317.798	533.8
318.192	541
318.585	533.4
318.979	545.8
319.372	533.8
319.766	533.2
320.16	550.2
320.553	551.6
320.947	557.8
321.341	531.4
321.735	534.8
322.129	529.8
322.523	557.4
322.917	529.8
323.311	549.6
323.705	530.4
324.099	548.8
324.494	553.4
324.888	549.2
325.282	538
325.677	546.4
326.071	542.2
326.466	550.8
326.861	533.6
327.255	538
327.65	550
328.045	549.4
328.44	531.2
328.835	533.2
329.23	532.2
329.625	551.6
330.02	526
330.415	546.4
330.81	532.6
331.206	538.4
331.601	540.8
331.996	544.4
332.37	557.2
332.766	523.8
333.161	561
333.557	526.8
333.953	535
334.348	834.8
334.744	537
335.14	527.2
335.536	534
335.932	546.6
336.328	530.8
336.724	541.2
337.12	531.6
337.516	536.8
337.913	538.8
338.309	548.4
338.705	538.4
339.102	552
339.498	534.6
339.895	547
340.291	534.8
340.688	541.8
341.085	527.8
341.481	539.4
341.878	537.4
342.275	553
342.672	525.2
343.069	539.6
343.466	524.2
343.842	541.2
344.239	535.8
344.636	541.2
345.033	531.6
345.431	524.6
345.828	529.2
346.225	525
346.623	560.6
347.02	536.2
347.418	540.2
347.816	544.4
348.213	530.6
348.611	529.2
349.009	529.8
349.407	544.6
349.805	527.8
350.203	522.4
350.601	545
350.999	531.8
351.397	566.8
351.795	536.6
352.193	544
352.57	540.4
352.969	540.6
353.367	516.8
353.766	524.6
354.164	530.6
354.563	541.4
354.961	531.6
355.36	526.4
355.759	527.2
356.158	522.8
356.557	524.4
356.956	529
357.355	519
357.754	528.6
358.153	534.4
358.552	553.8
358.951	526.6
359.35	540.4
359.75	528.6
360.149	520.8
360.527	518
360.926	535.6
361.326	523.4
361.726	526
362.125	529.8
362.525	543.4
362.925	524.8
363.325	534
363.724	535
364.124	524.4
364.524	519.6
364.924	528.8
365.324	536
365.725	521.4
366.125	542.4
366.525	526.2
366.904	525.8
367.304	514.8
367.705	539
368.105	544.2
368.506	525.6
368.906	526.2
369.307	523
369.708	536.4
370.108	518.6
370.509	539.4
370.91	520.8
371.311	528.8
371.712	530.6
372.113	523.6
372.514	516.8
372.894	520
373.295	521.6
373.696	541.2
374.097	540.4
374.499	549.4
374.9	534.4
375.301	514.4
375.703	532.4
376.105	516.4
376.506	532.4
376.908	527.6
377.309	527.6
377.711	527.8
378.113	517.4
378.493	528.2
378.895	521.6
379.297	528.8
379.699	518.8
380.102	525.8
380.504	528.8
380.906	531.8
381.308	545.4
381.71	524.4
382.113	539.4
382.515	521.2
382.918	526.4
383.299	525.4
383.701	532.8
384.104	535.2
384.507	509
384.909	526.8
385.312	524
385.715	520.2
386.118	529.2
386.521	518.6
386.924	532.4
387.327	527.8
387.709	522.6
388.112	507.2
388.515	523.2
388.918	517.2
389.322	531
389.725	522
390.129	538.2
390.532	530.8
390.936	533.2
391.339	525.2
391.743	530.2
392.125	521
392.529	540.2
392.933	541.8
393.337	527.4
393.74	522
394.144	520.6
394.548	514.2
394.953	531
395.357	537.6
395.761	524
396.144	529.4
396.548	528.2
396.952	529.6
397.357	530.8
397.761	514.6
398.166	520.6
398.57	523.8
398.975	524.2
399.379	530
399.763	568
400.168	531.8
400.572	527.6
400.977	523
401.382	545.2
401.787	539.8
402.192	539.4
402.597	540
403.002	520
403.386	532.4
403.791	545
404.197	528.8
404.602	527.6
405.007	528.6
405.413	524.2
405.818	534.4
406.224	525.6
406.608	521.6
407.014	518
407.42	540.4
407.825	521
408.231	535.4
408.637	535.6
409.043	540.6
409.449	518.4
409.834	524.4
410.24	531.8
410.646	535
411.052	539.4
411.458	525.8
411.865	534.4
412.271	536.2
412.677	531.4
413.062	539
413.469	517.2
413.875	554.6
414.282	538.6
414.689	533.2
415.095	539.4
415.502	527.8
415.888	536.2
416.294	518
416.701	568.2
417.108	515.2
417.515	539.4
417.923	523
418.33	538.2
418.715	540.2
419.123	528
419.53	532.8
419.937	530.8
420.345	544.4
420.752	525.4
421.16	532.4
421.546	525.6
421.953	534.8
422.361	526.2
422.769	528.4
423.177	526.6
423.585	551.4
423.992	546.8
424.379	535
424.787	534.6
425.195	540.8
425.603	525.8
426.011	532.2
426.419	542
426.806	532.6
427.214	526.4
427.623	532.6
428.031	546
428.44	531.4
428.848	543.2
429.235	537.8
429.644	532
430.053	533.6
430.461	546
430.87	558.6
431.279	533.2
431.666	526.2
432.075	529.6
432.484	532.6
432.893	520.6
433.302	536.4
433.711	566.6
434.099	531.8
434.508	528.4
434.918	528.2
435.327	539.6
435.737	529.4
436.125	530.8
436.534	535.6
436.944	531.8
437.353	532.2
437.763	543.4
438.173	519.6
438.561	538
438.971	518
439.381	533
439.791	525
440.201	514.4
440.589	531.2
440.999	538.8
441.409	528.8
441.819	516.2
442.23	532.2
442.619	534.8
443.029	522.2
443.439	531.8
443.85	541.2
444.26	543.8
444.649	533.6
445.06	526
445.471	528.6
445.881	529.2
446.292	548
446.682	541.2
447.092	514.4
447.503	574.6
447.914	532.4
448.325	529.8
448.715	521
449.126	522
449.537	530.4
449.948	530.4
450.338	524.4
450.75	543.8
451.161	521.6
451.572	533.4
451.984	526.8
452.374	517.4
452.786	522.2
453.197	526
453.609	524.6
453.999	509.4
454.411	515.8
454.823	536.2
455.235	525
455.647	518.2
456.037	537.2
456.449	514.8
456.862	521.8
457.274	523
457.665	517.8
458.077	531
458.489	548.6
458.902	525.2
459.293	527.6
459.705	531.4
460.118	516.4
460.53	527.6
460.921	530.4
461.334	532.2
461.747	527
462.16	539.6
462.551	530
462.964	537.2
463.377	521.2
463.79	526
464.182	536
464.595	511.8
465.008	525.8
465.421	528.4
465.813	520.4
466.226	525.2
466.64	524.4
467.053	559.8
467.445	531.4
467.859	537.8
468.272	523.8
468.686	534.6
469.078	516.4
469.492	516.2
469.906	528.2
470.298	527.2
470.712	520.2
471.126	547.2
471.54	514.2
471.933	509.6
472.347	523.4
472.761	518.6
473.175	513.6
473.568	513
473.982	522
474.397	526
474.79	515
475.204	523.4
475.619	515.2
476.033	526.8
476.426	515.4
476.841	517
477.256	536.2
477.649	511.4
478.064	511.4
478.479	512.6
478.872	518.2
479.287	508.6
479.702	515.2
480.118	520.4
480.511	518.8
480.927	516.4
481.342	518.2
481.736	531.2
482.151	516.8
482.566	524
482.96	516.4
483.376	524.2
483.792	512.4
484.186	523.8
484.602	520.4
485.017	519.4
485.412	529.6
485.827	525
486.243	519.6
486.638	541
487.054	524.8
487.47	533.2
487.865	523.6
488.281	509.4
488.697	516.6
489.092	522.2
489.508	516.6
489.925	525.6
490.32	518.6
490.736	525
491.153	522.6
491.548	516.8
491.964	533.4
492.381	501.8
492.776	524.4
493.193	518.4
493.61	520.6
494.006	528.2
494.422	527.6
494.84	514.8
495.235	522.2
495.652	529.8
496.069	517.8
496.465	509.8
496.883	524.4
497.3	542
497.696	516
498.113	519
498.509	515
498.927	514.4
499.344	516
499.741	518.2
500.158	517.8
500.576	532.4
500.973	523.4
501.39	515.2
501.787	506.4
502.205	519.6
502.623	521.2
503.02	510.8
503.438	513.6
503.856	520.8
504.253	522.4
504.671	526.8
505.068	511.6
505.486	517.4
505.905	532.6
506.302	514.8
506.72	529.6
507.118	507.2
507.536	513.4
507.955	513.4
508.352	517.4
508.771	527
509.169	526.4
509.587	522
510.006	526.2
510.404	512.8
510.823	507.4
511.221	516
511.64	510.4
512.038	532.2
512.457	525.2
512.877	524.2
513.275	519.4
513.694	513.4
514.092	520
514.512	522.6
514.91	522.6
515.33	521.4
515.749	521.4
516.148	517.6
516.568	520.2
516.966	521.8
517.386	512.6
517.785	514.6
518.205	517
518.603	503
519.024	506.8
519.444	518
519.843	528.8
520.263	512.8
520.662	517.8
521.082	512
521.481	512.8
521.902	513.2
522.301	517.8
522.722	512.4
523.121	509.6
523.542	515.6
523.963	506.2
524.362	510.8
524.783	521.6
525.183	516.4
525.604	517.2
526.003	513
526.425	510.4
526.824	530.8
527.246	519.6
527.646	530.2
528.067	514.6
528.467	515.8
528.888	526.2
529.289	514.4
529.71	516
530.11	513
530.532	510.2
530.932	512.2
531.354	511.4
531.755	540.8
532.176	516.2
532.577	512.2
532.999	514.6
533.4	512.8
533.822	519.6
534.223	513.8
534.645	509.4
535.046	514.6
535.468	515
535.869	532.2
536.292	518.6
536.693	543.2
537.115	512.6
537.516	516.4
537.939	507
538.34	534.2
538.742	527.6
539.165	519
539.566	523
539.989	510.2
540.391	509.4
540.814	523.2
541.216	520.6
541.639	522.8
542.041	516.2
542.464	507.8
542.866	510
543.268	500.6
543.691	515.2
544.093	523
544.517	531.6
544.919	510.6
545.343	534.6
545.745	508.2
546.147	508.4
546.571	510.2
546.974	508.2
547.398	514.6
547.8	522.4
548.224	506.2
548.627	512.6
549.03	523.2
549.454	501.6
549.857	503.6
550.281	502.4
550.684	510.8
551.087	528.6
551.512	513.6
551.915	516.6
552.34	513.8
552.743	505
553.146	511.8
553.571	520
553.975	527
554.399	508.4
554.803	553.4
555.207	510.4
555.632	506.4
556.036	516.4
556.461	513.4
556.865	509.6
557.268	509.6
557.694	511.6
558.098	521
558.502	510
558.927	517.2
559.332	512.6
559.736	515.6
560.162	517.8
560.566	510.8
560.992	513.4
561.396	516.8
561.801	511.4
562.227	515
562.631	507.4
563.036	508.8
563.462	519.8
563.867	518
564.272	504.4
564.698	513.4
565.103	502.8
565.508	528.6
565.935	514.2
566.34	509.6
566.745	528.2
567.172	515.4
567.577	527.2
567.982	525.8
568.409	520
568.815	510.4
569.22	512.4
569.626	513.4
570.053	509.6
570.459	513.6
570.865	521
571.292	514.8
571.698	515
572.104	504.8
572.531	504.6
572.937	511.8
573.343	512.6
573.75	512.8
574.177	507
574.583	514.6
574.99	515
575.396	517
575.824	507.2
576.231	506.4
576.637	507.8
577.065	525.4
577.472	508.8
577.879	516.2
578.286	520.6
578.714	504.6
579.121	512.2
579.528	516
579.935	520
580.364	508
580.771	504.4
581.178	509
581.585	507.8
582.014	512.2
582.421	510.8
582.829	513.4
583.236	517
583.644	510.8
584.073	511.2
584.481	512
584.889	504.8
585.296	518.6
585.726	514.4
586.134	509.6
586.542	509
586.95	532.4
587.358	508.2
587.787	513.6
588.196	504.4
588.604	508
589.012	512.4
589.421	500.8
589.851	508.6
590.259	510
590.668	511
591.076	534.8
591.485	506.2
591.894	517.4
592.324	523.2
592.733	530.6
593.142	506.6
593.551	507.4
593.96	540.4
594.369	501.4
594.8	511
595.209	510.8
595.618	499.2
596.028	508
596.437	502.2
596.847	515.4
597.256	514.8
597.687	517.8
598.097	506.6
598.507	498
598.917	515.4
599.327	518.4
599.736	510.8
600.146	519.6
600.556	512
600.988	522
601.398	505
601.808	519.6
602.219	497.4
602.629	510.8
603.039	513.2
603.45	531
603.86	516
604.271	517.2
604.703	513.2
605.114	511.2
605.525	506
605.935	519.2
606.346	539.6
606.757	515.2
607.168	515
607.579	515
607.99	519.2
608.402	516.6
608.813	515.4
609.224	513.8
609.636	502.2
610.047	501.6
610.48	516.8
610.892	521.2
611.303	522.4
611.715	513.2
612.127	510
612.539	517.4
612.95	518.6
613.362	502.6
613.774	506.6
614.186	514
614.599	503.4
615.011	518.8
615.423	512
615.835	511.6
616.248	503.2
616.66	502
617.073	508.8
617.485	508.8
617.898	519
618.311	512
618.723	513.2
619.136	534.6
619.549	517.2
619.962	527.4
620.375	509.2
620.788	528.8
621.201	508
621.614	517.8
622.028	514.4
622.441	520.8
622.854	524.8
623.268	506.4
623.681	517
624.095	511.4
624.509	526.2
624.922	521.2
625.336	504.6
625.728	522.2
626.142	516.8
626.556	526.6
626.97	522.8
627.384	516.8
627.799	508.8
628.213	520.4
628.627	511.8
629.041	507.4
629.456	510.4
629.87	523.6
630.285	524.2
630.699	524.2
631.093	517.2
631.507	516.8
631.922	517
632.337	520.6
632.752	501
633.167	511.8
633.582	510.2
633.997	513.6
634.412	510.4
634.806	513.8
635.221	506.8
635.637	522.6
636.052	501
636.468	515
636.883	528.4
637.299	511.8
637.715	504.4
638.109	512.2
638.525	504.8
638.941	520.8
639.357	515
639.773	521.2
640.189	508.4
640.584	507.4
641	510
641.416	501.6
641.832	513.8
642.249	512.8
642.665	515.2
643.06	511
643.477	520.2
643.894	494
644.31	507.6
644.727	510.8
645.123	506.2
645.54	498
645.957	510.6
646.374	523.6
646.77	509.2
647.187	529.8
647.604	501
648.021	496.8
648.439	508.6
648.835	511
649.252	505.6
649.67	511.2
650.088	511.4
650.484	508.8
650.902	519
651.32	508.6
651.738	505.8
652.134	507
652.552	525.4
652.971	513
653.389	511.2
653.786	515.8
654.204	511
654.622	507.8
655.019	506.4
655.438	522.2
655.857	512
656.275	507.4
656.673	501
657.091	520.6
657.51	505
657.908	512
658.327	519
658.746	495.8
659.144	506.6
659.563	518.6
659.982	508.2
660.38	505.4
660.8	509.6
661.219	512.8
661.617	521.6
662.037	501
662.457	511
662.855	500.4
663.275	536
663.695	509.8
664.094	506.4
664.514	512.6
664.934	504
665.333	506.4
665.753	509.8
666.152	498.4
666.572	502.4
666.993	521
667.392	506.6
667.812	508.6
668.212	512.6
668.632	516.4
669.053	501.8
669.453	507.4
669.874	509.2
670.273	515
670.694	497.4
671.116	522
671.515	519.8
671.937	505.6
672.337	505.6
672.758	501.2
673.158	508.8
673.58	506.4
673.98	502
674.402	510.6
674.824	507
675.224	506
675.646	497.6
676.047	504
676.469	508.4
676.869	513.4
677.292	509
677.693	500.4
678.115	498.2
678.516	507.6
678.939	503.8
679.34	502.2
679.762	518.4
680.164	514.4
680.586	500.4
680.988	506
681.411	521.4
681.812	507.8
682.236	502
682.637	506.6
683.061	495
683.462	510
683.864	511
684.288	503.4
684.69	496.8
685.114	514.6
685.516	515.6
685.94	492.8
686.342	505.2
686.766	497
687.168	504
687.571	518.4
687.995	514
688.398	494
688.822	503.6
689.225	521.6
689.628	523.8
690.052	507.4
690.456	506.8
690.88	507.2
691.284	504.4
691.687	516.2
692.112	505
692.515	502
692.919	504
693.344	508.4
693.747	505.2
694.173	502.2
694.577	514.4
694.98	506.6
695.406	498.8
695.81	511.2
696.214	511
696.64	513.2
697.044	510.8
697.448	509.2
697.874	501.2
698.279	506.8
698.684	501.6
699.11	503.2
699.514	504.2
699.919	508.2
700.324	502.2
700.75	507
701.156	501.2
701.561	513.8
701.987	519.4
702.393	516
702.798	512.8
703.203	503.6
703.63	512.4
704.036	502.4
704.442	505.6
704.847	504.2
705.274	502.6
705.68	514.6
706.086	511
706.492	507
706.92	504
707.326	517.4
707.732	505
708.139	500
708.545	495
708.973	500
709.38	506.2
709.786	493.4
710.193	519
710.6	506.2
711.028	503.6
711.435	507.8
711.842	505.4
712.249	502.6
712.656	502.2
713.064	512.8
713.492	498
713.9	501
714.307	510.8
714.715	495.6
715.123	507.4
715.53	501.6
715.938	514.4
716.367	504.4
716.775	503.4
717.184	498.2
717.592	505
718	510.6
718.408	533
718.816	537.8
719.225	508
719.633	510.2
720.042	500.4
720.472	510
720.881	525
721.29	511.4
721.699	499.8
722.108	515
722.517	505
722.926	494.4
723.335	516.2
723.744	505.2
724.154	502.4
724.563	513.4
724.973	504.4
725.382	495.8
725.792	507.6
726.202	501.4
726.612	506
727.022	502.2
727.432	500
779.813	504.6
780.223	542
780.634	503.4
781.044	500.8
781.454	499.8
781.865	512
782.276	499.4
782.686	511.2
783.097	500.6
783.508	509.2
783.919	500.6
784.33	513.4
784.741	515
785.152	500
785.563	493.2
785.974	502.6
786.386	509.2
786.776	507.2
787.188	505.4
787.599	504.8
788.011	503.8
788.423	504
788.835	500.6
789.247	497.6
789.659	499.8
790.071	500.8
790.483	539.4
790.874	501.6
791.286	502.6
791.699	505.4
792.111	503.4
792.524	502.8
792.937	497
793.349	494.2
793.741	498.2
794.154	495.8
794.567	513.2
794.98	495.8
795.393	497.8
795.785	511
796.198	498.8
796.612	505.6
797.026	500.6
797.439	486
797.831	501.2
798.245	486.2
798.659	502.2
799.073	499.2
799.487	497.8
799.88	508.8
800.294	501.4
800.708	506
801.123	507.6
801.516	512.2
801.93	494.4
802.345	490
802.76	496.4
803.153	508
803.568	514
803.983	503.8
804.377	509.6
804.792	486.4
805.207	490.2
805.601	501.2
806.016	526.2
806.432	498.2
806.826	529.8
807.242	510
807.658	506.2
808.052	496.2
808.468	491
808.884	496.6
809.279	497.4
809.695	504.4
810.111	508.6
810.506	503
810.922	511.2
811.339	488.2
811.734	506.2
812.151	496.6
812.546	497.6
812.963	504.4
813.38	510.8
813.776	498.8
814.193	523.8
814.589	501.4
815.006	500.2
815.402	500.2
815.82	493.4
816.237	503.2
816.633	504.4
817.051	490
817.448	504.2
817.866	491
818.262	514.6
818.68	499.6
819.077	495.6
819.495	502.2
819.892	535.4
820.311	495.6
820.708	499.6
821.127	498.4
821.524	506.6
821.943	498.2
822.34	506.8
822.759	495.8
823.157	496.6
823.576	509.2
823.974	509.2
824.393	584
824.791	500.6
825.189	493
825.609	501.4
826.007	496
826.427	493.2
826.826	502.6
827.246	505
827.644	489.8
828.043	507
828.463	496.6
828.862	504.6
829.261	504.6
829.682	492.2
830.081	511.6
830.502	503
830.901	506.2
831.301	505.6
831.722	491.4
832.121	497
832.521	497.2
832.943	497
833.342	512
833.742	497
834.164	504.2
834.564	493.4
834.965	507
835.386	503.6
835.787	501.6
836.188	492.6
836.588	496.8
837.01	499.2
837.411	489
837.812	506.8
838.213	502.2
838.636	502.6
839.037	552.4
839.438	502
839.84	503
840.263	500
840.664	503.6
841.066	494.4
841.468	492.2
841.891	503.8
842.293	507
842.695	509.6
843.098	510.4
843.5	501.8
843.902	508.2
844.326	505.2
844.729	495.8
845.131	514
845.534	493.8
845.937	504.8
846.34	510
846.764	495.4
847.167	504.6
847.571	493
847.974	505.2
848.377	510.2
848.781	538.2
849.184	513.4
849.588	497.8
849.992	495.8
850.396	497.2
850.821	511.6
851.225	493.6
851.63	502.8
852.034	517
852.438	501.8
852.843	566.2
853.247	499
853.652	489
854.057	509
854.462	503.8
854.867	503
855.272	518.4
855.677	508.6
856.082	501.8
856.487	496.2
856.893	507
857.298	502.8
857.704	503
