#lambda/nm	C1
208.295	468.6
208.67	437
209.045	397.4
209.419	396.4
209.794	540.4
210.169	520
210.544	623.4
210.919	542
211.295	533
211.67	535.8
212.045	535.2
212.421	533.8
212.796	563.4
213.172	531.2
213.547	542.4
213.923	537.8
214.299	523.2
214.675	544.2
215.051	538.4
215.427	537.4
215.803	553.4
216.179	542
216.555	531.2
216.932	541.4
217.308	535
217.684	524.2
218.061	545
218.438	533.4
218.814	534.8
219.191	553
219.568	531.6
219.945	538
220.322	537
220.699	531
221.076	550.4
221.453	539.2
221.83	526.8
222.208	539.6
222.585	531.2
222.962	534
223.34	538.6
223.717	534
224.095	538.2
224.473	533.2
224.851	530.6
225.229	525.2
225.607	543.2
225.985	525.6
226.363	536.6
226.741	543.4
227.119	535.2
227.497	544.8
227.876	536.8
228.254	542.6
228.633	535.8
229.011	544
229.39	542
229.769	537
230.148	538.8
230.527	557.6
230.905	534.8
231.284	536.8
231.664	538.8
232.043	550.8
232.422	545.6
232.801	534.6
233.181	543.4
233.56	534.4
233.94	533.6
234.319	526.6
234.699	533.6
235.079	566.4
235.458	565.8
235.838	550
236.218	532.8
236.598	525.4
236.978	529.4
237.358	529.4
237.738	527.4
238.119	547.2
238.499	526.2
238.88	543.4
239.26	552.2
239.641	527.2
240.021	535.4
240.402	533.4
240.783	533.4
241.163	539
241.544	533.2
241.925	531
242.306	547.4
242.687	534.2
243.069	523.8
243.45	541
243.831	528
244.212	532.2
244.594	563
244.975	541
245.357	536.6
245.739	531.2
246.12	540.2
246.502	542
246.884	537.2
247.266	534.2
247.648	539.4
248.03	549.4
248.412	536.4
248.794	533.6
249.176	534
249.559	541.6
249.941	526.4
250.323	525
250.706	531.6
251.089	536.4
251.471	536.4
251.854	533.6
252.237	535.8
252.62	544.2
253.002	543.4
253.385	542.4
253.769	540.8
254.152	534.6
254.535	537.6
254.918	526.6
255.301	536.6
255.685	532.2
256.068	529
256.452	559
256.835	541.8
257.219	540.8
257.603	548.6
257.986	528.6
258.37	544.2
258.754	526.6
259.138	544.6
259.522	543
259.906	535.2
260.29	536
260.675	536.4
261.059	541.2
261.443	533.8
261.828	541.2
262.212	543.4
262.597	530.8
262.981	535.8
263.366	539.2
263.751	542
264.136	537.4
264.521	536.2
264.906	533
265.291	538.4
265.676	531.8
266.061	540.8
266.446	553.8
266.831	536.2
267.217	546.4
267.602	539.4
267.987	535
268.373	527.8
268.759	548.8
269.144	532.4
269.53	537.2
269.916	536.4
270.302	528
270.688	543.2
271.074	543.4
271.46	541.2
271.846	565.6
272.232	531.6
272.618	538.8
273.004	535.4
273.391	546.4
273.777	546.2
274.164	541.4
274.55	545.2
274.937	543.6
275.324	533.8
275.71	542.4
276.097	538.4
276.484	526.6
276.871	537.2
277.258	539
277.645	521.6
278.032	532.2
278.419	541
278.807	539.2
279.194	524.2
279.581	533.6
279.969	539.2
280.356	540.6
280.744	537.8
281.131	547.2
281.519	547
281.907	538.8
282.295	533.4
282.682	545.8
283.07	537.2
283.458	536.8
283.846	541
284.235	550.6
284.623	533.6
285.011	529.6
285.399	545.4
285.788	544
286.176	529.4
286.565	545.8
286.953	533.6
287.342	538
287.731	532
288.119	527.6
288.508	535.2
288.897	530.2
289.286	526.4
289.675	535.6
290.064	541.6
290.453	538.4
290.821	534.4
291.21	548.6
291.599	521.2
291.989	541.6
292.378	544.6
292.768	543.6
293.157	543.6
293.547	548.2
293.936	535.8
294.326	531
294.716	532
295.106	528.6
295.496	538.8
295.886	536.6
296.276	537.8
296.666	528.8
297.056	535.6
297.446	525.2
297.836	547
298.227	534.4
298.617	538.6
299.008	544.4
299.398	535.2
299.789	530.2
300.179	536.4
300.57	547
300.961	526.2
301.352	535.2
301.742	539.6
302.133	542.2
302.524	533.4
302.915	532.4
303.307	526.8
303.698	546.2
304.089	536
304.48	531
304.872	540
305.263	528.2
305.655	530.8
306.046	535
306.438	535.4
306.829	531
307.221	537.2
307.613	543.4
308.005	547.2
308.397	548.8
308.789	548.2
309.181	555.4
309.573	545.8
309.965	547.6
310.357	532
310.749	548.6
311.142	527.4
311.534	536.6
311.926	541.8
312.319	535.6
312.711	531.4
313.104	548.6
313.497	541.6
313.889	576.8
314.282	547.2
314.675	549.6
315.068	534.8
315.461	534.4
315.854	558.6
316.247	531.6
316.64	531
317.033	532.6
317.405	546.4
317.798	527.2
318.192	540.4
318.585	533
318.979	536.2
319.372	535.6
319.766	528.4
320.16	543.6
320.553	548.2
320.947	543.8
321.341	532.4
321.735	537.2
322.129	527.4
322.523	553.6
322.917	536.8
323.311	546.4
323.705	537.4
324.099	537
324.494	550.8
324.888	544.6
325.282	534.4
325.677	543.8
326.071	539
326.466	545.2
326.861	543.2
327.255	550.4
327.65	541
328.045	546.6
328.44	537
328.835	548.4
329.23	539.4
329.625	557.8
330.02	533
330.415	558.6
330.81	534.6
331.206	541.4
331.601	532.6
331.996	547.8
332.37	555.2
332.766	530.8
333.161	556.4
333.557	537.2
333.953	534.8
334.348	825.8
334.744	544.4
335.14	525.8
335.536	525.8
335.932	547.8
336.328	536.8
336.724	552.8
337.12	539.6
337.516	545
337.913	536.6
338.309	543.6
338.705	534.8
339.102	540.8
339.498	530.4
339.895	546.4
340.291	532.8
340.688	548.4
341.085	531.6
341.481	533.8
341.878	538.8
342.275	548.4
342.672	529.4
343.069	527.2
343.466	522.6
343.842	545
344.239	528.2
344.636	533.8
345.033	527
345.431	527.2
345.828	536.8
346.225	525
346.623	554.4
347.02	537.4
347.418	537
347.816	548.8
348.213	525.4
348.611	537
349.009	529.4
349.407	541.4
349.805	526.2
350.203	527.6
350.601	536.8
350.999	532.8
351.397	594.8
351.795	539.8
352.193	547.8
352.57	539.8
352.969	550
353.367	526.4
353.766	526.6
354.164	528.8
354.563	535.6
354.961	525.8
355.36	530.8
355.759	539
356.158	524.4
356.557	522
356.956	530
357.355	522.8
357.754	537
358.153	535.6
358.552	554
358.951	532.8
359.35	537.6
359.75	525.6
360.149	525.6
360.527	520.2
360.926	517.2
361.326	529.8
361.726	527.4
362.125	530.4
362.525	537
362.925	526
363.325	530
363.724	542.8
364.124	529
364.524	522.2
364.924	534.2
365.324	536.6
365.725	514.8
366.125	538.6
366.525	528.6
366.904	521.6
367.304	518.2
367.705	537.8
368.105	532.8
368.506	532.4
368.906	529.2
369.307	525.2
369.708	537.6
370.108	520
370.509	535
370.91	527.2
371.311	536
371.712	527.4
372.113	528.2
372.514	517
372.894	523.6
373.295	522.6
373.696	527
374.097	534.2
374.499	550.8
374.9	537.2
375.301	513
375.703	532.6
376.105	519.8
376.506	538.8
376.908	533.6
377.309	530.8
377.711	534.4
378.113	523.6
378.493	532.2
378.895	529.8
379.297	537.4
379.699	523
380.102	534.4
380.504	524.4
380.906	520
381.308	553.8
381.71	530.6
382.113	536.6
382.515	522.8
382.918	533.8
383.299	526.4
383.701	536.2
384.104	523.4
384.507	510
384.909	526.4
385.312	515.6
385.715	514
386.118	527.8
386.521	511.2
386.924	540.6
387.327	523.6
387.709	518
388.112	513.8
388.515	529.8
388.918	528.4
389.322	527.8
389.725	524
390.129	542.4
390.532	531.8
390.936	512.4
391.339	523
391.743	521.2
392.125	519.6
392.529	530.2
392.933	535.6
393.337	527.8
393.74	522
394.144	523.4
394.548	523.8
394.953	522.4
395.357	538.4
395.761	518.2
396.144	525.2
396.548	532.6
396.952	530.2
397.357	527.2
397.761	530
398.166	520.2
398.57	517
398.975	517.2
399.379	529.4
399.763	567
400.168	518.8
400.572	527.2
400.977	521
401.382	542.2
401.787	531.4
402.192	544
402.597	528.8
403.002	519.8
403.386	536.2
403.791	547.6
404.197	518.4
404.602	518.2
405.007	523
405.413	516.6
405.818	528.6
406.224	529.2
406.608	524.4
407.014	521.6
407.42	546.8
407.825	526.4
408.231	536
408.637	538
409.043	531
409.449	521.8
409.834	529
410.24	528.4
410.646	534.6
411.052	530
411.458	530
411.865	532
412.271	537.4
412.677	526.6
413.062	528.2
413.469	515.2
413.875	546
414.282	540.4
414.689	531.4
415.095	541.4
415.502	526.8
415.888	527.2
416.294	505.8
416.701	557.6
417.108	518
417.515	527.8
417.923	524
418.33	544.8
418.715	536.6
419.123	524.6
419.53	523.4
419.937	527.2
420.345	540.4
420.752	525.8
421.16	540.4
421.546	527.2
421.953	534.4
422.361	516.8
422.769	524.6
423.177	525.2
423.585	550.2
423.992	547.2
424.379	540.4
424.787	536
425.195	544.6
425.603	532
426.011	540.8
426.419	540.6
426.806	531.2
427.214	533.4
427.623	546.4
428.031	542.2
428.44	531.8
428.848	536.2
429.235	542.6
429.644	533.8
430.053	532.2
430.461	545.8
430.87	549
431.279	532.2
431.666	530
432.075	529.8
432.484	533
432.893	530.8
433.302	541.8
433.711	566.2
434.099	537.6
434.508	526.6
434.918	530.6
435.327	529.6
435.737	526.2
436.125	527
436.534	531.6
436.944	522.4
437.353	534.6
437.763	543.2
438.173	524.8
438.561	536.2
438.971	516.4
439.381	533
439.791	528
440.201	509.2
440.589	525
440.999	530.2
441.409	528.2
441.819	518.8
442.23	537.2
442.619	533.4
443.029	533.4
443.439	529
443.85	541
444.26	539.6
444.649	535
445.06	521.4
445.471	525
445.881	525.4
446.292	537
446.682	542.4
447.092	514.2
447.503	569.4
447.914	528.4
448.325	528.2
448.715	523.2
449.126	518
449.537	530.2
449.948	524
450.338	527.8
450.75	535.4
451.161	526.6
451.572	536.6
451.984	523.2
452.374	511.6
452.786	524.8
453.197	531.2
453.609	524.8
453.999	512
454.411	524.4
454.823	531
455.235	529.4
455.647	525
456.037	537.8
456.449	512.8
456.862	526.8
457.274	521
457.665	514.6
458.077	528.8
458.489	543.8
458.902	521.6
459.293	520.6
459.705	524.6
460.118	516.8
460.53	530.8
460.921	520.4
461.334	522
461.747	525
462.16	534.8
462.551	528.6
462.964	532
463.377	515.6
463.79	529
464.182	535.4
464.595	517
465.008	516.8
465.421	534.2
465.813	515.4
466.226	528.6
466.64	524.4
467.053	554
467.445	527
467.859	539.6
468.272	528.8
468.686	521
469.078	517.2
469.492	511.4
469.906	517.8
470.298	529.8
470.712	517.6
471.126	542.2
471.54	509
471.933	518
472.347	515.4
472.761	510.4
473.175	511.8
473.568	523.8
473.982	509
474.397	517.6
474.79	521.6
475.204	522
475.619	517
476.033	519.8
476.426	530.8
476.841	513
477.256	546.6
477.649	518.6
478.064	510.4
478.479	515.6
478.872	526.2
479.287	516.2
479.702	521.2
480.118	525.4
480.511	520.4
480.927	518.6
481.342	512.2
481.736	522.8
482.151	511.8
482.566	528.6
482.96	517.8
483.376	531
483.792	510.8
484.186	520.8
484.602	508
485.017	516
485.412	520.2
485.827	526.4
486.243	515.4
486.638	539.2
487.054	526.6
487.47	532
487.865	510
488.281	512.8
488.697	512.8
489.092	517
489.508	511.4
489.925	525.6
490.32	518
490.736	529.2
491.153	521.4
491.548	523
491.964	529.6
492.381	509.2
492.776	518.8
493.193	519
493.61	517.6
494.006	522
494.422	522.2
494.84	507.8
495.235	532.4
495.652	516.4
496.069	511.4
496.465	511.6
496.883	512.4
497.3	533.6
497.696	519
498.113	515.2
498.509	505
498.927	507.8
499.344	507.4
499.741	503.4
500.158	527.2
500.576	523.4
500.973	519
501.39	518.4
501.787	508.2
502.205	514
502.623	514.4
503.02	504.2
503.438	511.4
503.856	514.8
504.253	521.6
504.671	519.6
505.068	514.8
505.486	514.6
505.905	526.4
506.302	514.8
506.72	529.4
507.118	507.8
507.536	519.2
507.955	516.8
508.352	521.6
508.771	522.8
509.169	519.8
509.587	511.6
510.006	522.8
510.404	505.4
510.823	513
511.221	505.8
511.64	504.6
512.038	524.2
512.457	517.6
512.877	514.8
513.275	512.6
513.694	519.8
514.092	507.6
514.512	518.8
514.91	524.8
515.33	522.6
515.749	517.4
516.148	524.6
516.568	516.4
516.966	510
517.386	512.6
517.785	515.2
518.205	514.8
518.603	514.4
519.024	512.4
519.444	515.4
519.843	523.2
520.263	530.2
520.662	526.2
521.082	514.4
521.481	510.8
521.902	513.6
522.301	518.4
522.722	516.6
523.121	515.2
523.542	523
523.963	519.2
524.362	517.2
524.783	521.8
525.183	515
525.604	520.6
526.003	511.6
526.425	516.2
526.824	526.6
527.246	518.8
527.646	522
528.067	519.8
528.467	513.8
528.888	519.4
529.289	520.2
529.71	518
530.11	510.4
530.532	514
530.932	512
531.354	508.6
531.755	537.4
532.176	524.8
532.577	515.4
532.999	521.8
533.4	521.6
533.822	520
534.223	513.4
534.645	517.6
535.046	515
535.468	512.6
535.869	518.2
536.292	516.4
536.693	541
537.115	514.2
537.516	506
537.939	518.4
538.34	526
538.742	522
539.165	519.2
539.566	514
539.989	502.8
540.391	510.4
540.814	516
541.216	526.6
541.639	518.8
542.041	521
542.464	512
542.866	510.6
543.268	503.4
543.691	522.8
544.093	514.8
544.517	528.6
544.919	502.8
545.343	533.6
545.745	516
546.147	521.8
546.571	514.2
546.974	500.6
547.398	511.2
547.8	529
548.224	506
548.627	506.4
549.03	520
549.454	501.6
549.857	505
550.281	507
550.684	519.2
551.087	521.2
551.512	516.8
551.915	521
552.34	513.6
552.743	510.6
553.146	508
553.571	514
553.975	532.2
554.399	504.2
554.803	552.2
555.207	507.2
555.632	508.6
556.036	514.2
556.461	513
556.865	510.6
557.268	504.6
557.694	518.2
558.098	504.8
558.502	518.6
558.927	510.8
559.332	517.6
559.736	511
560.162	517.8
560.566	512.8
560.992	515.2
561.396	506.4
561.801	506.6
562.227	510.6
562.631	509.4
563.036	511
563.462	521.2
563.867	511.8
564.272	503.2
564.698	509.8
565.103	506
565.508	527.4
565.935	515
566.34	506.4
566.745	516.4
567.172	507
567.577	527.6
567.982	521.6
568.409	517.4
568.815	508.4
569.22	516
569.626	524
570.053	499
570.459	511
570.865	517.4
571.292	513.8
571.698	515.8
572.104	506.2
572.531	517.6
572.937	521
573.343	503.4
573.75	508.4
574.177	519.8
574.583	515.6
574.99	506.6
575.396	523.4
575.824	509.6
576.231	523.4
576.637	507.8
577.065	528
577.472	509.2
577.879	507.6
578.286	518.6
578.714	511.2
579.121	513.6
579.528	517
579.935	522.2
580.364	512
580.771	499.6
581.178	500.2
581.585	511.2
582.014	512.8
582.421	506
582.829	500.8
583.236	513.8
583.644	498
584.073	515
584.481	510.4
584.889	503.8
585.296	510.4
585.726	517.8
586.134	507
586.542	507
586.95	522.2
587.358	506.4
587.787	514
588.196	499
588.604	505.2
589.012	499.8
589.421	509
589.851	511.2
590.259	513
590.668	507.8
591.076	548.4
591.485	506.4
591.894	509.8
592.324	528.2
592.733	519.4
593.142	500.4
593.551	512.4
593.96	508
594.369	500.6
594.8	503.2
595.209	508.4
595.618	500
596.028	503.2
596.437	501.8
596.847	510
597.256	512.2
597.687	514.2
598.097	514.4
598.507	500
598.917	513.4
599.327	518.6
599.736	515.2
600.146	520.4
600.556	510
600.988	528
601.398	512
601.808	521.8
602.219	502.8
602.629	511.8
603.039	512.4
603.45	527.2
603.86	510.4
604.271	522.6
604.703	511.2
605.114	519.8
605.525	510.6
605.935	523.2
606.346	530.2
606.757	518.8
607.168	510.8
607.579	506.8
607.99	520
608.402	509.4
608.813	521.8
609.224	508.8
609.636	508.6
610.047	510.8
610.48	519
610.892	515.8
611.303	523.8
611.715	513
612.127	509.4
612.539	514.2
612.95	512
613.362	514
613.774	518.2
614.186	516.6
614.599	522.6
615.011	523.6
615.423	520.8
615.835	521.6
616.248	512.4
616.66	520.4
617.073	517.2
617.485	518
617.898	534.2
618.311	522.8
618.723	522.8
619.136	543.4
619.549	535.4
619.962	542
620.375	521.2
620.788	526.6
621.201	523
621.614	532.8
622.028	517.4
622.441	522.2
622.854	534.8
623.268	515.6
623.681	531.2
624.095	531.2
624.509	538.8
624.922	538.2
625.336	514.4
625.728	529.4
626.142	531.2
626.556	536.2
626.97	532.8
627.384	525
627.799	525.6
628.213	527.2
628.627	530
629.041	527
629.456	521
629.87	523.6
630.285	536.4
630.699	529
631.093	518
631.507	530.6
631.922	527.6
632.337	539.8
632.752	525.6
633.167	518.4
633.582	520
633.997	512.2
634.412	516.8
634.806	520.6
635.221	511.2
635.637	528.2
636.052	515.2
636.468	529
636.883	536
637.299	521.6
637.715	513.6
638.109	519
638.525	514.2
638.941	523.2
639.357	523.8
639.773	527.2
640.189	517.4
640.584	518.4
641	523.2
641.416	515.4
641.832	520.4
642.249	515
642.665	521.4
643.06	523.6
643.477	540.6
643.894	511
644.31	522
644.727	515.6
645.123	513.6
645.54	511.6
645.957	514.8
646.374	528.8
646.77	524.8
647.187	544.6
647.604	524.8
648.021	506.6
648.439	514.6
648.835	515.8
649.252	516.2
649.67	510.8
650.088	515.4
650.484	519.8
650.902	520
651.32	524.6
651.738	516
652.134	510.6
652.552	529.8
652.971	518.6
653.389	514.6
653.786	525.2
654.204	518.8
654.622	514.4
655.019	512.4
655.438	520.2
655.857	509.4
656.275	516.4
656.673	508.6
657.091	513.4
657.51	511.8
657.908	519.4
658.327	528.4
658.746	507.8
659.144	509.4
659.563	527
659.982	525
660.38	507.2
660.8	514.8
661.219	522.6
661.617	508.6
662.037	503.2
662.457	521.4
662.855	507.2
663.275	531
663.695	506
664.094	509.4
664.514	514.8
664.934	512.6
665.333	515.8
665.753	503
666.152	500.4
666.572	502.2
666.993	515.2
667.392	504.2
667.812	510.6
668.212	511.6
668.632	518.8
669.053	504.2
669.453	519.8
669.874	516.6
670.273	515.6
670.694	503.6
671.116	530.2
671.515	512.6
671.937	506
672.337	507
672.758	504.4
673.158	517.8
673.58	505.6
673.98	512.2
674.402	528.4
674.824	510.2
675.224	503.4
675.646	509.2
676.047	497.8
676.469	505
676.869	517
677.292	514.8
677.693	505.4
678.115	502.2
678.516	509.4
678.939	513.8
679.34	508
679.762	515
680.164	513
680.586	502.2
680.988	507.4
681.411	519.6
681.812	505
682.236	507.4
682.637	503.2
683.061	503.8
683.462	506.4
683.864	507.2
684.288	512.2
684.69	504
685.114	511.6
685.516	514
685.94	501
686.342	511.8
686.766	498.4
687.168	508.4
687.571	522.6
687.995	509.8
688.398	499
688.822	501.4
689.225	511.8
689.628	521.2
690.052	500
690.456	512.6
690.88	504.6
691.284	502.8
691.687	517.2
692.112	498
692.515	491.4
692.919	499.2
693.344	509.2
693.747	501.6
694.173	504
694.577	513.6
694.98	501.4
695.406	503.4
695.81	507.4
696.214	503
696.64	512.4
697.044	505.8
697.448	510.8
697.874	504
698.279	511.6
698.684	504.6
699.11	503.4
699.514	504.8
699.919	506.2
700.324	496.4
700.75	514.6
701.156	507.6
701.561	516.8
701.987	511.2
702.393	508.4
702.798	509.6
703.203	507.6
703.63	499
704.036	507.2
704.442	509.4
704.847	496.6
705.274	505.2
705.68	511
706.086	507.6
706.492	502.8
706.92	505.8
707.326	501.8
707.732	499
708.139	499
708.545	499
708.973	496.6
709.38	504.8
709.786	499.6
710.193	519.4
710.6	510.2
711.028	501.6
711.435	507.6
711.842	495.8
712.249	498.2
712.656	495.6
713.064	512
713.492	498.8
713.9	502.4
714.307	509.2
714.715	501.6
715.123	508
715.53	503.4
715.938	513.2
716.367	505.6
716.775	504.4
717.184	493.4
717.592	505.8
718	510.4
718.408	532.6
718.816	538.4
719.225	511
719.633	509.4
720.042	503.6
720.472	503.6
720.881	527.4
721.29	515.4
721.699	496
722.108	513.8
722.517	503.2
722.926	508.6
723.335	509.2
723.744	499.8
724.154	507.8
724.563	506
724.973	512.2
725.382	500.6
725.792	508.2
726.202	501.2
726.612	519.4
727.022	504.6
727.432	498
779.813	507.4
780.223	531.4
780.634	499
781.044	498.2
781.454	499.4
781.865	518
782.276	495.6
782.686	514.4
783.097	499.2
783.508	502
783.919	504
784.33	513.8
784.741	508.2
785.152	505.4
785.563	492.6
785.974	498.6
786.386	505.4
786.776	504.2
787.188	506.4
787.599	493.4
788.011	509.4
788.423	510.4
788.835	494.6
789.247	497.8
789.659	503.6
790.071	502.8
790.483	531.4
790.874	501.8
791.286	512.4
791.699	498.2
792.111	507.4
792.524	501
792.937	501.6
793.349	494.6
793.741	504.8
794.154	499
794.567	523.2
794.98	505
795.393	491.2
795.785	519
796.198	498.2
796.612	505.8
797.026	497
797.439	482.2
797.831	498
798.245	493.4
798.659	498.2
799.073	495.8
799.487	503.6
799.88	506.6
800.294	508.2
800.708	499.6
801.123	502.6
801.516	514.4
801.93	493.2
802.345	484.2
802.76	493.4
803.153	513.8
803.568	511.4
803.983	513.8
804.377	502.4
804.792	497
805.207	490.8
805.601	504.2
806.016	527.4
806.432	506.4
806.826	531.6
807.242	525.2
807.658	503.4
808.052	499.4
808.468	497
808.884	504.8
809.279	502.6
809.695	504.6
810.111	514.4
810.506	502.6
810.922	522
811.339	500.6
811.734	510.4
812.151	496.8
812.546	501.8
812.963	487.6
813.38	504.2
813.776	497.2
814.193	519.8
814.589	493.8
815.006	506
815.402	494.6
815.82	502.6
816.237	502.2
816.633	503.6
817.051	498.6
817.448	507
817.866	490.6
818.262	519.4
818.68	493.8
819.077	500.8
819.495	503.8
819.892	528.4
820.311	504.4
820.708	502
821.127	502.6
821.524	516
821.943	500
822.34	519.8
822.759	500.2
823.157	498.2
823.576	502
823.974	502.2
824.393	552.2
824.791	504.2
825.189	494.6
825.609	501.4
826.007	498.8
826.427	489.6
826.826	504.8
827.246	502.8
827.644	484.2
828.043	505
828.463	505
828.862	507
829.261	500.4
829.682	493.2
830.081	513.4
830.502	497.2
830.901	505.6
831.301	495.6
831.722	485.4
832.121	503.2
832.521	496.8
832.943	495
833.342	500.2
833.742	497
834.164	497.4
834.564	491.2
834.965	505.8
835.386	494
835.787	493.8
836.188	488.8
836.588	504.2
837.01	501
837.411	491.4
837.812	508.8
838.213	502.6
838.636	492.2
839.037	546.8
839.438	496.8
839.84	500
840.263	506.4
840.664	501.4
841.066	498
841.468	506.4
841.891	496
842.293	508.8
842.695	506
843.098	504.6
843.5	493.2
843.902	501
844.326	506.2
844.729	504
845.131	509.4
845.534	503
845.937	510.6
846.34	519.6
846.764	503.8
847.167	503.6
847.571	498.8
847.974	501.2
848.377	495.8
848.781	537
849.184	510.8
849.588	494
849.992	493.2
850.396	492
850.821	518
851.225	506
851.63	503.8
852.034	501.4
852.438	499.4
852.843	562
853.247	488.4
853.652	495.2
854.057	512.4
854.462	498.2
854.867	503.8
855.272	525
855.677	507
856.082	490.6
856.487	491.2
856.893	509.6
857.298	501
