#lambda/nm	C1
208.295	470.8
208.67	435.6
209.045	394
209.419	401.4
209.794	543.2
210.169	521.2
210.544	629
210.919	541
211.295	523.2
211.67	539.2
212.045	535.2
212.421	536.2
212.796	565.2
213.172	526
213.547	523.4
213.923	532.4
214.299	526.2
214.675	544.4
215.051	536.2
215.427	537.6
215.803	547.8
216.179	543.8
216.555	521.4
216.932	542.4
217.308	530.4
217.684	541.6
218.061	541
218.438	540.4
218.814	535.4
219.191	542.6
219.568	529.4
219.945	534.6
220.322	544.2
220.699	540.8
221.076	543.2
221.453	541.4
221.83	532.8
222.208	533.2
222.585	534
222.962	530.6
223.34	540.2
223.717	528.8
224.095	532.6
224.473	535.8
224.851	530.8
225.229	526
225.607	550.2
225.985	533
226.363	542.2
226.741	536
227.119	537
227.497	540.2
227.876	522.2
228.254	532
228.633	551.2
229.011	537
229.39	541.4
229.769	535.2
230.148	539.2
230.527	550.4
230.905	544.4
231.284	543
231.664	530.8
232.043	549.2
232.422	538.6
232.801	531.4
233.181	540
233.56	530.6
233.94	525.2
234.319	521
234.699	530.8
235.079	570.2
235.458	566.2
235.838	547
236.218	528.6
236.598	519.4
236.978	533
237.358	522.8
237.738	532.8
238.119	534
238.499	518.4
238.88	530.6
239.26	550.8
239.641	530.2
240.021	538.2
240.402	539.6
240.783	535
241.163	537.4
241.544	540.4
241.925	534.4
242.306	543.8
242.687	528.6
243.069	540.4
243.45	541.6
243.831	530
244.212	539
244.594	567.8
244.975	547.6
245.357	537.8
245.739	542.6
246.12	534.2
246.502	546.4
246.884	535.2
247.266	526.2
247.648	533.8
248.03	549.6
248.412	542.2
248.794	533.8
249.176	531.2
249.559	546.6
249.941	528.2
250.323	528.6
250.706	525.8
251.089	539.6
251.471	533.4
251.854	536.4
252.237	531.4
252.62	547.8
253.002	541.2
253.385	534.8
253.769	550.6
254.152	531
254.535	538.4
254.918	530.4
255.301	545
255.685	535.2
256.068	534.2
256.452	557.6
256.835	539.2
257.219	543.6
257.603	549.2
257.986	535.4
258.37	539.4
258.754	527.4
259.138	536
259.522	548.4
259.906	527.6
260.29	537.6
260.675	528.4
261.059	539.4
261.443	530.6
261.828	545.6
262.212	534.2
262.597	528.4
262.981	534.8
263.366	538.8
263.751	534.2
264.136	531.6
264.521	535
264.906	532.2
265.291	541.2
265.676	522.2
266.061	539.2
266.446	549.8
266.831	533.2
267.217	551
267.602	545.4
267.987	534
268.373	536
268.759	548.4
269.144	538.2
269.53	536.8
269.916	526.6
270.302	530.6
270.688	538.6
271.074	535.6
271.46	539.2
271.846	558.6
272.232	534.2
272.618	530.6
273.004	538.2
273.391	546.6
273.777	546.2
274.164	543.8
274.55	541.2
274.937	542.8
275.324	529.8
275.71	543.8
276.097	541.4
276.484	531.4
276.871	540.4
277.258	541.8
277.645	529.8
278.032	534.4
278.419	536.8
278.807	536.4
279.194	522.2
279.581	529.6
279.969	546.8
280.356	538.4
280.744	537.2
281.131	561
281.519	545
281.907	529.4
282.295	529.8
282.682	549.4
283.07	537
283.458	542
283.846	544.4
284.235	545.6
284.623	543
285.011	529.6
285.399	540.6
285.788	533.8
286.176	532
286.565	542.4
286.953	533
287.342	533
287.731	530.2
288.119	529
288.508	537.6
288.897	534.2
289.286	517.6
289.675	531
290.064	543
290.453	532.8
290.821	536
291.21	551.2
291.599	525
291.989	535.6
292.378	545.2
292.768	551.2
293.157	540.8
293.547	539.2
293.936	539
294.326	539.8
294.716	531.8
295.106	529.8
295.496	541.8
295.886	541
296.276	536.6
296.666	523.8
297.056	529.2
297.446	520
297.836	549.6
298.227	526
298.617	543.6
299.008	545.8
299.398	524
299.789	536.2
300.179	537.8
300.57	545.4
300.961	526.4
301.352	524.2
301.742	535.8
302.133	534.2
302.524	535.2
302.915	530.4
303.307	527.4
303.698	541.6
304.089	538.6
304.48	535.2
304.872	538.4
305.263	537.6
305.655	534.4
306.046	538.8
306.438	541
306.829	524.8
307.221	553.2
307.613	538.2
308.005	543.4
308.397	542
308.789	553
309.181	564.4
309.573	545.8
309.965	550.4
310.357	536.8
310.749	553.4
311.142	532.6
311.534	535.6
311.926	542.8
312.319	538.6
312.711	529.6
313.104	548.8
313.497	529.2
313.889	563
314.282	546.6
314.675	555
315.068	536.6
315.461	538.6
315.854	553.6
316.247	549.2
316.64	528.8
317.033	535
317.405	536.2
317.798	530
318.192	540.6
318.585	534.4
318.979	537.6
319.372	535.6
319.766	534.4
320.16	541.4
320.553	549.4
320.947	556.4
321.341	527.4
321.735	535.2
322.129	528
322.523	551.4
322.917	536.2
323.311	544.2
323.705	541.4
324.099	546.6
324.494	547.8
324.888	543.2
325.282	535.4
325.677	546.2
326.071	544.8
326.466	549.8
326.861	541.6
327.255	548.4
327.65	544.4
328.045	553.2
328.44	537.8
328.835	539.2
329.23	530.4
329.625	553.6
330.02	534.6
330.415	550
330.81	538.4
331.206	536.4
331.601	528.2
331.996	544
332.37	556.8
332.766	520.8
333.161	555.6
333.557	534.2
333.953	531.8
334.348	748.6
334.744	538
335.14	532.8
335.536	529
335.932	545.2
336.328	532.6
336.724	547.6
337.12	535.8
337.516	534.6
337.913	536.4
338.309	547.4
338.705	539.6
339.102	546.6
339.498	535.8
339.895	543.8
340.291	536.8
340.688	540
341.085	525
341.481	531.8
341.878	531.8
342.275	552.4
342.672	523.6
343.069	530.4
343.466	526.6
343.842	541.2
344.239	531.4
344.636	536.8
345.033	526.8
345.431	522.4
345.828	534.4
346.225	530.4
346.623	563.4
347.02	542.6
347.418	537.6
347.816	547.2
348.213	521.8
348.611	533.6
349.009	532.2
349.407	542.4
349.805	526
350.203	529
350.601	547.4
350.999	528.8
351.397	587.6
351.795	535
352.193	547.8
352.57	545.8
352.969	542.4
353.367	530.8
353.766	533.4
354.164	540
354.563	543.4
354.961	532.6
355.36	533
355.759	526.6
356.158	525.2
356.557	526
356.956	521
357.355	527
357.754	539.6
358.153	537
358.552	556.4
358.951	538.2
359.35	541.2
359.75	530.4
360.149	524.4
360.527	516
360.926	517.4
361.326	531.2
361.726	527.6
362.125	524.4
362.525	540.6
362.925	523.4
363.325	528.8
363.724	524.2
364.124	536.2
364.524	521.4
364.924	534
365.324	540
365.725	519.6
366.125	539.4
366.525	535
366.904	529.6
367.304	520.4
367.705	532.8
368.105	535.4
368.506	530
368.906	533.2
369.307	527.8
369.708	534.8
370.108	526.6
370.509	536.4
370.91	523.6
371.311	535.2
371.712	532.2
372.113	522.8
372.514	516.8
372.894	532.4
373.295	518.4
373.696	536.6
374.097	537.6
374.499	550
374.9	522.4
375.301	526.6
375.703	526.6
376.105	519.4
376.506	530.8
376.908	529.8
377.309	534.6
377.711	527
378.113	520.4
378.493	526.4
378.895	523
379.297	536.6
379.699	522.4
380.102	535
380.504	535
380.906	527
381.308	545.4
381.71	521.2
382.113	536.2
382.515	529
382.918	524.8
383.299	530
383.701	539.4
384.104	534.2
384.507	511.6
384.909	526.6
385.312	515
385.715	516.2
386.118	525.8
386.521	520.4
386.924	531.8
387.327	524
387.709	517.8
388.112	518.6
388.515	525.8
388.918	527.2
389.322	537
389.725	522.4
390.129	547.8
390.532	526
390.936	523.2
391.339	511.6
391.743	525.6
392.125	521.4
392.529	534
392.933	532
393.337	520
393.74	523.2
394.144	518.6
394.548	520
394.953	530.6
395.357	526.8
395.761	519.4
396.144	524
396.548	521.2
396.952	532.6
397.357	520.8
397.761	515
398.166	524
398.57	524.8
398.975	520.4
399.379	534.6
399.763	568.4
400.168	524.6
400.572	529.6
400.977	524.4
401.382	548.2
401.787	540.4
402.192	535.4
402.597	537
403.002	518.2
403.386	537.2
403.791	540.2
404.197	523
404.602	525.8
405.007	526.4
405.413	525.8
405.818	528.8
406.224	525.2
406.608	530.2
407.014	523.6
407.42	535
407.825	528.6
408.231	537.2
408.637	528.6
409.043	536
409.449	521
409.834	519.2
410.24	536
410.646	534.8
411.052	536.4
411.458	530.8
411.865	530.6
412.271	536.2
412.677	525.4
413.062	534.6
413.469	518.6
413.875	547
414.282	538.2
414.689	528.6
415.095	532.2
415.502	526.2
415.888	530.4
416.294	517.8
416.701	554.8
417.108	527.6
417.515	536.4
417.923	528
418.33	541.2
418.715	533.4
419.123	522.8
419.53	525.6
419.937	536.4
420.345	540.8
420.752	535.8
421.16	537.4
421.546	530.6
421.953	539.8
422.361	525.6
422.769	530.2
423.177	520.8
423.585	550.6
423.992	552.2
424.379	534
424.787	537.8
425.195	543.2
425.603	537.8
426.011	538.8
426.419	542.4
426.806	532.8
427.214	532.6
427.623	539
428.031	540.8
428.44	533.2
428.848	548
429.235	546.2
429.644	528.2
430.053	530.8
430.461	538
430.87	545
431.279	534.4
431.666	524.2
432.075	531.8
432.484	541
432.893	524.2
433.302	541.6
433.711	571.4
434.099	538.6
434.508	521.8
434.918	524.2
435.327	532.2
435.737	530.4
436.125	537.8
436.534	531.8
436.944	531.2
437.353	533.6
437.763	537.8
438.173	522.8
438.561	530.8
438.971	518.8
439.381	535.8
439.791	530.2
440.201	514
440.589	526.8
440.999	532.6
441.409	529.6
441.819	517.6
442.23	537.6
442.619	532.4
443.029	535.8
443.439	533.2
443.85	534.8
444.26	543.2
444.649	538
445.06	527.6
445.471	528.4
445.881	525.8
446.292	538.4
446.682	549.6
447.092	520.8
447.503	566.4
447.914	527
448.325	528.8
448.715	530.8
449.126	522.2
449.537	529.6
449.948	526.2
450.338	531.8
450.75	540
451.161	525.8
451.572	533.2
451.984	526.4
452.374	511.2
452.786	525.8
453.197	532.4
453.609	533.6
453.999	519.2
454.411	517.4
454.823	540.8
455.235	524.4
455.647	526.2
456.037	532.2
456.449	514.8
456.862	527.2
457.274	530.4
457.665	521
458.077	529.6
458.489	538.4
458.902	529.4
459.293	532.8
459.705	524
460.118	527.6
460.53	528.8
460.921	519.8
461.334	526.4
461.747	524.2
462.16	533.8
462.551	536.2
462.964	524
463.377	517.2
463.79	522.2
464.182	532
464.595	523
465.008	522
465.421	525.2
465.813	523.4
466.226	529.4
466.64	515.2
467.053	558.4
467.445	534.4
467.859	533
468.272	531.8
468.686	534.2
469.078	526
469.492	519.4
469.906	528.4
470.298	530.6
470.712	525.2
471.126	549.4
471.54	506.4
471.933	507.6
472.347	523.2
472.761	521.2
473.175	514.6
473.568	518.2
473.982	519.6
474.397	515.2
474.79	524
475.204	522
475.619	519.8
476.033	523.4
476.426	523.4
476.841	515.8
477.256	538.2
477.649	516
478.064	508
478.479	513.2
478.872	513.8
479.287	511.4
479.702	511.8
480.118	512.8
480.511	520.4
480.927	520.8
481.342	510.8
481.736	513
482.151	514
482.566	523.4
482.96	520.8
483.376	526.2
483.792	523
484.186	526.4
484.602	512.8
485.017	516.6
485.412	506.8
485.827	519.6
486.243	515.6
486.638	541
487.054	528.6
487.47	531.6
487.865	520.2
488.281	518
488.697	510.6
489.092	514
489.508	508.6
489.925	524.6
490.32	508
490.736	522.2
491.153	521.6
491.548	517.4
491.964	525
492.381	507.8
492.776	520.8
493.193	516.8
493.61	519.4
494.006	517
494.422	522.8
494.84	512
495.235	527.4
495.652	516.4
496.069	515
496.465	509.8
496.883	518.6
497.3	538.2
497.696	511.6
498.113	525
498.509	500.4
498.927	505.2
499.344	517.6
499.741	512.8
500.158	521.6
500.576	530.2
500.973	514.6
501.39	514
501.787	514.4
502.205	515.8
502.623	511.8
503.02	508.8
503.438	513.4
503.856	520.2
504.253	518.6
504.671	521.2
505.068	514.6
505.486	520.2
505.905	540.8
506.302	521.4
506.72	529.2
507.118	512.8
507.536	513
507.955	510.2
508.352	516.2
508.771	521.6
509.169	515.6
509.587	513.8
510.006	515.8
510.404	509.4
510.823	508.2
511.221	515.6
511.64	513.4
512.038	521.4
512.457	521.2
512.877	519
513.275	508.4
513.694	510.2
514.092	516.4
514.512	526.4
514.91	517.8
515.33	511.8
515.749	513.2
516.148	523.4
516.568	513
516.966	514.4
517.386	517
517.785	518.8
518.205	515.2
518.603	509
519.024	509.2
519.444	525
519.843	529
520.263	524.2
520.662	518.4
521.082	511.4
521.481	523
521.902	516.6
522.301	518.8
522.722	521
523.121	521.8
523.542	509
523.963	516.2
524.362	518
524.783	521
525.183	517.4
525.604	524.4
526.003	510
526.425	505.2
526.824	517
527.246	523.8
527.646	529.8
528.067	516.4
528.467	520.4
528.888	528.4
529.289	516.6
529.71	523.2
530.11	518.8
530.532	518.8
530.932	510.8
531.354	514.6
531.755	547
532.176	526.2
532.577	513.6
532.999	517
533.4	511.4
533.822	530
534.223	518.8
534.645	511.4
535.046	513.6
535.468	517.8
535.869	525.8
536.292	507.6
536.693	545
537.115	519
537.516	507.6
537.939	506.2
538.34	535
538.742	527.6
539.165	515.8
539.566	511.8
539.989	509
540.391	514.4
540.814	520.6
541.216	520.2
541.639	512.8
542.041	522.6
542.464	513.2
542.866	510.4
543.268	517.4
543.691	528.4
544.093	517
544.517	533.2
544.919	513.6
545.343	532.2
545.745	522.2
546.147	513.4
546.571	515
546.974	508.2
547.398	511.8
547.8	529
548.224	511.2
548.627	505.6
549.03	521
549.454	505.4
549.857	505.4
550.281	517.2
550.684	508
551.087	522.6
551.512	517
551.915	516.8
552.34	512.8
552.743	508.6
553.146	518
553.571	513.4
553.975	529.2
554.399	502.4
554.803	547
555.207	517.2
555.632	515.2
556.036	515.6
556.461	508.4
556.865	517.2
557.268	507.6
557.694	508.4
558.098	516.4
558.502	518.4
558.927	512.2
559.332	518.8
559.736	512.8
560.162	517.4
560.566	515.2
560.992	521.6
561.396	513.4
561.801	517.2
562.227	519
562.631	511.8
563.036	514.2
563.462	516.6
563.867	510.8
564.272	512
564.698	523.4
565.103	509.6
565.508	526.2
565.935	513.6
566.34	510.6
566.745	524.6
567.172	515.6
567.577	531.8
567.982	525.6
568.409	516.6
568.815	498.4
569.22	509.6
569.626	510.4
570.053	503
570.459	510.8
570.865	512.8
571.292	512.4
571.698	520.4
572.104	504.2
572.531	511.2
572.937	520
573.343	517.6
573.75	520
574.177	517.2
574.583	516.8
574.99	512.2
575.396	520
575.824	510.2
576.231	519.6
576.637	513.2
577.065	528
577.472	508.6
577.879	514.2
578.286	528.6
578.714	504.2
579.121	510.8
579.528	516.2
579.935	514.2
580.364	505.8
580.771	503
581.178	507.6
581.585	513.8
582.014	514.6
582.421	503.8
582.829	512
583.236	523.6
583.644	507.6
584.073	510.4
584.481	509.6
584.889	512
585.296	515.4
585.726	512.6
586.134	514.8
586.542	505.2
586.95	521.6
587.358	504.4
587.787	513
588.196	505.4
588.604	508
589.012	511.2
589.421	504.4
589.851	504.2
590.259	514.4
590.668	503.8
591.076	541.8
591.485	506
591.894	505.4
592.324	521.2
592.733	520.4
593.142	501.4
593.551	515
593.96	543.4
594.369	498.4
594.8	515.6
595.209	514.8
595.618	498
596.028	506.6
596.437	499.8
596.847	518.8
597.256	517.8
597.687	522
598.097	512
598.507	505.4
598.917	514.4
599.327	520
599.736	519
600.146	513.2
600.556	510.8
600.988	528
601.398	515.4
601.808	523.6
602.219	505.8
602.629	513.4
603.039	514.6
603.45	534.8
603.86	521.2
604.271	520
604.703	520.2
605.114	514.6
605.525	522.6
605.935	521.6
606.346	535.2
606.757	519.8
607.168	512.8
607.579	507.8
607.99	526.6
608.402	515.4
608.813	520.2
609.224	511.4
609.636	507
610.047	502
610.48	509.2
610.892	515.4
611.303	519.8
611.715	516.2
612.127	511.8
612.539	514.8
612.95	522.8
613.362	510
613.774	507.8
614.186	508.2
614.599	510.6
615.011	520.2
615.423	516.8
615.835	516
616.248	519
616.66	527.8
617.073	509.4
617.485	518
617.898	520.4
618.311	516.4
618.723	525.6
619.136	535.8
619.549	524.6
619.962	539.2
620.375	522.6
620.788	521
621.201	515.4
621.614	529.8
622.028	522.2
622.441	527.8
622.854	529
623.268	522.4
623.681	520.8
624.095	521.2
624.509	535
624.922	524.2
625.336	509.8
625.728	529
626.142	526.2
626.556	536.4
626.97	520.8
627.384	516
627.799	521.2
628.213	525.6
628.627	521
629.041	519.4
629.456	523.4
629.87	517.6
630.285	523
630.699	529.2
631.093	515.6
631.507	517.8
631.922	514.2
632.337	531
632.752	511.4
633.167	515.2
633.582	524.8
633.997	511.4
634.412	516.6
634.806	524.6
635.221	517.6
635.637	532.6
636.052	511.2
636.468	512.6
636.883	537
637.299	517.4
637.715	502.4
638.109	518
638.525	509.6
638.941	525.6
639.357	515
639.773	530.2
640.189	511
640.584	511
641	516.2
641.416	513.4
641.832	506.8
642.249	519.8
642.665	507
643.06	517
643.477	519.4
643.894	506
644.31	511.6
644.727	515.6
645.123	511.2
645.54	509.8
645.957	517
646.374	522.8
646.77	511.6
647.187	540.4
647.604	504.6
648.021	506.2
648.439	509.8
648.835	513.2
649.252	511.2
649.67	519.2
650.088	513.8
650.484	509
650.902	518
651.32	519.4
651.738	507.2
652.134	516.6
652.552	525.6
652.971	508
653.389	508
653.786	520.4
654.204	516.4
654.622	508.6
655.019	514.8
655.438	521.2
655.857	510.2
656.275	516.6
656.673	507.2
657.091	522.4
657.51	502.2
657.908	517.4
658.327	515.6
658.746	497.4
659.144	505.8
659.563	522
659.982	517.2
660.38	501.2
660.8	514
661.219	523.6
661.617	511.8
662.037	518.8
662.457	523.4
662.855	500.2
663.275	525.4
663.695	508
664.094	505.8
664.514	510.4
664.934	501.6
665.333	521.2
665.753	504.8
666.152	497.8
666.572	497.6
666.993	517.4
667.392	507.4
667.812	506.4
668.212	508
668.632	519.8
669.053	507
669.453	514.8
669.874	501.4
670.273	509.4
670.694	505
671.116	519
671.515	516.6
671.937	498.6
672.337	503.6
672.758	507.4
673.158	510
673.58	504.2
673.98	511.2
674.402	518
674.824	500.4
675.224	502.2
675.646	502
676.047	498
676.469	507.2
676.869	512.6
677.292	507.8
677.693	502
678.115	499.2
678.516	508.8
678.939	513.2
679.34	512.2
679.762	513
680.164	517.6
680.586	496
680.988	507.8
681.411	524.2
681.812	504.4
682.236	494.6
682.637	492
683.061	497.8
683.462	509.8
683.864	502.8
684.288	507.2
684.69	497.6
685.114	513
685.516	510
685.94	505.8
686.342	509.4
686.766	510.4
687.168	497.8
687.571	515.2
687.995	505.4
688.398	489.6
688.822	498.2
689.225	515.2
689.628	520
690.052	503
690.456	504.6
690.88	504.8
691.284	492.4
691.687	504
692.112	494.4
692.515	495.6
692.919	502.2
693.344	509.6
693.747	508.4
694.173	496.2
694.577	511.4
694.98	505.8
695.406	505.8
695.81	504.6
696.214	508.4
696.64	514.6
697.044	516.4
697.448	518.4
697.874	504.6
698.279	503.8
698.684	512.2
699.11	499.2
699.514	506
699.919	504
700.324	495
700.75	498.4
701.156	501.2
701.561	512.6
701.987	512.8
702.393	516.8
702.798	520.8
703.203	499.6
703.63	508.8
704.036	502.2
704.442	507.8
704.847	498.6
705.274	503.8
705.68	507.6
706.086	506.2
706.492	497.2
706.92	499.8
707.326	509.2
707.732	505
708.139	500.8
708.545	501.6
708.973	495.8
709.38	498.4
709.786	501.2
710.193	517.8
710.6	504
711.028	505.6
711.435	505.4
711.842	501.4
712.249	495.6
712.656	503.4
713.064	509.2
713.492	503
713.9	496.2
714.307	506.2
714.715	505.8
715.123	505.2
715.53	508.2
715.938	517
716.367	510.2
716.775	505
717.184	502.6
717.592	509.8
718	512.2
718.408	539.8
718.816	542.8
719.225	511.4
719.633	505.4
720.042	495.2
720.472	507.8
720.881	523.8
721.29	508.8
721.699	498
722.108	507.4
722.517	506.8
722.926	500.6
723.335	510.6
723.744	506.4
724.154	501.2
724.563	501.2
724.973	509.6
725.382	508.8
725.792	503
726.202	493.6
726.612	514.4
727.022	500.8
727.432	512.8
779.813	499.4
780.223	535.6
780.634	501.6
781.044	498.2
781.454	504.4
781.865	515.4
782.276	505.8
782.686	513.6
783.097	502.6
783.508	499.8
783.919	515
784.33	516.6
784.741	515
785.152	492
785.563	491.8
785.974	501.2
786.386	514.4
786.776	504
787.188	504.8
787.599	498.2
788.011	510.4
788.423	505.6
788.835	497
789.247	495.8
789.659	499
790.071	499.2
790.483	537.2
790.874	499.2
791.286	508.4
791.699	494.8
792.111	506.4
792.524	494.8
792.937	505
793.349	499.8
793.741	489.6
794.154	501.6
794.567	516.4
794.98	497.4
795.393	501
795.785	519.2
796.198	504
796.612	505.6
797.026	495.2
797.439	486.6
797.831	497.2
798.245	495.2
798.659	503.8
799.073	496.2
799.487	491.8
799.88	501.8
800.294	498.2
800.708	509.4
801.123	501.8
801.516	521.6
801.93	490.2
802.345	500.2
802.76	498.4
803.153	515
803.568	515.6
803.983	517.2
804.377	508.4
804.792	491.2
805.207	488.8
805.601	502
806.016	530.4
806.432	505
806.826	521.4
807.242	515.8
807.658	500.6
808.052	501.6
808.468	502
808.884	491.8
809.279	503.4
809.695	513.4
810.111	519.4
810.506	508.4
810.922	516.8
811.339	495.6
811.734	507.4
812.151	496.6
812.546	493.6
812.963	490
813.38	501.4
813.776	497.2
814.193	510.2
814.589	497.4
815.006	503.2
815.402	494.6
815.82	498
816.237	497
816.633	504.2
817.051	500
817.448	497.2
817.866	488.8
818.262	514.6
818.68	492.6
819.077	497
819.495	497.6
819.892	521.4
820.311	497.4
820.708	500
821.127	498.6
821.524	513.6
821.943	503.8
822.34	514.4
822.759	500
823.157	497
823.576	516.8
823.974	510
824.393	595.4
824.791	494.6
825.189	488.4
825.609	499
826.007	494.8
826.427	496
826.826	494
827.246	495.4
827.644	488.8
828.043	509.8
828.463	492
828.862	507.2
829.261	504.2
829.682	489.6
830.081	500.8
830.502	489.4
830.901	505.6
831.301	495.8
831.722	491.2
832.121	501
832.521	497.6
832.943	503.6
833.342	492
833.742	497.6
834.164	493.8
834.564	490.4
834.965	499.6
835.386	494.8
835.787	490
836.188	499
836.588	500.8
837.01	493.6
837.411	494.6
837.812	506
838.213	502
838.636	496
839.037	555.2
839.438	498.2
839.84	501.8
840.263	500.6
840.664	501.8
841.066	500.8
841.468	508.8
841.891	495.4
842.293	504.8
842.695	502
843.098	506
843.5	493.8
843.902	500.4
844.326	497.2
844.729	507.8
845.131	520
845.534	500.6
845.937	512.2
846.34	516
846.764	499.6
847.167	505.8
847.571	493.6
847.974	497.4
848.377	499.6
848.781	528.8
849.184	504.8
849.588	499.4
849.992	496.2
850.396	496.6
850.821	511.8
851.225	497.4
851.63	493.4
852.034	504
852.438	499.8
852.843	563.8
853.247	489.2
853.652	494.2
854.057	514.8
854.462	503.2
854.867	497.4
855.272	523.8
855.677	507.4
