#lambda/nm	C1
208.295	473.4
208.67	429.8
209.045	395
209.419	398
209.794	536
210.169	517.2
210.544	623.8
210.919	542.6
211.295	530.4
211.67	531.8
212.045	533.8
212.421	527.8
212.796	559.6
213.172	528
213.547	527.8
213.923	529.4
214.299	534.4
214.675	545.8
215.051	532.4
215.427	543.2
215.803	546.8
216.179	537.2
216.555	530.6
216.932	542.8
217.308	538.8
217.684	534.8
218.061	543.6
218.438	541.6
218.814	526.6
219.191	546.2
219.568	527.2
219.945	531.6
220.322	540.6
220.699	539.6
221.076	543.2
221.453	535.2
221.83	524.6
222.208	532
222.585	530
222.962	535.4
223.34	537.8
223.717	539.2
224.095	537.2
224.473	533.8
224.851	526.4
225.229	526.8
225.607	542.8
225.985	538.4
226.363	535.2
226.741	540
227.119	529.2
227.497	541.2
227.876	529.4
228.254	542.2
228.633	542.2
229.011	544.6
229.39	542.6
229.769	529.8
230.148	540.4
230.527	554.6
230.905	536.6
231.284	533
231.664	535
232.043	548.4
232.422	540.2
232.801	522.6
233.181	541.4
233.56	538.8
233.94	537.2
234.319	518.6
234.699	534.4
235.079	565.6
235.458	567.4
235.838	542.4
236.218	526.2
236.598	529.8
236.978	521.6
237.358	526.2
237.738	532.2
238.119	531.2
238.499	526.4
238.88	536.8
239.26	551.4
239.641	526
240.021	522.4
240.402	531.8
240.783	534.2
241.163	530.4
241.544	534.6
241.925	536.8
242.306	544.8
242.687	521.6
243.069	529.8
243.45	542.8
243.831	529
244.212	525.2
244.594	558.6
244.975	534.8
245.357	541
245.739	526.6
246.12	524.4
246.502	540.4
246.884	541.2
247.266	532.8
247.648	536.6
248.03	554.8
248.412	533
248.794	538.2
249.176	535.8
249.559	541.4
249.941	530
250.323	536
250.706	535.4
251.089	540.6
251.471	532
251.854	535.4
252.237	541.4
252.62	538.8
253.002	540.6
253.385	536.8
253.769	537.4
254.152	543.6
254.535	542.6
254.918	531.6
255.301	526.4
255.685	541.6
256.068	527
256.452	553
256.835	543.8
257.219	538.6
257.603	553
257.986	535.4
258.37	535.6
258.754	533.6
259.138	540.6
259.522	542.2
259.906	532.6
260.29	542.6
260.675	537.8
261.059	536.2
261.443	523.8
261.828	550
262.212	535.8
262.597	523
262.981	525.6
263.366	530.6
263.751	533.8
264.136	525.4
264.521	533.6
264.906	525.6
265.291	534.2
265.676	531.2
266.061	543.6
266.446	548.8
266.831	528.8
267.217	552.8
267.602	534.8
267.987	534.8
268.373	530.6
268.759	548.4
269.144	537.4
269.53	530.6
269.916	534.8
270.302	532
270.688	545
271.074	540.8
271.46	548
271.846	556.2
272.232	534.4
272.618	529.8
273.004	534.4
273.391	541
273.777	545.8
274.164	532.8
274.55	542.6
274.937	541.8
275.324	538
275.71	541
276.097	542.8
276.484	524.6
276.871	537
277.258	540.4
277.645	525.4
278.032	535.8
278.419	531
278.807	540.4
279.194	539
279.581	532.2
279.969	547.6
280.356	534
280.744	535.4
281.131	562.4
281.519	540
281.907	531.4
282.295	529.4
282.682	546.4
283.07	530.8
283.458	535.4
283.846	541
284.235	537.4
284.623	536.2
285.011	526.6
285.399	536.4
285.788	530.8
286.176	530.8
286.565	542
286.953	532.8
287.342	524.4
287.731	535.6
288.119	539.6
288.508	536.8
288.897	534.6
289.286	526.6
289.675	537
290.064	541
290.453	525.8
290.821	530
291.21	545
291.599	530.8
291.989	529.2
292.378	539.2
292.768	540.8
293.157	538.4
293.547	545.4
293.936	533
294.326	529
294.716	538.8
295.106	533.2
295.496	541.6
295.886	545.4
296.276	542.2
296.666	529
297.056	533.2
297.446	527.8
297.836	546.2
298.227	528.6
298.617	539.2
299.008	541.6
299.398	532.8
299.789	532
300.179	543.2
300.57	548
300.961	533
301.352	537.2
301.742	540.2
302.133	531
302.524	539.8
302.915	538.8
303.307	532
303.698	540.4
304.089	541.2
304.48	540.6
304.872	536.4
305.263	535.4
305.655	526.2
306.046	539.6
306.438	543.4
306.829	533.6
307.221	543
307.613	551
308.005	548
308.397	547.2
308.789	553.6
309.181	552.4
309.573	551.4
309.965	542.8
310.357	531
310.749	544.8
311.142	525
311.534	526
311.926	539.4
312.319	531.4
312.711	531.4
313.104	545.6
313.497	524
313.889	570.6
314.282	545.4
314.675	554.4
315.068	538.6
315.461	544.4
315.854	561
316.247	533
316.64	537
317.033	535.4
317.405	544
317.798	537.6
318.192	539.4
318.585	529
318.979	539
319.372	527.8
319.766	534
320.16	544.2
320.553	549.2
320.947	552.6
321.341	533.8
321.735	532.8
322.129	526.6
322.523	554
322.917	528.2
323.311	544.6
323.705	540.4
324.099	540.8
324.494	551.8
324.888	547.4
325.282	532
325.677	545.2
326.071	552
326.466	538.2
326.861	536.6
327.255	546.8
327.65	552.8
328.045	548
328.44	537
328.835	539.4
329.23	531.6
329.625	552.2
330.02	532.6
330.415	555.8
330.81	532.8
331.206	537.4
331.601	532.6
331.996	545.4
332.37	549
332.766	525.6
333.161	555.6
333.557	523.8
333.953	542.8
334.348	759.8
334.744	542.4
335.14	531.6
335.536	538
335.932	540.8
336.328	536.4
336.724	541.4
337.12	535.4
337.516	540.4
337.913	534
338.309	542.6
338.705	534
339.102	542
339.498	528.2
339.895	542
340.291	529
340.688	544.4
341.085	527.6
341.481	527.4
341.878	527
342.275	544
342.672	524.8
343.069	527.8
343.466	520.8
343.842	538.6
344.239	523.2
344.636	533.6
345.033	529.6
345.431	529.4
345.828	538.6
346.225	527
346.623	558.2
347.02	532.8
347.418	543.8
347.816	545
348.213	522.2
348.611	538
349.009	533.2
349.407	535
349.805	528
350.203	527.2
350.601	545.6
350.999	529.6
351.397	562.6
351.795	529.2
352.193	542.4
352.57	545.6
352.969	541.4
353.367	528
353.766	529.2
354.164	524.8
354.563	541.2
354.961	528.2
355.36	530
355.759	534.2
356.158	525.4
356.557	518.2
356.956	526.4
357.355	525.2
357.754	537.6
358.153	540.2
358.552	554.2
358.951	533.8
359.35	542.2
359.75	525.6
360.149	519.8
360.527	517
360.926	525.2
361.326	527.4
361.726	524.6
362.125	519.6
362.525	534.2
362.925	525.2
363.325	531.6
363.724	528
364.124	525.2
364.524	525.2
364.924	524
365.324	537.8
365.725	515.2
366.125	531.6
366.525	525.8
366.904	525.8
367.304	518.2
367.705	541.6
368.105	538.6
368.506	533.4
368.906	526
369.307	527.6
369.708	533.2
370.108	525.4
370.509	532.6
370.91	529.8
371.311	531
371.712	534.6
372.113	531
372.514	514.2
372.894	527.6
373.295	522.8
373.696	534.2
374.097	532.4
374.499	557
374.9	532.4
375.301	533.4
375.703	535.2
376.105	528.6
376.506	529.6
376.908	532.8
377.309	528.4
377.711	532.4
378.113	516.2
378.493	526.2
378.895	527.4
379.297	532
379.699	513.2
380.102	527.2
380.504	533.8
380.906	522.8
381.308	540.4
381.71	525.4
382.113	535.2
382.515	527.2
382.918	534.8
383.299	527.6
383.701	533.8
384.104	530.8
384.507	507.8
384.909	521.2
385.312	514.6
385.715	517.6
386.118	525.6
386.521	518.4
386.924	539.8
387.327	523
387.709	521.2
388.112	515.8
388.515	526.4
388.918	522.8
389.322	531.2
389.725	530.8
390.129	545.8
390.532	526
390.936	529
391.339	524
391.743	531.6
392.125	522
392.529	530
392.933	540
393.337	527.8
393.74	526.2
394.144	536
394.548	522.8
394.953	517.6
395.357	536.6
395.761	527.2
396.144	528
396.548	524.4
396.952	527.2
397.357	528.6
397.761	526.6
398.166	525.6
398.57	533.8
398.975	517.8
399.379	531.2
399.763	577.6
400.168	522.8
400.572	527.6
400.977	525
401.382	535.4
401.787	538.6
402.192	543.6
402.597	538.8
403.002	512.2
403.386	536.8
403.791	533.4
404.197	522.8
404.602	515.4
405.007	526.6
405.413	518.2
405.818	522.6
406.224	515.6
406.608	522.6
407.014	522.2
407.42	541.2
407.825	529
408.231	535.4
408.637	526.4
409.043	541.2
409.449	519.8
409.834	518.4
410.24	522.4
410.646	538.2
411.052	535.6
411.458	533.4
411.865	531.4
412.271	534.6
412.677	526.8
413.062	534.6
413.469	525.4
413.875	555
414.282	541.2
414.689	535.6
415.095	529.6
415.502	524.6
415.888	527.8
416.294	521.4
416.701	564.4
417.108	523.4
417.515	532
417.923	526.6
418.33	544.2
418.715	538.6
419.123	520.6
419.53	525
419.937	532
420.345	534.8
420.752	525
421.16	538.8
421.546	528.4
421.953	534.2
422.361	524.2
422.769	519.2
423.177	517.2
423.585	553
423.992	543.4
424.379	533.4
424.787	538.8
425.195	545.2
425.603	526
426.011	533.8
426.419	538.8
426.806	531.4
427.214	531.2
427.623	534.6
428.031	538.8
428.44	525.4
428.848	538.6
429.235	547.8
429.644	526.8
430.053	532
430.461	537.4
430.87	545.6
431.279	537.6
431.666	528.8
432.075	532.6
432.484	528
432.893	526.4
433.302	534.2
433.711	561.8
434.099	531.4
434.508	522.4
434.918	520.2
435.327	532.4
435.737	523
436.125	524.8
436.534	523.2
436.944	524.8
437.353	528
437.763	544.6
438.173	515.8
438.561	538.4
438.971	509.8
439.381	522.6
439.791	520.2
440.201	517.4
440.589	520.8
440.999	525.8
441.409	523.4
441.819	521
442.23	536
442.619	528.6
443.029	526.4
443.439	522.6
443.85	541.4
444.26	531.8
444.649	539.8
445.06	526.8
445.471	525.2
445.881	532.4
446.292	534.8
446.682	550.4
447.092	520.2
447.503	571.4
447.914	526.2
448.325	526.8
448.715	525.4
449.126	525.6
449.537	525.4
449.948	535.8
450.338	529.6
450.75	530.4
451.161	527
451.572	536
451.984	524.4
452.374	517.8
452.786	529.6
453.197	533.2
453.609	535.4
453.999	513
454.411	518.6
454.823	534.6
455.235	528.8
455.647	528
456.037	523.4
456.449	515.6
456.862	526.2
457.274	521
457.665	513.4
458.077	530
458.489	549.4
458.902	518.4
459.293	521.6
459.705	520
460.118	522
460.53	524.2
460.921	521.8
461.334	520.8
461.747	519
462.16	523.4
462.551	536.4
462.964	526.8
463.377	509.6
463.79	522.8
464.182	530.4
464.595	516.6
465.008	523.8
465.421	525.8
465.813	525.2
466.226	527
466.64	511.4
467.053	553.6
467.445	532
467.859	529.2
468.272	522.2
468.686	532.4
469.078	516.2
469.492	517.6
469.906	522.6
470.298	525.8
470.712	512.6
471.126	540.6
471.54	510.6
471.933	514.2
472.347	519.8
472.761	521.8
473.175	513
473.568	521.6
473.982	512.4
474.397	516.2
474.79	527
475.204	526
475.619	516.2
476.033	520.6
476.426	517.2
476.841	518
477.256	539.8
477.649	523.6
478.064	519
478.479	515.4
478.872	511.8
479.287	500.8
479.702	505
480.118	515.4
480.511	522.4
480.927	522.2
481.342	523.8
481.736	520.4
482.151	516.4
482.566	524
482.96	515.8
483.376	527.4
483.792	519.2
484.186	520.4
484.602	521.6
485.017	525.8
485.412	516
485.827	526.4
486.243	520.2
486.638	538
487.054	529.2
487.47	531.8
487.865	517.8
488.281	515.4
488.697	511
489.092	511.4
489.508	509
489.925	523.8
490.32	517
490.736	525
491.153	514.4
491.548	514.8
491.964	527.4
492.381	514.6
492.776	526.4
493.193	517.2
493.61	523.2
494.006	513.2
494.422	521.4
494.84	514
495.235	528
495.652	519.2
496.069	519
496.465	509.8
496.883	527.2
497.3	537.6
497.696	517.2
498.113	521.6
498.509	510.6
498.927	514
499.344	512.4
499.741	516
500.158	527
500.576	529.2
500.973	521.6
501.39	515
501.787	510.6
502.205	523.2
502.623	511.4
503.02	507
503.438	508.2
503.856	513.6
504.253	518
504.671	519.8
505.068	505.6
505.486	510.6
505.905	531.4
506.302	520.6
506.72	521.4
507.118	503.6
507.536	516
507.955	510.4
508.352	514.6
508.771	518
509.169	517.2
509.587	516
510.006	514.4
510.404	509.8
510.823	510.2
511.221	514.6
511.64	520.8
512.038	528
512.457	518.2
512.877	521.6
513.275	515.2
513.694	521
514.092	512.4
514.512	517.6
514.91	525.6
515.33	517.8
515.749	511
516.148	517
516.568	519
516.966	515.6
517.386	514.4
517.785	517
518.205	518.8
518.603	512.4
519.024	515.6
519.444	518
519.843	525.8
520.263	529.4
520.662	523.6
521.082	516
521.481	515
521.902	510.2
522.301	523.4
522.722	516.8
523.121	512.4
523.542	511.4
523.963	512.4
524.362	517.2
524.783	520.2
525.183	519.4
525.604	515.4
526.003	508.8
526.425	509
526.824	524.2
527.246	526.4
527.646	532.8
528.067	515
528.467	515.2
528.888	514.4
529.289	510
529.71	509.8
530.11	511.8
530.532	508.6
530.932	510.4
531.354	505.4
531.755	541.8
532.176	518.8
532.577	514.6
532.999	508.4
533.4	512.4
533.822	519
534.223	512.2
534.645	521
535.046	517.8
535.468	515
535.869	522.8
536.292	513.4
536.693	537
537.115	519.2
537.516	513
537.939	511.2
538.34	532.2
538.742	520.8
539.165	519.2
539.566	514
539.989	510.4
540.391	509.6
540.814	518.6
541.216	516.6
541.639	517.4
542.041	520
542.464	516.6
542.866	514
543.268	505.2
543.691	514.2
544.093	520
544.517	536.6
544.919	510.2
545.343	537
545.745	512.4
546.147	523.2
546.571	512
546.974	504.8
547.398	519.6
547.8	531.6
548.224	511.8
548.627	515.2
549.03	520.4
549.454	514
549.857	505.6
550.281	509.2
550.684	510.4
551.087	529
551.512	517
551.915	513.2
552.34	519.4
552.743	502
553.146	518.4
553.571	511.6
553.975	532.8
554.399	511.6
554.803	556
555.207	517.2
555.632	502
556.036	513.8
556.461	509.8
556.865	517.4
557.268	502.2
557.694	510.4
558.098	521.6
558.502	521.4
558.927	507.4
559.332	513
559.736	513.2
560.162	512.4
560.566	519.6
560.992	521
561.396	517
561.801	512.2
562.227	515.2
562.631	518.4
563.036	514.2
563.462	517
563.867	514.4
564.272	512.6
564.698	519.2
565.103	504.4
565.508	525.2
565.935	511
566.34	510.8
566.745	517.6
567.172	516.8
567.577	525.6
567.982	520.4
568.409	512.2
568.815	501.4
569.22	515.4
569.626	514.6
570.053	512.2
570.459	512
570.865	520.4
571.292	521
571.698	519.6
572.104	507.2
572.531	511.4
572.937	518.6
573.343	512.4
573.75	508
574.177	518.6
574.583	514.2
574.99	509.8
575.396	522.4
575.824	510.6
576.231	508.8
576.637	512.2
577.065	531.8
577.472	515.4
577.879	511
578.286	524
578.714	505.4
579.121	508.6
579.528	510.8
579.935	521.8
580.364	515.6
580.771	503.2
581.178	511.6
581.585	513.6
582.014	518.4
582.421	512.8
582.829	510.8
583.236	514.8
583.644	512
584.073	509.4
584.481	521.4
584.889	499.8
585.296	519.8
585.726	508.4
586.134	505.8
586.542	513.2
586.95	527.2
587.358	508
587.787	517.2
588.196	503.4
588.604	509.8
589.012	513.6
589.421	507.4
589.851	498
590.259	511.8
590.668	513.4
591.076	540.2
591.485	509
591.894	515.8
592.324	521.2
592.733	519
593.142	503
593.551	511.6
593.96	544.6
594.369	502.6
594.8	510.6
595.209	517.2
595.618	498.8
596.028	505.8
596.437	505.6
596.847	510.4
597.256	511.8
597.687	508.8
598.097	514.8
598.507	507.8
598.917	517
599.327	514.4
599.736	508.8
600.146	513.4
600.556	508.6
600.988	520.8
601.398	507.6
601.808	524.4
602.219	502.2
602.629	504.6
603.039	505
603.45	529.2
603.86	514.2
604.271	517.8
604.703	510.6
605.114	508.8
605.525	509.6
605.935	521
606.346	533.6
606.757	517
607.168	511.6
607.579	507.6
607.99	523.6
608.402	515.6
608.813	521.4
609.224	513
609.636	509.6
610.047	503.4
610.48	516
610.892	526
611.303	519
611.715	517.2
612.127	512.2
612.539	510
612.95	515.6
613.362	503.8
613.774	505.6
614.186	510.4
614.599	511
615.011	514.2
615.423	517.2
615.835	520.8
616.248	510.8
616.66	518.8
617.073	507.6
617.485	510.6
617.898	516.8
618.311	518.2
618.723	514.2
619.136	529.4
619.549	518.4
619.962	524
620.375	511.4
620.788	510.4
621.201	503.4
621.614	511.4
622.028	510
622.441	510.2
622.854	521.6
623.268	507
623.681	518.8
624.095	513.4
624.509	522.6
624.922	515.6
625.336	505
625.728	509.4
626.142	514.4
626.556	519.4
626.97	509.4
627.384	504.6
627.799	504
628.213	514
628.627	512
629.041	501
629.456	505.8
629.87	501.8
630.285	510.4
630.699	510.6
631.093	505.6
631.507	499.8
631.922	508
632.337	523
632.752	497.6
633.167	506.6
633.582	516.2
633.997	505.2
634.412	514
634.806	509
635.221	504.8
635.637	516.2
636.052	498.8
636.468	516.4
636.883	526
637.299	504.8
637.715	502.4
638.109	502.8
638.525	501.2
638.941	518
639.357	514.8
639.773	527.2
640.189	504.6
640.584	501.6
641	507.4
641.416	501.6
641.832	514.6
642.249	509.6
642.665	506.4
643.06	516.2
643.477	514
643.894	499
644.31	506.6
644.727	513.6
645.123	512.4
645.54	509.4
645.957	513.6
646.374	514.2
646.77	509
647.187	537.2
647.604	511.8
648.021	497.4
648.439	499.8
648.835	511.2
649.252	504.8
649.67	507.2
650.088	505.2
650.484	507.8
650.902	512.6
651.32	515
651.738	504.2
652.134	506.2
652.552	515
652.971	514.4
653.389	505.4
653.786	513.8
654.204	507
654.622	496.8
655.019	510.6
655.438	513.6
655.857	513.4
656.275	509
656.673	495
657.091	508.8
657.51	501.8
657.908	517.2
658.327	520
658.746	504.4
659.144	509.4
659.563	525.8
659.982	508.2
660.38	502.6
660.8	505.6
661.219	514.2
661.617	515.8
662.037	508.2
662.457	512.2
662.855	493.6
663.275	528.4
663.695	517.2
664.094	511.8
664.514	510.6
664.934	502.8
665.333	507.8
665.753	504
666.152	504.4
666.572	504.4
666.993	518
667.392	500.4
667.812	510.6
668.212	504.2
668.632	523.4
669.053	505.4
669.453	511.4
669.874	513.2
670.273	508.2
670.694	498.2
671.116	514.2
671.515	519.4
671.937	512.4
672.337	505.4
672.758	503.4
673.158	508
673.58	494.2
673.98	504
674.402	514
674.824	503.8
675.224	504
675.646	496.2
676.047	501
676.469	511.6
676.869	512.8
677.292	508.2
677.693	506.2
678.115	507.2
678.516	515.2
678.939	511
679.34	515.4
679.762	521
680.164	507.6
680.586	495
680.988	515.8
681.411	526.8
681.812	507.8
682.236	495.6
682.637	498
683.061	497.8
683.462	513.2
683.864	509.6
684.288	511
684.69	497.6
685.114	509.6
685.516	518.4
685.94	501.2
686.342	514.4
686.766	500.4
687.168	499
687.571	525.8
687.995	503.6
688.398	500
688.822	506.2
689.225	518.2
689.628	523.6
690.052	504.8
690.456	512.2
690.88	510.2
691.284	492
691.687	509.4
692.112	492.2
692.515	495
692.919	507.2
693.344	517.2
693.747	505
694.173	504.8
694.577	514.2
694.98	506.2
695.406	497.6
695.81	504.4
696.214	506
696.64	505.4
697.044	506.2
697.448	507.8
697.874	506.2
698.279	498.8
698.684	498
699.11	493.4
699.514	499.4
699.919	498.6
700.324	498
700.75	503.2
701.156	501.8
701.561	510.8
701.987	509.6
702.393	510.2
702.798	516
703.203	506.6
703.63	502.2
704.036	499.6
704.442	504.4
704.847	496.2
705.274	505.4
705.68	512.2
706.086	513.2
706.492	495
706.92	506.2
707.326	511.6
707.732	503.4
708.139	496.2
708.545	493.4
708.973	502.8
709.38	504.6
709.786	494.4
710.193	512.6
710.6	505.6
711.028	505.8
711.435	501.4
711.842	504.4
712.249	499.8
712.656	511.2
713.064	511.8
713.492	502.2
713.9	502
714.307	505.8
714.715	501.2
715.123	503
715.53	509.6
715.938	513.6
716.367	499.4
716.775	502.4
717.184	496.6
717.592	502.4
718	505.4
718.408	536
718.816	542.6
719.225	505.6
719.633	501.4
720.042	502.8
720.472	492.6
720.881	523.6
721.29	501.6
721.699	497
722.108	505.6
722.517	504
722.926	497.8
723.335	507.6
723.744	504.6
724.154	495.6
724.563	505
724.973	499.2
725.382	498.2
725.792	492.2
726.202	483.4
726.612	501
727.022	497.4
727.432	495.2
779.813	498.4
780.223	536.8
780.634	498.4
781.044	491.8
781.454	497.2
781.865	515.8
782.276	487.6
782.686	510.6
783.097	496.2
783.508	493.8
783.919	504.4
784.33	512.2
784.741	509
785.152	492.4
785.563	491.4
785.974	494
786.386	509.8
786.776	507.2
787.188	503
787.599	492
788.011	502.8
788.423	506.2
788.835	494.2
789.247	497.2
789.659	496.2
790.071	502.2
790.483	530
790.874	494.4
791.286	515.2
791.699	501.4
792.111	504
792.524	502.6
792.937	503
793.349	496
793.741	502.8
794.154	500
794.567	518.2
794.98	505.2
795.393	492.6
795.785	517.2
796.198	502.6
796.612	504.2
797.026	501.6
797.439	495.6
797.831	498
798.245	494.4
798.659	501
799.073	498.8
799.487	500
799.88	502.4
800.294	501.6
800.708	503
801.123	509.2
801.516	517.6
801.93	492.6
802.345	488.2
802.76	499
803.153	513.2
803.568	501.6
803.983	505.6
804.377	503.4
804.792	489.8
805.207	494.8
805.601	500.4
806.016	529.8
806.432	496
806.826	529.6
807.242	506.6
807.658	503
808.052	492.6
808.468	499.8
808.884	490.2
809.279	497.4
809.695	505.4
810.111	523.6
810.506	500.4
810.922	519.2
811.339	494.2
811.734	506.6
812.151	497
812.546	503
812.963	493.4
813.38	506
813.776	501.8
814.193	521.2
814.589	494.8
815.006	493
815.402	502.6
815.82	500
816.237	497
816.633	503.6
817.051	502.2
817.448	504.4
817.866	493.2
818.262	522.6
818.68	499.4
819.077	495.8
819.495	505.2
819.892	535.6
820.311	494.6
820.708	500.8
821.127	496
821.524	508.8
821.943	504
822.34	515.8
822.759	499.2
823.157	501.4
823.576	512.8
823.974	508.6
824.393	591
824.791	505.6
825.189	494.2
825.609	499.4
826.007	496.8
826.427	492.4
826.826	497.6
827.246	502.2
827.644	488
828.043	507.6
828.463	500.8
828.862	508.4
829.261	504
829.682	499.8
830.081	500.4
830.502	495.8
830.901	509.6
831.301	496.4
831.722	493.2
832.121	502.8
832.521	503
832.943	498.2
833.342	504.8
833.742	487.4
834.164	493.6
834.564	495.4
834.965	502.2
835.386	503.6
835.787	496
836.188	503.6
836.588	496.6
837.01	502
837.411	495.2
837.812	502.8
838.213	501.8
838.636	499
839.037	561.4
839.438	503.2
839.84	504.6
840.263	508.6
840.664	503.4
841.066	507.2
841.468	505.6
841.891	492.6
842.293	506.8
842.695	502.8
843.098	508.8
843.5	496.6
843.902	501.4
844.326	502.4
844.729	498
845.131	510.4
845.534	500.8
845.937	511.8
846.34	508.8
846.764	493.8
847.167	494.8
847.571	489.8
847.974	494.4
848.377	496.6
848.781	534.2
849.184	504
849.588	493.2
849.992	495.2
850.396	493.2
850.821	508.6
851.225	504
851.63	501.4
852.034	510.2
852.438	497.6
852.843	562
853.247	498.8
853.652	491.8
854.057	514
854.462	504
854.867	499.6
855.272	514.6
855.677	501.4
856.082	494.2
856.487	491.6
