#lambda/nm	C1
208.295	468.2
208.67	436.8
209.045	399.2
209.419	398.6
209.794	537.4
210.169	532
210.544	622
210.919	537.4
211.295	527.4
211.67	540.8
212.045	534
212.421	532.6
212.796	564.8
213.172	535.4
213.547	532.2
213.923	531.2
214.299	533.4
214.675	542.4
215.051	538.6
215.427	541.2
215.803	550.4
216.179	542.2
216.555	529.4
216.932	545.6
217.308	531
217.684	533.6
218.061	539.6
218.438	533.8
218.814	529.4
219.191	539
219.568	518.2
219.945	530.4
220.322	534.8
220.699	537.2
221.076	537.4
221.453	535.8
221.83	529
222.208	533
222.585	524.8
222.962	522.6
223.34	532.8
223.717	527
224.095	527.4
224.473	534
224.851	531.6
225.229	524.2
225.607	541.4
225.985	526.4
226.363	544
226.741	534.6
227.119	532.8
227.497	547
227.876	525
228.254	540.4
228.633	543
229.011	533.2
229.39	536.4
229.769	536.6
230.148	535.4
230.527	553.6
230.905	530
231.284	539.8
231.664	535
232.043	546.2
232.422	542.6
232.801	527.4
233.181	532.6
233.56	526.4
233.94	541.2
234.319	522.4
234.699	527.2
235.079	563
235.458	561
235.838	547.4
236.218	524.2
236.598	528.6
236.978	528.8
237.358	529.2
237.738	531.6
238.119	528.6
238.499	528.8
238.88	532
239.26	542.2
239.641	516.6
240.021	531.8
240.402	536.8
240.783	524.4
241.163	530.6
241.544	534.8
241.925	528.4
242.306	544
242.687	527.6
243.069	529.2
243.45	534.8
243.831	530.8
244.212	530.2
244.594	559
244.975	544.4
245.357	537
245.739	530.2
246.12	533.2
246.502	550.8
246.884	530.8
247.266	538.4
247.648	537.8
248.03	554.6
248.412	532.4
248.794	537
249.176	533.4
249.559	545.4
249.941	537
250.323	525.6
250.706	531.6
251.089	535.6
251.471	540.8
251.854	538.8
252.237	533.2
252.62	542.6
253.002	527.2
253.385	538.2
253.769	542.4
254.152	528.4
254.535	541.4
254.918	520.6
255.301	531
255.685	530
256.068	530.2
256.452	554.8
256.835	540.4
257.219	536
257.603	544
257.986	521.6
258.37	537.2
258.754	524
259.138	534
259.522	534.6
259.906	528.8
260.29	532.2
260.675	527.8
261.059	534.6
261.443	525.2
261.828	542.6
262.212	538
262.597	528.6
262.981	527.2
263.366	534.4
263.751	532
264.136	531.4
264.521	525.8
264.906	524
265.291	543
265.676	530.8
266.061	539.4
266.446	552
266.831	537.6
267.217	544
267.602	539
267.987	532
268.373	524
268.759	542.4
269.144	539.8
269.53	536.8
269.916	531.8
270.302	533.6
270.688	543.2
271.074	532.6
271.46	551.8
271.846	559.8
272.232	533.4
272.618	524.2
273.004	534.8
273.391	547.4
273.777	542.2
274.164	533
274.55	543.6
274.937	540.2
275.324	535.2
275.71	541.6
276.097	531.2
276.484	528.2
276.871	533.2
277.258	533
277.645	518.2
278.032	533.2
278.419	525.8
278.807	533.4
279.194	529.8
279.581	531.8
279.969	532.2
280.356	537.8
280.744	534.4
281.131	546.4
281.519	540.8
281.907	532.6
282.295	538.6
282.682	543.2
283.07	539.6
283.458	536.8
283.846	542.2
284.235	545.2
284.623	534.2
285.011	536.8
285.399	538
285.788	537.4
286.176	521.4
286.565	540
286.953	530.8
287.342	529.6
287.731	524.8
288.119	528.8
288.508	528.4
288.897	532.6
289.286	525.2
289.675	535.8
290.064	547.6
290.453	531.4
290.821	533.8
291.21	547.8
291.599	528
291.989	532.2
292.378	542.2
292.768	554.8
293.157	540.4
293.547	539.8
293.936	534.6
294.326	537
294.716	532.8
295.106	529.2
295.496	545.2
295.886	537.4
296.276	533.8
296.666	528
297.056	529.4
297.446	521.8
297.836	546.6
298.227	528.6
298.617	535.2
299.008	544.8
299.398	531.2
299.789	537.2
300.179	528.6
300.57	549.4
300.961	535.2
301.352	528
301.742	542.8
302.133	532.6
302.524	534
302.915	532.6
303.307	525.6
303.698	543.2
304.089	538.4
304.48	531.8
304.872	531.2
305.263	540.8
305.655	530.2
306.046	541
306.438	542
306.829	534.6
307.221	539.8
307.613	539
308.005	539.2
308.397	551.6
308.789	549.6
309.181	556.2
309.573	541.2
309.965	542.4
310.357	530.4
310.749	551.6
311.142	528.8
311.534	535
311.926	539.4
312.319	528.6
312.711	533
313.104	539.6
313.497	535.2
313.889	573
314.282	541.6
314.675	555.8
315.068	535.8
315.461	536.4
315.854	557.6
316.247	537.4
316.64	532
317.033	533.6
317.405	536.4
317.798	535.2
318.192	541.8
318.585	522.4
318.979	542.6
319.372	516.2
319.766	530.8
320.16	537.2
320.553	540.6
320.947	550.2
321.341	535.4
321.735	537.2
322.129	530
322.523	553.8
322.917	532
323.311	537
323.705	536.8
324.099	534.2
324.494	549
324.888	550
325.282	534.8
325.677	538.2
326.071	539.2
326.466	538.2
326.861	527.8
327.255	550.4
327.65	538.4
328.045	543.8
328.44	535.4
328.835	538
329.23	530.8
329.625	550.6
330.02	528
330.415	551.4
330.81	533
331.206	533.8
331.601	523.6
331.996	541.4
332.37	548
332.766	526.4
333.161	562
333.557	533.8
333.953	539.4
334.348	870.4
334.744	539.6
335.14	523.6
335.536	530.2
335.932	544.4
336.328	532.4
336.724	541.6
337.12	535
337.516	533.6
337.913	536
338.309	548
338.705	531.4
339.102	540
339.498	521.4
339.895	536.4
340.291	531.4
340.688	551.2
341.085	523.8
341.481	530.4
341.878	542
342.275	554.6
342.672	529.6
343.069	530.2
343.466	522
343.842	540
344.239	525.6
344.636	530.4
345.033	527.6
345.431	527
345.828	530.2
346.225	530.8
346.623	561.4
347.02	531.4
347.418	538.6
347.816	538.8
348.213	528
348.611	536
349.009	528.2
349.407	544.8
349.805	526.2
350.203	527.6
350.601	540.4
350.999	533.8
351.397	562.8
351.795	531.8
352.193	528.6
352.57	536.6
352.969	545
353.367	520.6
353.766	523.8
354.164	524.8
354.563	541.6
354.961	527.8
355.36	524.2
355.759	533.2
356.158	523.6
356.557	524
356.956	524
357.355	515.6
357.754	533.4
358.153	529
358.552	545.8
358.951	524.2
359.35	530.2
359.75	527.6
360.149	518
360.527	516.4
360.926	528.2
361.326	536.4
361.726	527
362.125	522.8
362.525	530.4
362.925	528.4
363.325	530.8
363.724	524.6
364.124	528.8
364.524	522.8
364.924	529.8
365.324	538.8
365.725	518.2
366.125	533.6
366.525	530.6
366.904	526.6
367.304	513.2
367.705	545.4
368.105	533.6
368.506	523.8
368.906	532.2
369.307	533
369.708	533.2
370.108	516.6
370.509	534
370.91	525.6
371.311	525.2
371.712	531.2
372.113	530.8
372.514	518.6
372.894	529.4
373.295	515.6
373.696	542
374.097	530.6
374.499	552.2
374.9	534
375.301	520.6
375.703	525.4
376.105	527
376.506	527.8
376.908	528.6
377.309	528.6
377.711	524.2
378.113	519.4
378.493	526.8
378.895	531.2
379.297	526
379.699	515.8
380.102	531.2
380.504	524.6
380.906	518.2
381.308	545.8
381.71	517.4
382.113	532
382.515	521.4
382.918	531.4
383.299	530
383.701	538.6
384.104	530.8
384.507	511.6
384.909	521.2
385.312	511.8
385.715	520.4
386.118	517.8
386.521	515.8
386.924	533.2
387.327	522.4
387.709	512.2
388.112	513.4
388.515	523.6
388.918	518.8
389.322	526.2
389.725	523.8
390.129	546.4
390.532	529.6
390.936	508.2
391.339	515.6
391.743	523.2
392.125	521.8
392.529	531.2
392.933	538.2
393.337	528.6
393.74	521.2
394.144	532.4
394.548	518.2
394.953	522.6
395.357	530.4
395.761	521.2
396.144	524.4
396.548	517.2
396.952	524.8
397.357	527.4
397.761	518.2
398.166	525.4
398.57	524
398.975	518
399.379	524
399.763	562.8
400.168	525.6
400.572	523.4
400.977	519.2
401.382	536
401.787	531.8
402.192	531.8
402.597	533.2
403.002	519.2
403.386	535
403.791	539.6
404.197	517.4
404.602	529.6
405.007	526.8
405.413	521.2
405.818	516.6
406.224	524.6
406.608	517.6
407.014	514.4
407.42	534
407.825	525
408.231	534.2
408.637	525
409.043	535.4
409.449	526.8
409.834	524.8
410.24	522.6
410.646	535.4
411.052	534.6
411.458	524.2
411.865	532.2
412.271	535.2
412.677	525.8
413.062	532.8
413.469	510.6
413.875	545.8
414.282	534.6
414.689	523.2
415.095	531.8
415.502	524.2
415.888	524.8
416.294	515.8
416.701	556.6
417.108	523.6
417.515	525.8
417.923	525.2
418.33	541.4
418.715	528.8
419.123	530.2
419.53	524.8
419.937	523.6
420.345	537.6
420.752	521.6
421.16	536.6
421.546	528
421.953	534.8
422.361	519.4
422.769	527.6
423.177	520.8
423.585	540
423.992	549.4
424.379	532.8
424.787	539.8
425.195	537.2
425.603	529
426.011	538.2
426.419	531.8
426.806	533.8
427.214	518.2
427.623	533.8
428.031	534.2
428.44	530.4
428.848	540
429.235	537.2
429.644	532.8
430.053	531.2
430.461	538.4
430.87	547.6
431.279	537.2
431.666	529
432.075	525
432.484	528.6
432.893	530.8
433.302	537.6
433.711	556
434.099	534.8
434.508	526.8
434.918	522.2
435.327	531.8
435.737	527
436.125	523.4
436.534	527.4
436.944	531.8
437.353	527.2
437.763	546
438.173	519.8
438.561	534.8
438.971	516.2
439.381	524
439.791	527.2
440.201	513.6
440.589	523.2
440.999	527
441.409	527.8
441.819	514.2
442.23	533.2
442.619	537.6
443.029	532.2
443.439	528.8
443.85	530.2
444.26	543.4
444.649	527.8
445.06	527.2
445.471	515.4
445.881	533.8
446.292	532.8
446.682	540.6
447.092	517.4
447.503	569.6
447.914	524
448.325	521.2
448.715	536.4
449.126	521.4
449.537	527.4
449.948	527.2
450.338	518.6
450.75	526.6
451.161	522.4
451.572	520.8
451.984	515.2
452.374	502.6
452.786	524.4
453.197	521.4
453.609	529.4
453.999	511.6
454.411	520.2
454.823	521.6
455.235	522.4
455.647	522.8
456.037	522.2
456.449	511
456.862	519.4
457.274	523.8
457.665	519.6
458.077	531.2
458.489	544.8
458.902	528
459.293	531.4
459.705	530
460.118	514.4
460.53	530.2
460.921	522.8
461.334	517.2
461.747	531.2
462.16	531.4
462.551	530.4
462.964	532
463.377	514.4
463.79	521.8
464.182	531.8
464.595	521.8
465.008	525.8
465.421	529
465.813	520
466.226	521.6
466.64	519
467.053	558.4
467.445	536.4
467.859	536.6
468.272	524.6
468.686	528
469.078	517.8
469.492	508.4
469.906	527
470.298	519.6
470.712	528.4
471.126	544.2
471.54	514.2
471.933	515.2
472.347	518.6
472.761	516.6
473.175	520.2
473.568	522
473.982	502.2
474.397	517.4
474.79	518.2
475.204	528.6
475.619	518.8
476.033	524.4
476.426	518
476.841	513.6
477.256	531.8
477.649	510.4
478.064	510.6
478.479	521.6
478.872	514
479.287	505.4
479.702	514.4
480.118	517.4
480.511	516.8
480.927	522.6
481.342	507.6
481.736	522
482.151	511.2
482.566	528.4
482.96	515
483.376	525
483.792	515
484.186	515.4
484.602	513.6
485.017	518
485.412	515.6
485.827	515.4
486.243	511.2
486.638	535.2
487.054	520.2
487.47	525.6
487.865	514.4
488.281	508.2
488.697	510
489.092	518.2
489.508	512.2
489.925	516.8
490.32	511.6
490.736	521.8
491.153	513.2
491.548	516.8
491.964	520.8
492.381	505
492.776	522.6
493.193	519.6
493.61	517.6
494.006	520.2
494.422	523.6
494.84	517
495.235	520.2
495.652	523.6
496.069	518.4
496.465	510.8
496.883	520.4
497.3	536
497.696	509
498.113	525
498.509	505.8
498.927	513.6
499.344	517
499.741	514.6
500.158	521.4
500.576	523.2
500.973	520.2
501.39	519.8
501.787	514.2
502.205	528.8
502.623	523.4
503.02	508.8
503.438	514.4
503.856	525
504.253	514
504.671	519.8
505.068	514.4
505.486	515.6
505.905	530.4
506.302	517
506.72	529.6
507.118	514.4
507.536	507.8
507.955	514.4
508.352	513.6
508.771	519.2
509.169	516.6
509.587	512.2
510.006	526.8
510.404	513.6
510.823	506.8
511.221	514.6
511.64	508.6
512.038	520.6
512.457	515
512.877	519.2
513.275	508.6
513.694	507
514.092	511.2
514.512	522
514.91	517.8
515.33	514.6
515.749	513.4
516.148	521.6
516.568	513
516.966	517
517.386	512.4
517.785	508.8
518.205	517.8
518.603	513
519.024	512.6
519.444	515.6
519.843	521
520.263	521.2
520.662	517.4
521.082	512
521.481	519.8
521.902	517.4
522.301	518.4
522.722	516.8
523.121	517.6
523.542	509.2
523.963	509
524.362	507.6
524.783	515
525.183	513.8
525.604	519.2
526.003	505.4
526.425	514.4
526.824	517.2
527.246	521.2
527.646	522.8
528.067	519.6
528.467	515.2
528.888	516
529.289	511.8
529.71	519.2
530.11	510.8
530.532	519.2
530.932	501.4
531.354	504.6
531.755	544.4
532.176	523.8
532.577	513.4
532.999	519.4
533.4	511.6
533.822	524.4
534.223	516.8
534.645	517.4
535.046	514.8
535.468	510.6
535.869	525.8
536.292	506.8
536.693	549.2
537.115	520.8
537.516	515.4
537.939	505.2
538.34	524.8
538.742	523.2
539.165	517.8
539.566	508.6
539.989	515
540.391	508.8
540.814	511.2
541.216	517.8
541.639	516.6
542.041	522.4
542.464	512.2
542.866	513.4
543.268	506.4
543.691	515.6
544.093	523.4
544.517	532.2
544.919	505.2
545.343	533.6
545.745	512.8
546.147	520.4
546.571	506.4
546.974	502
547.398	509.2
547.8	518.4
548.224	507.6
548.627	501.8
549.03	519.8
549.454	509.4
549.857	504.6
550.281	507
550.684	508
551.087	521.4
551.512	505
551.915	515.4
552.34	513.8
552.743	508.8
553.146	504.8
553.571	515.8
553.975	525.6
554.399	507
554.803	554.4
555.207	501.8
555.632	504.6
556.036	512.2
556.461	516.8
556.865	510.6
557.268	507.8
557.694	510.2
558.098	515.8
558.502	520.4
558.927	509.4
559.332	519.4
559.736	512.2
560.162	518.4
560.566	516.4
560.992	517.4
561.396	523.2
561.801	508
562.227	517.8
562.631	512.2
563.036	509.4
563.462	522
563.867	514.4
564.272	506
564.698	518.2
565.103	504.2
565.508	530.6
565.935	514.6
566.34	509
566.745	526.4
567.172	514.2
567.577	528.8
567.982	522
568.409	512.6
568.815	507.6
569.22	511.6
569.626	520.4
570.053	501.4
570.459	515.6
570.865	514.2
571.292	513.6
571.698	509.8
572.104	513.4
572.531	512
572.937	514.6
573.343	511
573.75	507.6
574.177	517.4
574.583	517.2
574.99	508
575.396	510.8
575.824	505.4
576.231	520.6
576.637	511.8
577.065	532.4
577.472	514
577.879	504.6
578.286	523.4
578.714	510.6
579.121	509.4
579.528	518.4
579.935	523
580.364	509.6
580.771	498.2
581.178	510.4
581.585	519.2
582.014	519.6
582.421	505.2
582.829	508.4
583.236	516.8
583.644	505.2
584.073	514
584.481	510
584.889	500.2
585.296	515.2
585.726	507.6
586.134	511.8
586.542	506.4
586.95	525.6
587.358	499.2
587.787	517.2
588.196	508.2
588.604	501.4
589.012	502.4
589.421	501
589.851	505.6
590.259	513
590.668	506.4
591.076	547.4
591.485	503.4
591.894	510.4
592.324	520.4
592.733	530.8
593.142	502.2
593.551	501.4
593.96	512
594.369	503.2
594.8	502
595.209	507.8
595.618	507
596.028	509.6
596.437	503.4
596.847	517
597.256	507.4
597.687	513
598.097	506
598.507	503.6
598.917	506.8
599.327	519.2
599.736	511
600.146	518.6
600.556	510.8
600.988	517.8
601.398	518.4
601.808	525.4
602.219	498.2
602.629	516.2
603.039	512
603.45	526.6
603.86	511.2
604.271	522.6
604.703	516.2
605.114	512.6
605.525	511.8
605.935	505
606.346	529.4
606.757	511.8
607.168	507.6
607.579	503.8
607.99	516.2
608.402	510.8
608.813	517.6
609.224	507.6
609.636	506.8
610.047	513
610.48	512.8
610.892	522.6
611.303	518.8
611.715	503.2
612.127	506.8
612.539	501
612.95	510.6
613.362	496
613.774	502
614.186	500
614.599	509.2
615.011	514.4
615.423	506
615.835	513
616.248	505.6
616.66	514.6
617.073	503.4
617.485	510
617.898	517
618.311	512.6
618.723	505.4
619.136	529
619.549	516.8
619.962	527
620.375	513.4
620.788	515.6
621.201	513.2
621.614	515.2
622.028	512.4
622.441	510.6
622.854	527
623.268	503.2
623.681	509.4
624.095	518
624.509	518.8
624.922	511.2
625.336	500.4
625.728	520
626.142	512
626.556	525.4
626.97	509.2
627.384	504
627.799	510.8
628.213	519.4
628.627	511.4
629.041	508.6
629.456	513.2
629.87	516.2
630.285	518.6
630.699	509.8
631.093	510.8
631.507	513.4
631.922	506.8
632.337	512.6
632.752	506.8
633.167	507.8
633.582	506.2
633.997	503
634.412	504.8
634.806	506.8
635.221	498.6
635.637	520
636.052	504.2
636.468	512.2
636.883	517
637.299	513.8
637.715	498.4
638.109	508.6
638.525	507.4
638.941	524.2
639.357	510.6
639.773	522.6
640.189	505
640.584	502.8
641	514.2
641.416	499.4
641.832	515.4
642.249	507.2
642.665	514
643.06	515.2
643.477	517.4
643.894	501.6
644.31	504.4
644.727	504.8
645.123	506
645.54	502.6
645.957	495.4
646.374	513.4
646.77	504.8
647.187	525.2
647.604	505
648.021	491.2
648.439	495.6
648.835	509.8
649.252	505.6
649.67	507.6
650.088	511
650.484	510.8
650.902	505.2
651.32	512.4
651.738	510
652.134	512.2
652.552	527.4
652.971	511
653.389	504.2
653.786	510.4
654.204	513
654.622	499.8
655.019	510
655.438	511.4
655.857	510.8
656.275	509.2
656.673	501.8
657.091	514.2
657.51	499.6
657.908	509
658.327	517.4
658.746	493.6
659.144	515.2
659.563	517.8
659.982	503.8
660.38	504.8
660.8	514.6
661.219	505.8
661.617	517.8
662.037	509.2
662.457	515.4
662.855	492.4
663.275	531.8
663.695	510
664.094	503.4
664.514	512.2
664.934	500.2
665.333	513.6
665.753	509
666.152	505
666.572	501
666.993	514.4
667.392	502.8
667.812	507.8
668.212	503.8
668.632	512.2
669.053	507.8
669.453	511.8
669.874	503.2
670.273	505.4
670.694	497.8
671.116	513.2
671.515	512.6
671.937	503.4
672.337	501.8
672.758	509.2
673.158	510.4
673.58	497.4
673.98	510.4
674.402	510.8
674.824	495.6
675.224	496.6
675.646	498
676.047	501.2
676.469	506.8
676.869	512.8
677.292	515.8
677.693	496
678.115	503.8
678.516	510.8
678.939	513.4
679.34	509.8
679.762	515.4
680.164	502.4
680.586	500.6
680.988	499.2
681.411	519.2
681.812	497
682.236	495.4
682.637	500
683.061	493.2
683.462	505
683.864	493
684.288	510.2
684.69	499.8
685.114	514
685.516	515.2
685.94	503.4
686.342	506.2
686.766	499.4
687.168	499.4
687.571	516.2
687.995	504.2
688.398	500.8
688.822	496.6
689.225	502.6
689.628	523
690.052	501.4
690.456	508.6
690.88	509
691.284	503.8
691.687	509
692.112	495
692.515	502.6
692.919	506.6
693.344	504
693.747	502.8
694.173	496.4
694.577	514.6
694.98	506.8
695.406	502
695.81	506.6
696.214	508.4
696.64	502.6
697.044	510.4
697.448	508.2
697.874	503.4
698.279	500
698.684	500.6
699.11	491.8
699.514	501
699.919	506
700.324	507.8
700.75	503
701.156	501.4
701.561	503.6
701.987	503
702.393	510.2
702.798	507.4
703.203	503.2
703.63	500.2
704.036	501.8
704.442	503.4
704.847	499.2
705.274	500.4
705.68	503.6
706.086	514.4
706.492	502.2
706.92	510.4
707.326	500.2
707.732	507.6
708.139	496.2
708.545	500.4
708.973	501
709.38	503.4
709.786	494.6
710.193	514.8
710.6	507.2
711.028	500
711.435	504.6
711.842	500.2
712.249	501
712.656	505.4
713.064	508.4
713.492	499.6
713.9	490.4
714.307	509.2
714.715	506.4
715.123	499
715.53	505.8
715.938	513.6
716.367	508
716.775	497
717.184	499.8
717.592	500
718	511.4
718.408	530.6
718.816	537
719.225	500.8
719.633	505.4
720.042	495
720.472	500.6
720.881	528
721.29	508.6
721.699	494.6
722.108	504.4
722.517	502.4
722.926	499.2
723.335	508.8
723.744	497.4
724.154	503.4
724.563	502.2
724.973	506
725.382	506.6
725.792	494.2
726.202	497.6
726.612	510
727.022	497.8
727.432	493.6
779.813	506.4
780.223	536.2
780.634	496.6
781.044	497.8
781.454	495
781.865	511
782.276	498.2
782.686	506.2
783.097	503.6
783.508	505.4
783.919	514
784.33	513.2
784.741	509.2
785.152	497.6
785.563	495
785.974	501.2
786.386	509
786.776	506.6
787.188	501.6
787.599	503.6
788.011	513.8
788.423	500.6
788.835	502.8
789.247	495.6
789.659	496.4
790.071	499.8
790.483	529.8
790.874	491.8
791.286	507.8
791.699	492.4
792.111	498.8
792.524	499
792.937	500.8
793.349	487.2
793.741	492.2
794.154	489.2
794.567	507.6
794.98	496.8
795.393	482.6
795.785	508.6
796.198	497.4
796.612	505
797.026	496.8
797.439	489.4
797.831	494.6
798.245	493.6
798.659	490.8
799.073	492
799.487	495
799.88	502
800.294	498.8
800.708	505.8
801.123	507.4
801.516	524
801.93	491.8
802.345	497.8
802.76	493
803.153	511.2
803.568	511.8
803.983	501.6
804.377	504.2
804.792	490.2
805.207	483.4
805.601	507.2
806.016	529
806.432	492.4
806.826	530.4
807.242	508.2
807.658	504
808.052	495.2
808.468	497.6
808.884	495.8
809.279	502
809.695	509.6
810.111	525.6
810.506	499.6
810.922	516.2
811.339	499.6
811.734	503.4
812.151	496.2
812.546	491.6
812.963	495
813.38	497.4
813.776	511.2
814.193	520.2
814.589	500.2
815.006	503.4
815.402	502.8
815.82	499.6
816.237	504.6
816.633	500.2
817.051	494
817.448	508.8
817.866	496.6
818.262	514.2
818.68	496.8
819.077	499
819.495	505.2
819.892	524.2
820.311	496.4
820.708	488
821.127	492.8
821.524	501.2
821.943	502
822.34	519.8
822.759	502.6
823.157	500.4
823.576	515.2
823.974	503.2
824.393	589.2
824.791	501.2
825.189	485.2
825.609	499
826.007	500
826.427	489.4
826.826	498
827.246	496.8
827.644	479.2
828.043	503.4
828.463	483.8
828.862	502.4
829.261	504
829.682	485.2
830.081	500.4
830.502	490.2
830.901	502.2
831.301	490.8
831.722	491.2
832.121	499.6
832.521	494.4
832.943	503.4
833.342	497.4
833.742	489
834.164	497.8
834.564	485.4
834.965	498.6
835.386	490.4
835.787	500.6
836.188	499.6
836.588	501.4
837.01	501.6
837.411	491.6
837.812	506.2
838.213	504.8
838.636	493.2
839.037	557.4
839.438	499.4
839.84	499.8
840.263	496.2
840.664	504.4
841.066	496.6
841.468	504.4
841.891	501.8
842.293	512.8
842.695	508.2
843.098	516.2
843.5	498.6
843.902	506
844.326	500.8
844.729	494.8
845.131	510
845.534	500.6
845.937	515.6
846.34	518.4
846.764	496.8
847.167	504
847.571	491.6
847.974	500.2
848.377	495.4
848.781	538.8
849.184	512
849.588	495.8
849.992	502.2
850.396	503.6
850.821	520.2
851.225	502
851.63	499.2
852.034	510.6
852.438	498.6
852.843	560.8
853.247	493.2
853.652	497.4
854.057	517
854.462	496.8
854.867	505.4
855.272	517.8
