#lambda/nm	C1
208.295	472.6
208.67	429.8
209.045	391.4
209.419	399.2
209.794	534.8
210.169	521.8
210.544	623.8
210.919	539.2
211.295	535
211.67	539.6
212.045	524.6
212.421	530.8
212.796	561.4
213.172	530.8
213.547	531.8
213.923	534.2
214.299	529.4
214.675	534.6
215.051	540.2
215.427	538
215.803	551.2
216.179	537
216.555	529.8
216.932	539
217.308	535.2
217.684	530.8
218.061	535
218.438	544.2
218.814	533.2
219.191	543.4
219.568	527.8
219.945	539.6
220.322	538.4
220.699	536.6
221.076	539.8
221.453	537.6
221.83	526.8
222.208	530.2
222.585	532.6
222.962	534.8
223.34	537.4
223.717	535.4
224.095	539.4
224.473	534.8
224.851	532.2
225.229	528.2
225.607	552
225.985	528.6
226.363	533
226.741	530
227.119	523
227.497	541.2
227.876	532
228.254	538.2
228.633	541.4
229.011	527.4
229.39	539.6
229.769	530.8
230.148	535.8
230.527	548.4
230.905	538
231.284	536.6
231.664	528.8
232.043	549.8
232.422	538
232.801	532.4
233.181	545.2
233.56	537.8
233.94	534.6
234.319	521.8
234.699	534.4
235.079	556.8
235.458	569.8
235.838	554
236.218	524.6
236.598	520.6
236.978	529.6
237.358	521.8
237.738	526
238.119	537
238.499	532.8
238.88	525.6
239.26	551
239.641	527.2
240.021	532.4
240.402	534.2
240.783	527.2
241.163	533.2
241.544	532
241.925	524.6
242.306	552.6
242.687	529.4
243.069	525.8
243.45	537.2
243.831	527.6
244.212	536.4
244.594	559.2
244.975	532.2
245.357	537.6
245.739	525.8
246.12	533.4
246.502	543.2
246.884	525.4
247.266	520.4
247.648	538.2
248.03	540.2
248.412	536
248.794	534.2
249.176	519.6
249.559	540.8
249.941	523.6
250.323	521.2
250.706	517.4
251.089	540.2
251.471	530
251.854	537.4
252.237	534.2
252.62	545.2
253.002	526
253.385	536.6
253.769	546.4
254.152	529.2
254.535	541.4
254.918	528.2
255.301	533.8
255.685	527.8
256.068	529
256.452	555.8
256.835	542.8
257.219	533.2
257.603	539
257.986	532.2
258.37	531
258.754	520.4
259.138	541
259.522	538.2
259.906	532.8
260.29	536.6
260.675	527.8
261.059	532
261.443	527.6
261.828	541.2
262.212	536.2
262.597	522.4
262.981	536.2
263.366	539.4
263.751	534.6
264.136	528.2
264.521	534
264.906	524.8
265.291	545.8
265.676	533
266.061	541.2
266.446	548.2
266.831	526.4
267.217	549
267.602	531.8
267.987	537
268.373	530
268.759	541.8
269.144	541.2
269.53	537.8
269.916	534.8
270.302	533
270.688	540
271.074	535.6
271.46	549.4
271.846	563.6
272.232	536
272.618	529
273.004	535
273.391	547.4
273.777	540.4
274.164	534.8
274.55	544.8
274.937	540.2
275.324	538.4
275.71	536.4
276.097	540.8
276.484	531.8
276.871	541.4
277.258	531.2
277.645	524.6
278.032	527.8
278.419	534.2
278.807	538.2
279.194	526.6
279.581	516.8
279.969	541.4
280.356	532.2
280.744	532.4
281.131	553
281.519	539.2
281.907	526.6
282.295	531
282.682	547.2
283.07	539.8
283.458	543
283.846	550
284.235	543
284.623	539.6
285.011	527.8
285.399	533.4
285.788	538.2
286.176	525.2
286.565	546.2
286.953	524.2
287.342	539.2
287.731	532.8
288.119	525
288.508	533.4
288.897	527
289.286	523.8
289.675	534
290.064	537.4
290.453	531.6
290.821	531.6
291.21	540.6
291.599	529.8
291.989	536
292.378	536
292.768	547.2
293.157	533.4
293.547	536.6
293.936	530.2
294.326	531.2
294.716	534.6
295.106	532
295.496	538.8
295.886	542.8
296.276	539.2
296.666	522.2
297.056	527.2
297.446	525.4
297.836	544.8
298.227	526.2
298.617	530.2
299.008	550
299.398	528.6
299.789	522.6
300.179	530.6
300.57	543
300.961	535.8
301.352	529.2
301.742	545
302.133	529.8
302.524	533.8
302.915	537.8
303.307	533
303.698	540.4
304.089	541.6
304.48	526.2
304.872	530.6
305.263	524
305.655	524.6
306.046	533.6
306.438	529
306.829	521
307.221	536.2
307.613	536.4
308.005	541
308.397	541.2
308.789	554.4
309.181	551.2
309.573	543.6
309.965	544.6
310.357	531.6
310.749	535.8
311.142	524.8
311.534	530
311.926	532.6
312.319	527.8
312.711	526
313.104	542.8
313.497	538
313.889	567
314.282	547
314.675	553
315.068	535.2
315.461	542.6
315.854	557.4
316.247	538.6
316.64	532.6
317.033	537
317.405	543.2
317.798	533.8
318.192	531.8
318.585	526.8
318.979	541.2
319.372	530.8
319.766	534.6
320.16	541.8
320.553	542.6
320.947	551.6
321.341	535
321.735	540.2
322.129	527.6
322.523	551
322.917	525.8
323.311	542.6
323.705	536.8
324.099	538
324.494	540.2
324.888	538.8
325.282	537.4
325.677	541.8
326.071	549.6
326.466	545.4
326.861	535.2
327.255	546.6
327.65	548.6
328.045	550
328.44	538.8
328.835	535.8
329.23	536.2
329.625	557.8
330.02	535
330.415	551.4
330.81	541.8
331.206	535.2
331.601	528.6
331.996	540.8
332.37	551.6
332.766	522.8
333.161	554.8
333.557	534.2
333.953	537.8
334.348	879.6
334.744	535.6
335.14	529
335.536	533.8
335.932	551.6
336.328	540.8
336.724	541.8
337.12	531.8
337.516	533.2
337.913	537.8
338.309	530.4
338.705	531.2
339.102	541.2
339.498	530.8
339.895	546
340.291	533.8
340.688	539.6
341.085	529.8
341.481	531.2
341.878	533.4
342.275	550.4
342.672	523.4
343.069	529
343.466	518.4
343.842	536.6
344.239	536.8
344.636	532
345.033	528.8
345.431	520.6
345.828	536.2
346.225	525.4
346.623	558.6
347.02	531.6
347.418	532
347.816	543.4
348.213	525.8
348.611	531.8
349.009	517.2
349.407	540.2
349.805	526
350.203	519.8
350.601	538.8
350.999	529.4
351.397	579.2
351.795	531
352.193	529.4
352.57	532.8
352.969	534.8
353.367	518.8
353.766	528.8
354.164	532.2
354.563	548.6
354.961	526.6
355.36	535
355.759	533.8
356.158	521.2
356.557	530.2
356.956	527
357.355	519.6
357.754	538.6
358.153	532.2
358.552	545.8
358.951	521.6
359.35	542.4
359.75	528
360.149	533
360.527	520.2
360.926	520.8
361.326	531.2
361.726	524.8
362.125	515
362.525	533.6
362.925	526.8
363.325	526.2
363.724	530.8
364.124	519.4
364.524	529.8
364.924	526.4
365.324	537.6
365.725	516.2
366.125	536.2
366.525	527
366.904	520.2
367.304	517.8
367.705	536.6
368.105	533.4
368.506	529.4
368.906	526.8
369.307	522.6
369.708	542.6
370.108	515.8
370.509	535.8
370.91	521
371.311	530.4
371.712	534.2
372.113	531.6
372.514	518.4
372.894	538.4
373.295	523
373.696	539.4
374.097	533.2
374.499	554
374.9	534.4
375.301	514.4
375.703	530.4
376.105	520.6
376.506	529.4
376.908	529
377.309	525.8
377.711	525.4
378.113	515.6
378.493	525.8
378.895	525
379.297	533
379.699	522
380.102	526.8
380.504	531
380.906	517.8
381.308	548
381.71	527.6
382.113	536.6
382.515	524.6
382.918	524.2
383.299	523.2
383.701	534.8
384.104	531.8
384.507	510.4
384.909	522.4
385.312	507.6
385.715	522.2
386.118	522.6
386.521	517.4
386.924	530.4
387.327	513.4
387.709	511.8
388.112	506
388.515	524.4
388.918	527.2
389.322	523.2
389.725	512.4
390.129	540.6
390.532	533.4
390.936	523
391.339	521
391.743	527.2
392.125	521
392.529	530.2
392.933	534
393.337	518
393.74	523.8
394.144	531.6
394.548	516.2
394.953	523.4
395.357	519.6
395.761	522.2
396.144	518.2
396.548	522.6
396.952	533.2
397.357	514
397.761	521
398.166	520
398.57	521.8
398.975	513.4
399.379	526.2
399.763	564
400.168	526.4
400.572	523.6
400.977	517.6
401.382	540.8
401.787	522.4
402.192	530.8
402.597	531.8
403.002	516.6
403.386	534.6
403.791	537.8
404.197	519
404.602	527.2
405.007	520.8
405.413	515
405.818	521.2
406.224	519
406.608	522.8
407.014	515.8
407.42	539.2
407.825	512.6
408.231	535.6
408.637	533.2
409.043	532.2
409.449	522.4
409.834	510
410.24	522.2
410.646	537.4
411.052	524.4
411.458	531.4
411.865	530.6
412.271	526
412.677	521.6
413.062	535.6
413.469	524.2
413.875	546.6
414.282	533
414.689	525.8
415.095	529.2
415.502	521.2
415.888	525.6
416.294	514.8
416.701	561.4
417.108	529
417.515	535.8
417.923	531.2
418.33	549.6
418.715	528.6
419.123	522.6
419.53	522.4
419.937	527.8
420.345	545.4
420.752	518.6
421.16	540
421.546	530
421.953	532.8
422.361	511.2
422.769	527.8
423.177	519.8
423.585	544.4
423.992	541.2
424.379	534.4
424.787	533.2
425.195	541
425.603	520.2
426.011	547.4
426.419	528.6
426.806	530
427.214	526.2
427.623	530.8
428.031	543.2
428.44	525.4
428.848	538.8
429.235	544.2
429.644	530
430.053	535.6
430.461	543.8
430.87	543.6
431.279	538.6
431.666	520.6
432.075	535.2
432.484	532.4
432.893	528
433.302	528.2
433.711	557.2
434.099	532.6
434.508	526.6
434.918	523
435.327	537.8
435.737	528.2
436.125	531.8
436.534	534.8
436.944	526.6
437.353	531.8
437.763	546.4
438.173	525
438.561	537.2
438.971	515.8
439.381	522.2
439.791	530.4
440.201	505.6
440.589	526.6
440.999	528.4
441.409	523.4
441.819	520
442.23	524.2
442.619	530.8
443.029	523.8
443.439	524.4
443.85	528.6
444.26	532.8
444.649	533.2
445.06	529.8
445.471	521.8
445.881	525.6
446.292	538
446.682	543.4
447.092	512
447.503	569.2
447.914	519.6
448.325	528.8
448.715	527
449.126	518.4
449.537	525.4
449.948	527.8
450.338	527.6
450.75	532.4
451.161	524
451.572	530
451.984	520
452.374	515.6
452.786	529.8
453.197	529.4
453.609	531
453.999	512.8
454.411	516.2
454.823	528.2
455.235	526.6
455.647	525.2
456.037	532.8
456.449	513
456.862	526
457.274	521.4
457.665	512.8
458.077	530.2
458.489	547.2
458.902	517.2
459.293	521.6
459.705	520.2
460.118	515.8
460.53	524
460.921	526
461.334	525.8
461.747	521.8
462.16	539.8
462.551	535.4
462.964	524
463.377	518.2
463.79	524.2
464.182	529.2
464.595	522.2
465.008	523.6
465.421	528.8
465.813	519.4
466.226	528.4
466.64	515.4
467.053	562.2
467.445	529.8
467.859	541
468.272	532.2
468.686	537.6
469.078	519.2
469.492	510
469.906	518.8
470.298	523.8
470.712	522.2
471.126	538.2
471.54	512.8
471.933	520.4
472.347	518.2
472.761	514
473.175	516
473.568	516
473.982	515.6
474.397	529.2
474.79	524
475.204	530.8
475.619	516.2
476.033	523
476.426	518.6
476.841	512.2
477.256	533.8
477.649	515
478.064	512
478.479	511.4
478.872	517.2
479.287	510.8
479.702	515.2
480.118	515.8
480.511	522.6
480.927	519.4
481.342	507
481.736	525.6
482.151	512.6
482.566	520.2
482.96	517.8
483.376	534.6
483.792	512.6
484.186	521.6
484.602	510.6
485.017	530
485.412	518
485.827	515
486.243	517.8
486.638	538.4
487.054	528.8
487.47	532.2
487.865	511.6
488.281	517.8
488.697	503.2
489.092	517.8
489.508	508.8
489.925	515.8
490.32	508.4
490.736	517.4
491.153	514.6
491.548	516.4
491.964	523
492.381	506.4
492.776	513.6
493.193	512.6
493.61	515.4
494.006	511.6
494.422	519.8
494.84	505.4
495.235	513
495.652	516.8
496.069	511.6
496.465	510
496.883	507.6
497.3	532.2
497.696	504.8
498.113	512.4
498.509	507
498.927	498
499.344	504.2
499.741	509.4
500.158	521
500.576	523.8
500.973	517
501.39	512.8
501.787	509.4
502.205	517
502.623	509.8
503.02	505
503.438	511
503.856	507.8
504.253	517.6
504.671	521.8
505.068	508.4
505.486	511.4
505.905	526
506.302	525.6
506.72	532.2
507.118	509
507.536	515.2
507.955	515.4
508.352	518.8
508.771	518.8
509.169	514.8
509.587	509.2
510.006	513.2
510.404	504.4
510.823	510.4
511.221	519
511.64	508
512.038	529.6
512.457	518.6
512.877	510.6
513.275	511.4
513.694	516.2
514.092	510
514.512	520.2
514.91	525.2
515.33	519.4
515.749	521
516.148	516.6
516.568	511.4
516.966	507.8
517.386	509.6
517.785	507
518.205	512.8
518.603	510
519.024	508.2
519.444	515.6
519.843	521.4
520.263	530
520.662	525
521.082	516.6
521.481	516.6
521.902	511.4
522.301	518.4
522.722	523.6
523.121	520
523.542	512.8
523.963	524.2
524.362	516.8
524.783	517.2
525.183	517.2
525.604	516.6
526.003	523.6
526.425	508.2
526.824	516.6
527.246	525.8
527.646	514.2
528.067	520
528.467	515
528.888	526.4
529.289	513
529.71	518.6
530.11	514.2
530.532	510
530.932	510.4
531.354	507.4
531.755	543.8
532.176	513.8
532.577	512.8
532.999	513.4
533.4	517.6
533.822	528.6
534.223	516
534.645	512.4
535.046	513.4
535.468	520
535.869	531.8
536.292	513.2
536.693	540.4
537.115	517
537.516	510.6
537.939	518.2
538.34	529
538.742	524.2
539.165	517.6
539.566	512.6
539.989	509
540.391	506
540.814	518
541.216	519.8
541.639	518
542.041	522
542.464	516
542.866	502.6
543.268	507.6
543.691	516.2
544.093	522.6
544.517	528.4
544.919	504
545.343	536.4
545.745	508.2
546.147	511.4
546.571	508.6
546.974	507
547.398	508.4
547.8	525.4
548.224	512
548.627	513.4
549.03	512.4
549.454	506.4
549.857	506.2
550.281	511
550.684	506
551.087	519.8
551.512	522.2
551.915	519.4
552.34	510.4
552.743	514.6
553.146	512
553.571	514.2
553.975	530.2
554.399	509
554.803	554.6
555.207	511.8
555.632	516.2
556.036	513.4
556.461	508.8
556.865	514.4
557.268	513
557.694	511
558.098	521.8
558.502	518.6
558.927	514.6
559.332	514
559.736	509.8
560.162	512.8
560.566	509.6
560.992	518.4
561.396	508.8
561.801	516.4
562.227	522.8
562.631	510.6
563.036	512.6
563.462	530
563.867	514
564.272	495.8
564.698	512.8
565.103	507.6
565.508	528.6
565.935	511.2
566.34	502.8
566.745	528.8
567.172	514.4
567.577	533.2
567.982	524.8
568.409	517.6
568.815	510.8
569.22	520
569.626	517.4
570.053	502.6
570.459	517.4
570.865	521.2
571.292	512.6
571.698	515.2
572.104	511.4
572.531	505
572.937	529
573.343	516.8
573.75	515.8
574.177	510.4
574.583	516.6
574.99	508.4
575.396	520.8
575.824	512.6
576.231	519.2
576.637	506.2
577.065	535.6
577.472	514.2
577.879	506.6
578.286	529.8
578.714	500
579.121	508.6
579.528	510.8
579.935	515.2
580.364	504
580.771	500.4
581.178	498.8
581.585	510
582.014	518.2
582.421	514.2
582.829	504
583.236	520.6
583.644	504.2
584.073	508.8
584.481	516.2
584.889	500.2
585.296	509
585.726	504.8
586.134	500.8
586.542	501
586.95	527.4
587.358	504
587.787	505.6
588.196	505.2
588.604	506.4
589.012	515.2
589.421	502
589.851	505
590.259	514.4
590.668	511
591.076	545.2
591.485	502.2
591.894	509.4
592.324	521
592.733	512.4
593.142	500.4
593.551	507
593.96	505.6
594.369	493
594.8	499
595.209	497.8
595.618	496.2
596.028	498.4
596.437	494.8
596.847	508.8
597.256	504.4
597.687	513.8
598.097	509.2
598.507	500.4
598.917	512
599.327	507.8
599.736	511
600.146	513.2
600.556	498.4
600.988	520.6
601.398	500.2
601.808	523.4
602.219	493.6
602.629	510.2
603.039	520.6
603.45	535.6
603.86	509
604.271	525.2
604.703	515
605.114	514.8
605.525	508.6
605.935	518.4
606.346	527.6
606.757	515.6
607.168	512.2
607.579	503.2
607.99	530.2
608.402	514
608.813	517.6
609.224	510.2
609.636	502
610.047	508.8
610.48	513
610.892	516.4
611.303	521.2
611.715	509.4
612.127	516.4
612.539	516.2
612.95	517
613.362	504.2
613.774	515.6
614.186	505.8
614.599	508.2
615.011	520.8
615.423	510.2
615.835	513
616.248	506.2
616.66	511.2
617.073	510.8
617.485	513.2
617.898	532.8
618.311	516.2
618.723	511.8
619.136	528
619.549	523.2
619.962	541.2
620.375	510.6
620.788	516.8
621.201	505.8
621.614	522
622.028	516
622.441	513.8
622.854	525.2
623.268	513.6
623.681	513.8
624.095	512.2
624.509	516.4
624.922	519.8
625.336	507
625.728	517.4
626.142	520.6
626.556	524.4
626.97	520.8
627.384	515.2
627.799	510.6
628.213	528.8
628.627	508.6
629.041	513.2
629.456	513
629.87	521.6
630.285	522.4
630.699	518
631.093	516.4
631.507	519.4
631.922	520.8
632.337	531.2
632.752	505.4
633.167	518.2
633.582	507.2
633.997	511.2
634.412	507.2
634.806	516.2
635.221	506.8
635.637	519.4
636.052	502.8
636.468	512.8
636.883	517.6
637.299	503.4
637.715	494
638.109	509.8
638.525	501.2
638.941	524
639.357	513
639.773	525
640.189	504.2
640.584	512.2
641	514.2
641.416	503.8
641.832	504.2
642.249	505.4
642.665	513.4
643.06	512.8
643.477	521.8
643.894	505.2
644.31	515.2
644.727	508.6
645.123	506.2
645.54	508
645.957	519.4
646.374	521.8
646.77	511.6
647.187	526.4
647.604	511.8
648.021	499.8
648.439	504.8
648.835	510
649.252	512.8
649.67	512.2
650.088	510.4
650.484	511.4
650.902	516.2
651.32	519.2
651.738	506.8
652.134	507
652.552	522.8
652.971	518.8
653.389	511.6
653.786	519.2
654.204	519.6
654.622	509.2
655.019	510.6
655.438	509.4
655.857	505.4
656.275	514
656.673	499.8
657.091	518.6
657.51	513.2
657.908	518
658.327	519.6
658.746	503.6
659.144	515.6
659.563	514.2
659.982	514.8
660.38	491.8
660.8	502
661.219	517
661.617	507.6
662.037	507.4
662.457	513.8
662.855	497.2
663.275	537.8
663.695	509.4
664.094	508.4
664.514	508.6
664.934	507
665.333	511.8
665.753	511.6
666.152	501.6
666.572	504.6
666.993	525.6
667.392	507.8
667.812	502.4
668.212	505.4
668.632	519.6
669.053	512.6
669.453	508.6
669.874	507
670.273	505
670.694	497
671.116	515.8
671.515	513.8
671.937	503
672.337	502.4
672.758	505
673.158	510
673.58	497.6
673.98	506.4
674.402	517.4
674.824	502.8
675.224	505.4
675.646	497.4
676.047	502.8
676.469	507.2
676.869	510.2
677.292	502
677.693	501
678.115	497.4
678.516	506
678.939	505.6
679.34	503.8
679.762	514.6
680.164	505.2
680.586	508.2
680.988	506
681.411	525.4
681.812	498.6
682.236	496.8
682.637	495
683.061	495.6
683.462	503.8
683.864	505.2
684.288	501.4
684.69	497.8
685.114	514
685.516	508.8
685.94	491
686.342	510.6
686.766	498.6
687.168	498
687.571	520.2
687.995	501.4
688.398	495.8
688.822	497.4
689.225	513.6
689.628	515.8
690.052	506.8
690.456	508.2
690.88	498.2
691.284	496.8
691.687	505.2
692.112	495.6
692.515	498
692.919	500.8
693.344	502.2
693.747	500.8
694.173	500.2
694.577	507.8
694.98	499.8
695.406	504.6
695.81	501.8
696.214	507.2
696.64	502.4
697.044	511.2
697.448	509.8
697.874	500.6
698.279	501.6
698.684	496.8
699.11	496.4
699.514	498.4
699.919	498.8
700.324	490.8
700.75	508.2
701.156	501.8
701.561	513
701.987	501.2
702.393	507
702.798	513.8
703.203	501.6
703.63	505
704.036	501.8
704.442	503.8
704.847	495.2
705.274	498.6
705.68	514.6
706.086	505.4
706.492	497.2
706.92	502
707.326	508.6
707.732	506.6
708.139	494.6
708.545	495
708.973	498.6
709.38	504.8
709.786	489.4
710.193	515.2
710.6	501.2
711.028	496.8
711.435	508.4
711.842	503
712.249	497.2
712.656	510.2
713.064	513.2
713.492	489.4
713.9	506
714.307	510.4
714.715	501.4
715.123	508.4
715.53	505.2
715.938	503
716.367	506.2
716.775	502.6
717.184	497.6
717.592	495.6
718	508.4
718.408	533.6
718.816	531.4
719.225	507.2
719.633	505.6
720.042	500.2
720.472	497.8
720.881	515
721.29	500.2
721.699	494
722.108	505
722.517	504.2
722.926	498.4
723.335	514.6
723.744	496.8
724.154	508.8
724.563	499.8
724.973	500.4
725.382	508.6
725.792	502.6
726.202	496.6
726.612	512
727.022	497
727.432	502.8
779.813	495.8
780.223	541.6
780.634	498.2
781.044	494
781.454	503.6
781.865	512.6
782.276	493.6
782.686	509.2
783.097	504.2
783.508	507.4
783.919	507.6
784.33	513.2
784.741	506.8
785.152	502.4
785.563	496
785.974	499.2
786.386	507.8
786.776	497.6
787.188	498.2
787.599	493
788.011	510.6
788.423	503.6
788.835	497.6
789.247	493.6
789.659	497.4
790.071	500.8
790.483	533.2
790.874	497.8
791.286	505.4
791.699	498.6
792.111	500
792.524	499.6
792.937	501
793.349	488
793.741	500.6
794.154	505.4
794.567	509.2
794.98	512.6
795.393	495.6
795.785	508
796.198	489.6
796.612	502.4
797.026	503.4
797.439	492.6
797.831	501.6
798.245	491.6
798.659	500.8
799.073	499
799.487	497.8
799.88	503.4
800.294	502.6
800.708	495.6
801.123	504
801.516	516
801.93	496.4
802.345	489.6
802.76	498.2
803.153	508.2
803.568	514
803.983	509.4
804.377	506
804.792	490
805.207	487
805.601	503.6
806.016	525.6
806.432	497.8
806.826	528.8
807.242	514.2
807.658	502.2
808.052	499.4
808.468	498
808.884	498.6
809.279	500.8
809.695	515
810.111	519.8
810.506	511.2
810.922	518.2
811.339	502
811.734	504
812.151	493
812.546	500.6
812.963	491.2
813.38	504.4
813.776	496.6
814.193	518.2
814.589	500
815.006	491.4
815.402	495.2
815.82	493
816.237	501
816.633	501.2
817.051	493.2
817.448	507.6
817.866	494.4
818.262	512.8
818.68	502.4
819.077	490.8
819.495	506
819.892	523.2
820.311	495.8
820.708	493.2
821.127	501.2
821.524	507.8
821.943	503.2
822.34	513.2
822.759	499.8
823.157	504.2
823.576	513
823.974	496
824.393	560.8
824.791	497
825.189	489.4
825.609	497.6
826.007	494
826.427	484.2
826.826	491.2
827.246	495
827.644	492.4
828.043	498.6
828.463	489.8
828.862	508.6
829.261	499.4
829.682	490.4
830.081	501
830.502	485.4
830.901	498.8
831.301	492.4
831.722	491.2
832.121	493.2
832.521	495.6
832.943	499
833.342	497.2
833.742	490.6
834.164	499.4
834.564	491.6
834.965	497
835.386	495.2
835.787	493
836.188	492.8
836.588	496.2
837.01	497.8
837.411	494.2
837.812	504.6
838.213	501.2
838.636	485.4
839.037	544
839.438	494.6
839.84	494.6
840.263	498.2
840.664	500.4
841.066	488.4
841.468	499.8
841.891	495.6
842.293	506.4
842.695	494.8
843.098	505
843.5	494.2
843.902	495.6
844.326	506.6
844.729	491.2
845.131	511
845.534	499.2
845.937	506.8
846.34	514
846.764	500.4
847.167	501.2
847.571	491.4
847.974	504
848.377	491
848.781	540.8
849.184	508.8
849.588	491.4
849.992	493.8
850.396	504.6
850.821	510.2
851.225	500.8
851.63	494.4
852.034	515.8
852.438	498
852.843	564.6
853.247	496
853.652	495.6
854.057	512.8
854.462	503
854.867	501.6
855.272	524.8
855.677	504.6
856.082	493
856.487	488.8
856.893	503.4
