#lambda/nm	C1
208.295	471.2
208.67	436.8
209.045	399
209.419	399
209.794	544
210.169	523.2
210.544	625.8
210.919	539.2
211.295	527
211.67	535
212.045	530.2
212.421	531.2
212.796	569.4
213.172	523.8
213.547	532
213.923	530.6
214.299	532.6
214.675	536.6
215.051	535.4
215.427	550.8
215.803	546.6
216.179	539.4
216.555	528.2
216.932	538.4
217.308	535.2
217.684	535
218.061	542.4
218.438	543.6
218.814	527.6
219.191	545
219.568	527
219.945	535.4
220.322	539.8
220.699	536.4
221.076	545.2
221.453	542.8
221.83	534.2
222.208	537
222.585	540.8
222.962	534.2
223.34	532.6
223.717	537.2
224.095	527.6
224.473	534.4
224.851	535.4
225.229	532
225.607	553
225.985	536.8
226.363	543.4
226.741	530
227.119	540.6
227.497	545.8
227.876	528.8
228.254	539
228.633	547.6
229.011	542.6
229.39	542.2
229.769	531
230.148	546.2
230.527	554.6
230.905	540.4
231.284	550.6
231.664	535
232.043	545.4
232.422	542.6
232.801	537.2
233.181	543.2
233.56	540.2
233.94	535.8
234.319	527
234.699	535.2
235.079	564.8
235.458	566
235.838	548
236.218	525.6
236.598	527.6
236.978	527.6
237.358	529.6
237.738	534.4
238.119	535.6
238.499	524.6
238.88	534
239.26	550.6
239.641	527.2
240.021	536
240.402	531.2
240.783	531.2
241.163	531.8
241.544	539.6
241.925	540
242.306	544.4
242.687	536
243.069	539.4
243.45	542
243.831	533.2
244.212	534.8
244.594	575.8
244.975	543
245.357	540.8
245.739	535
246.12	543.2
246.502	545.2
246.884	536.8
247.266	542.6
247.648	537.8
248.03	550.2
248.412	534.2
248.794	533.8
249.176	534.4
249.559	539.6
249.941	529.4
250.323	533.6
250.706	524.6
251.089	540.8
251.471	537.4
251.854	534.6
252.237	534
252.62	541.4
253.002	536.4
253.385	540.2
253.769	546.6
254.152	534.4
254.535	538
254.918	528.4
255.301	530.8
255.685	534.4
256.068	529.2
256.452	549.8
256.835	543.2
257.219	537.4
257.603	547.2
257.986	528
258.37	538.2
258.754	528.4
259.138	537.4
259.522	536.6
259.906	531.4
260.29	535.6
260.675	532.6
261.059	535.6
261.443	525.8
261.828	536.4
262.212	540.4
262.597	525.6
262.981	533
263.366	543.8
263.751	523.6
264.136	527.8
264.521	529.4
264.906	527.8
265.291	545
265.676	529.8
266.061	542
266.446	550.2
266.831	532.6
267.217	556.4
267.602	541.6
267.987	531
268.373	532.8
268.759	543.8
269.144	537.6
269.53	532.6
269.916	533.4
270.302	524
270.688	540.6
271.074	534.6
271.46	541.2
271.846	561.8
272.232	537.8
272.618	529.6
273.004	532
273.391	543.6
273.777	545.2
274.164	537.8
274.55	549.4
274.937	543.4
275.324	528.8
275.71	539.2
276.097	540.8
276.484	528.2
276.871	535.2
277.258	538.4
277.645	531.6
278.032	526.2
278.419	537.8
278.807	538.4
279.194	533.2
279.581	533.6
279.969	539
280.356	538.6
280.744	539.4
281.131	559.8
281.519	541.4
281.907	546
282.295	532.6
282.682	548
283.07	539.4
283.458	546
283.846	552.8
284.235	545
284.623	546.4
285.011	532
285.399	544.6
285.788	534
286.176	530
286.565	545.4
286.953	538
287.342	531.8
287.731	537
288.119	523
288.508	534.6
288.897	537.6
289.286	529.2
289.675	539.6
290.064	541.6
290.453	529.8
290.821	533.4
291.21	552.4
291.599	535.8
291.989	535.2
292.378	541.8
292.768	548.8
293.157	541
293.547	546.4
293.936	534.6
294.326	531.2
294.716	548.8
295.106	535.4
295.496	544.2
295.886	544.8
296.276	545.4
296.666	533.8
297.056	525.8
297.446	527.6
297.836	549.4
298.227	529.8
298.617	539.8
299.008	549.8
299.398	535.6
299.789	526.8
300.179	535.4
300.57	548.2
300.961	528.2
301.352	536.8
301.742	541.8
302.133	535.2
302.524	537.8
302.915	542
303.307	528.8
303.698	551
304.089	540.2
304.48	539.2
304.872	544.2
305.263	541.8
305.655	532.2
306.046	539.8
306.438	541.4
306.829	529.6
307.221	552.4
307.613	539
308.005	544.4
308.397	542.8
308.789	557
309.181	557.8
309.573	551
309.965	549.4
310.357	532.6
310.749	535.6
311.142	533
311.534	532
311.926	542.6
312.319	535
312.711	520.6
313.104	550.4
313.497	535
313.889	568.2
314.282	546
314.675	554.8
315.068	534
315.461	535.8
315.854	557.6
316.247	539.4
316.64	531
317.033	536.6
317.405	549.2
317.798	536.8
318.192	547.4
318.585	532.4
318.979	540.4
319.372	527
319.766	530.6
320.16	541.8
320.553	544.6
320.947	555.2
321.341	527.2
321.735	543.8
322.129	528
322.523	554.8
322.917	533.2
323.311	552.4
323.705	530.2
324.099	535.8
324.494	556.8
324.888	548.2
325.282	537.4
325.677	549
326.071	543.6
326.466	544.4
326.861	542.4
327.255	550.2
327.65	544.6
328.045	546.8
328.44	541.6
328.835	531.4
329.23	537.8
329.625	559.4
330.02	538.2
330.415	548.2
330.81	535
331.206	537.6
331.601	532.4
331.996	543.8
332.37	557.6
332.766	534.4
333.161	553.6
333.557	532.4
333.953	533
334.348	800.8
334.744	533.2
335.14	537.8
335.536	524.6
335.932	548
336.328	531.6
336.724	543.8
337.12	540.6
337.516	537.8
337.913	539.2
338.309	542.8
338.705	526
339.102	546.8
339.498	530.6
339.895	550.6
340.291	530
340.688	549
341.085	532.2
341.481	531.2
341.878	532.8
342.275	551.6
342.672	532
343.069	533.8
343.466	524.8
343.842	545.2
344.239	531.2
344.636	535.6
345.033	522.6
345.431	528.2
345.828	540.8
346.225	529.8
346.623	568.2
347.02	537.2
347.418	542.4
347.816	546
348.213	527.4
348.611	533
349.009	531.4
349.407	543.4
349.805	536.4
350.203	518.4
350.601	535
350.999	525.4
351.397	579.2
351.795	536.6
352.193	542.4
352.57	542.6
352.969	549
353.367	522.2
353.766	530
354.164	538.4
354.563	541.6
354.961	530.8
355.36	528.6
355.759	524.6
356.158	526.8
356.557	520.4
356.956	517.6
357.355	518
357.754	534.2
358.153	543.4
358.552	544.4
358.951	526.4
359.35	539.8
359.75	527.4
360.149	522.8
360.527	519.6
360.926	522.8
361.326	526.4
361.726	530.4
362.125	519.2
362.525	539
362.925	527.2
363.325	527
363.724	537.2
364.124	521.4
364.524	525.2
364.924	530.4
365.324	534.8
365.725	519.4
366.125	530.8
366.525	530.8
366.904	523.2
367.304	513.6
367.705	543
368.105	541
368.506	523.6
368.906	523.8
369.307	529.6
369.708	533.8
370.108	521.4
370.509	534.8
370.91	524
371.311	530.8
371.712	529.6
372.113	527.2
372.514	516.8
372.894	524.8
373.295	526
373.696	533.8
374.097	541.6
374.499	559.8
374.9	533.4
375.301	518.4
375.703	530.4
376.105	521.2
376.506	530.8
376.908	539
377.309	533.4
377.711	524.2
378.113	525.2
378.493	525.8
378.895	526.4
379.297	543.6
379.699	518
380.102	534.4
380.504	529.6
380.906	527.2
381.308	550.4
381.71	531
382.113	536.6
382.515	529.8
382.918	534.6
383.299	523.6
383.701	532.6
384.104	533.8
384.507	513.8
384.909	531.6
385.312	514.8
385.715	522.2
386.118	522
386.521	510.8
386.924	535.8
387.327	521.6
387.709	517.2
388.112	514
388.515	519.8
388.918	520.2
389.322	529.2
389.725	519
390.129	540.6
390.532	529
390.936	516
391.339	518.4
391.743	529
392.125	522.2
392.529	528
392.933	535.6
393.337	528.2
393.74	525.6
394.144	528.6
394.548	512.2
394.953	525.6
395.357	532.8
395.761	523.2
396.144	529.4
396.548	526.6
396.952	522.2
397.357	528.4
397.761	532.4
398.166	529
398.57	532.8
398.975	515.8
399.379	531.6
399.763	567.8
400.168	524.4
400.572	529.4
400.977	522.6
401.382	542.8
401.787	533.2
402.192	538
402.597	536
403.002	511
403.386	529.8
403.791	547.2
404.197	522.2
404.602	527.8
405.007	537.6
405.413	520.6
405.818	523.4
406.224	521.8
406.608	527.4
407.014	523.6
407.42	540.4
407.825	529.4
408.231	529.8
408.637	538.6
409.043	539.4
409.449	520.2
409.834	518.2
410.24	526.2
410.646	534
411.052	539.8
411.458	526.2
411.865	539.6
412.271	537.2
412.677	532.6
413.062	531.2
413.469	518.4
413.875	551.2
414.282	536.6
414.689	538.8
415.095	527.2
415.502	517.6
415.888	538.8
416.294	513.4
416.701	564.6
417.108	524.6
417.515	530.4
417.923	526.4
418.33	546
418.715	533.4
419.123	526.2
419.53	529.8
419.937	530
420.345	533.8
420.752	523.6
421.16	543.4
421.546	526
421.953	540.4
422.361	520.2
422.769	525.8
423.177	515
423.585	546.8
423.992	544.2
424.379	542.6
424.787	540.6
425.195	550.6
425.603	533.8
426.011	546.6
426.419	538.2
426.806	531
427.214	534.4
427.623	532.8
428.031	543
428.44	539.4
428.848	538
429.235	542.2
429.644	535.8
430.053	531.8
430.461	543.6
430.87	552.6
431.279	543
431.666	532
432.075	529.4
432.484	539
432.893	530.8
433.302	537.6
433.711	562.2
434.099	535
434.508	526.8
434.918	517.6
435.327	538.6
435.737	538.8
436.125	531.6
436.534	535
436.944	529.2
437.353	533.6
437.763	545.8
438.173	526
438.561	546.6
438.971	513
439.381	524.8
439.791	527.4
440.201	508.8
440.589	530.4
440.999	538
441.409	524
441.819	520
442.23	534.2
442.619	532
443.029	525.2
443.439	521.8
443.85	534.2
444.26	535.4
444.649	530.2
445.06	529.2
445.471	531
445.881	529.8
446.292	540.8
446.682	531.2
447.092	522.4
447.503	570.8
447.914	529.6
448.325	523.2
448.715	523.2
449.126	516.6
449.537	525
449.948	524.6
450.338	517.8
450.75	532.6
451.161	524
451.572	527.4
451.984	523.2
452.374	504.2
452.786	519.2
453.197	527.6
453.609	523.8
453.999	510.6
454.411	518.8
454.823	532.2
455.235	522.8
455.647	516
456.037	526.6
456.449	514.2
456.862	524.2
457.274	523.4
457.665	520.4
458.077	528
458.489	545.2
458.902	520.2
459.293	529.2
459.705	517.8
460.118	519.6
460.53	526.8
460.921	521.6
461.334	519.6
461.747	524.8
462.16	533
462.551	527.2
462.964	528.2
463.377	512
463.79	520.6
464.182	532.8
464.595	524.8
465.008	528
465.421	526.2
465.813	518
466.226	528.8
466.64	527.2
467.053	557.4
467.445	527.8
467.859	541.8
468.272	520.2
468.686	535.6
469.078	525
469.492	510.8
469.906	527.2
470.298	525.6
470.712	515.2
471.126	539.2
471.54	512.8
471.933	506.6
472.347	523
472.761	519
473.175	518.2
473.568	521
473.982	510
474.397	522.2
474.79	526.6
475.204	525.4
475.619	517.2
476.033	526.6
476.426	518.6
476.841	512.6
477.256	538.4
477.649	514
478.064	515.4
478.479	517.8
478.872	514.4
479.287	513.8
479.702	515.4
480.118	516.6
480.511	518.2
480.927	522.4
481.342	513.8
481.736	522
482.151	511.6
482.566	526.6
482.96	523.8
483.376	522.6
483.792	515
484.186	519.2
484.602	510.2
485.017	513.6
485.412	509
485.827	522.8
486.243	519.4
486.638	528.8
487.054	521
487.47	529.4
487.865	517.2
488.281	516.2
488.697	511.6
489.092	518
489.508	516.6
489.925	520.6
490.32	509.6
490.736	525
491.153	511.6
491.548	524.8
491.964	534.4
492.381	511.2
492.776	518.8
493.193	525.2
493.61	523
494.006	516.6
494.422	525
494.84	514.4
495.235	527
495.652	522.6
496.069	521.6
496.465	507.4
496.883	518.4
497.3	537.6
497.696	515.2
498.113	529
498.509	505.6
498.927	513.8
499.344	514.2
499.741	507.2
500.158	525.2
500.576	530
500.973	525.4
501.39	512.4
501.787	508
502.205	526.4
502.623	514.4
503.02	510.2
503.438	513.2
503.856	514.6
504.253	521.2
504.671	519
505.068	512.8
505.486	521
505.905	530.6
506.302	515.8
506.72	527.2
507.118	519.2
507.536	518.8
507.955	515.2
508.352	518
508.771	520.2
509.169	524.2
509.587	512.8
510.006	518.4
510.404	506.6
510.823	516.6
511.221	522.2
511.64	511.8
512.038	522.6
512.457	512.8
512.877	519.2
513.275	514.4
513.694	512
514.092	509.6
514.512	510.6
514.91	529.8
515.33	518.4
515.749	519.4
516.148	527.2
516.568	516.2
516.966	517
517.386	513.2
517.785	518
518.205	518.6
518.603	518
519.024	523.4
519.444	515.6
519.843	522.2
520.263	517
520.662	523.8
521.082	514.8
521.481	507.6
521.902	512.2
522.301	519.2
522.722	523
523.121	516.4
523.542	520.6
523.963	517
524.362	517.2
524.783	516.8
525.183	513.6
525.604	516.8
526.003	509.2
526.425	512.6
526.824	518.8
527.246	524.8
527.646	523.2
528.067	518.6
528.467	519
528.888	522
529.289	517.2
529.71	518.8
530.11	507.8
530.532	512.4
530.932	509.4
531.354	507.6
531.755	542.4
532.176	522.8
532.577	520.8
532.999	514.8
533.4	517
533.822	526.8
534.223	521.2
534.645	505.6
535.046	506
535.468	515
535.869	533.4
536.292	511.6
536.693	544.2
537.115	519.6
537.516	515.6
537.939	516.2
538.34	532
538.742	524.2
539.165	516
539.566	518.4
539.989	513.2
540.391	511.2
540.814	523.6
541.216	520.8
541.639	509
542.041	522
542.464	510.6
542.866	506
543.268	506.2
543.691	517.2
544.093	521.8
544.517	530.2
544.919	515.4
545.343	530.2
545.745	510.2
546.147	519.8
546.571	510.6
546.974	502.6
547.398	515
547.8	527.6
548.224	507
548.627	510.8
549.03	515.4
549.454	511.6
549.857	506.6
550.281	513.2
550.684	511.2
551.087	519.8
551.512	517.8
551.915	519.6
552.34	515
552.743	508
553.146	515
553.571	508.6
553.975	528.2
554.399	508.6
554.803	552.8
555.207	512.4
555.632	505.4
556.036	518.6
556.461	507
556.865	519.4
557.268	509.8
557.694	511.8
558.098	518.4
558.502	520.8
558.927	505.2
559.332	514.2
559.736	512.4
560.162	511.4
560.566	512.2
560.992	511.2
561.396	511.8
561.801	514.4
562.227	512.2
562.631	517.2
563.036	510
563.462	518.6
563.867	517.2
564.272	499.8
564.698	523.2
565.103	503.4
565.508	527.6
565.935	506.4
566.34	511.6
566.745	520.6
567.172	509.4
567.577	528.4
567.982	530.8
568.409	512
568.815	512
569.22	510.2
569.626	524.8
570.053	504.4
570.459	509.4
570.865	514.4
571.292	519.2
571.698	512.6
572.104	501.4
572.531	511
572.937	521.6
573.343	511
573.75	513.6
574.177	516.6
574.583	521
574.99	502
575.396	526
575.824	516.4
576.231	516.4
576.637	506.4
577.065	531.8
577.472	514.8
577.879	508.2
578.286	524
578.714	502
579.121	508.2
579.528	511.2
579.935	515
580.364	506.2
580.771	494.8
581.178	495.2
581.585	509.6
582.014	506
582.421	508.2
582.829	506.4
583.236	518.2
583.644	502.8
584.073	511.4
584.481	509.8
584.889	506
585.296	516.4
585.726	514.8
586.134	495.2
586.542	508.8
586.95	525.8
587.358	512.6
587.787	517.8
588.196	499.4
588.604	509.6
589.012	514.8
589.421	509.8
589.851	505.4
590.259	517.2
590.668	512.2
591.076	538.8
591.485	506
591.894	505.8
592.324	520.8
592.733	520.8
593.142	504
593.551	510.2
593.96	512.2
594.369	506.4
594.8	511.2
595.209	509.6
595.618	497.2
596.028	510
596.437	513
596.847	512
597.256	511.8
597.687	510
598.097	510.8
598.507	493.8
598.917	506.4
599.327	512.4
599.736	516.2
600.146	522.2
600.556	514.2
600.988	537
601.398	509.6
601.808	523.6
602.219	507.2
602.629	521.2
603.039	513
603.45	530.6
603.86	518
604.271	520.4
604.703	510.6
605.114	516.2
605.525	512.4
605.935	510
606.346	529.8
606.757	508.2
607.168	511.2
607.579	510.4
607.99	519.2
608.402	509
608.813	509.4
609.224	508.4
609.636	505.8
610.047	506
610.48	513.8
610.892	518.2
611.303	520.2
611.715	512.4
612.127	508.8
612.539	513.8
612.95	516.8
613.362	500
613.774	506.8
614.186	514.6
614.599	508
615.011	530
615.423	517
615.835	510.6
616.248	503.6
616.66	522.8
617.073	506.6
617.485	502.8
617.898	523
618.311	509.6
618.723	516
619.136	538.8
619.549	531.2
619.962	539.8
620.375	508.8
620.788	515.2
621.201	515.2
621.614	517.6
622.028	518
622.441	525.6
622.854	534.2
623.268	510.8
623.681	520.4
624.095	523.8
624.509	523.2
624.922	521.8
625.336	515.2
625.728	515.8
626.142	521.6
626.556	530.8
626.97	514.4
627.384	514.2
627.799	510.4
628.213	526.6
628.627	514.2
629.041	517.8
629.456	505.2
629.87	515.4
630.285	524.2
630.699	519.8
631.093	510.6
631.507	527
631.922	514
632.337	533.8
632.752	501.2
633.167	520.4
633.582	514.8
633.997	512
634.412	508.4
634.806	509.8
635.221	510.8
635.637	523.8
636.052	511.2
636.468	520.6
636.883	525.2
637.299	511
637.715	501.4
638.109	513.2
638.525	515.4
638.941	529.2
639.357	512.2
639.773	516.6
640.189	511.4
640.584	517.4
641	518.8
641.416	502.8
641.832	516.4
642.249	519
642.665	503.8
643.06	512.8
643.477	531.4
643.894	509.4
644.31	514.8
644.727	515.2
645.123	510.2
645.54	504
645.957	515
646.374	518.2
646.77	512.2
647.187	531.4
647.604	513
648.021	495.4
648.439	506.8
648.835	515.6
649.252	503.6
649.67	512.2
650.088	510.6
650.484	511.4
650.902	512.4
651.32	511.6
651.738	504.2
652.134	519.6
652.552	525.2
652.971	517.6
653.389	509.4
653.786	518.2
654.204	520.4
654.622	506.2
655.019	511.6
655.438	516.2
655.857	515.8
656.275	502.2
656.673	502.2
657.091	517.6
657.51	506.8
657.908	522
658.327	520.8
658.746	501.8
659.144	504
659.563	512.8
659.982	512.6
660.38	499.2
660.8	506
661.219	512.4
661.617	513.6
662.037	519.4
662.457	518.6
662.855	493.2
663.275	534
663.695	502.4
664.094	500.4
664.514	511.6
664.934	511.4
665.333	518
665.753	498.2
666.152	505.8
666.572	508.6
666.993	518.4
667.392	506.2
667.812	510.2
668.212	506.4
668.632	516
669.053	502.2
669.453	515.8
669.874	514.4
670.273	514.2
670.694	507.4
671.116	528.2
671.515	521.4
671.937	507.4
672.337	506.8
672.758	507.6
673.158	510.8
673.58	504.4
673.98	512.8
674.402	516.8
674.824	509.6
675.224	507.2
675.646	497.6
676.047	505.6
676.469	506.4
676.869	505.8
677.292	504.6
677.693	500
678.115	501.8
678.516	508.4
678.939	510.8
679.34	512.2
679.762	519.2
680.164	502.4
680.586	495.2
680.988	503.6
681.411	529.2
681.812	500.8
682.236	501.8
682.637	500.8
683.061	501.6
683.462	512.6
683.864	497.2
684.288	510.2
684.69	504
685.114	515.8
685.516	508.4
685.94	502
686.342	511.6
686.766	498.8
687.168	495.8
687.571	518.6
687.995	509.8
688.398	499.2
688.822	502
689.225	517.2
689.628	526.2
690.052	502
690.456	510.2
690.88	500.8
691.284	498
691.687	510.6
692.112	493
692.515	503.8
692.919	503.6
693.344	508.6
693.747	504.2
694.173	500
694.577	516.2
694.98	506.6
695.406	508.2
695.81	507.8
696.214	506.2
696.64	512
697.044	507
697.448	520.2
697.874	506.6
698.279	502.4
698.684	492
699.11	502.4
699.514	497.2
699.919	501.2
700.324	499
700.75	506.6
701.156	501.6
701.561	513.6
701.987	505
702.393	512
702.798	514.8
703.203	509.6
703.63	494.2
704.036	509
704.442	504.8
704.847	496.6
705.274	508.8
705.68	502.2
706.086	511.2
706.492	497
706.92	500
707.326	511.8
707.732	503.8
708.139	502
708.545	494.2
708.973	503.6
709.38	507.6
709.786	495.4
710.193	515.4
710.6	505
711.028	492.8
711.435	501.2
711.842	508
712.249	510.6
712.656	501.8
713.064	509.6
713.492	500.8
713.9	501.4
714.307	506
714.715	506.2
715.123	509.2
715.53	506.4
715.938	509.8
716.367	505.4
716.775	500.8
717.184	506.4
717.592	507.6
718	510.4
718.408	540.4
718.816	540.8
719.225	512
719.633	507.8
720.042	500.2
720.472	505
720.881	518.4
721.29	501.6
721.699	500.6
722.108	509.8
722.517	507.2
722.926	502.2
723.335	520.4
723.744	505
724.154	507.8
724.563	508.2
724.973	508.8
725.382	504.8
725.792	508.2
726.202	497.6
726.612	515.4
727.022	498
727.432	506.2
779.813	501.8
780.223	534.4
780.634	504.4
781.044	496.4
781.454	505.6
781.865	516.8
782.276	495.4
782.686	510.8
783.097	501.4
783.508	501.8
783.919	505.2
784.33	518
784.741	513.6
785.152	503.6
785.563	489.2
785.974	498
786.386	506.6
786.776	498.2
787.188	503.8
787.599	497.8
788.011	507.6
788.423	504
788.835	503.6
789.247	493
789.659	498.2
790.071	489.2
790.483	541.6
790.874	510.2
791.286	502.6
791.699	503.2
792.111	509.2
792.524	507.8
792.937	504
793.349	503
793.741	491.6
794.154	496
794.567	520.2
794.98	501.4
795.393	486.4
795.785	512.2
796.198	498.2
796.612	504.2
797.026	500
797.439	487
797.831	502
798.245	490.2
798.659	499.4
799.073	495
799.487	497.2
799.88	490.6
800.294	504.2
800.708	500
801.123	495.4
801.516	509.8
801.93	491.4
802.345	484.2
802.76	494.8
803.153	507.2
803.568	516
803.983	512.6
804.377	514.8
804.792	496.6
805.207	494
805.601	505.2
806.016	525.8
806.432	498.4
806.826	534.2
807.242	508.2
807.658	492.8
808.052	505
808.468	503
808.884	495
809.279	497
809.695	506.2
810.111	524
810.506	508.2
810.922	518.6
811.339	500
811.734	506.8
812.151	499.2
812.546	503
812.963	493.2
813.38	508
813.776	498.4
814.193	519
814.589	496.2
815.006	490.4
815.402	497.8
815.82	491.6
816.237	503.4
816.633	504.4
817.051	492.6
817.448	499.6
817.866	486
818.262	519.6
818.68	496
819.077	499.4
819.495	500.4
819.892	539.8
820.311	495.2
820.708	505.8
821.127	495.8
821.524	511.4
821.943	509.8
822.34	511.6
822.759	503.2
823.157	504.4
823.576	518.6
823.974	505
824.393	556.6
824.791	494.6
825.189	492.2
825.609	496.6
826.007	498.6
826.427	490.6
826.826	497.6
827.246	504.4
827.644	489.4
828.043	510.6
828.463	493.4
828.862	503.4
829.261	510.8
829.682	497.2
830.081	507.2
830.502	499.6
830.901	498.8
831.301	498
831.722	494.4
832.121	506.6
832.521	498.6
832.943	492.4
833.342	504.2
833.742	495.2
834.164	491.4
834.564	492.6
834.965	505.6
835.386	493.8
835.787	494.4
836.188	507
836.588	507.2
837.01	504.4
837.411	495.2
837.812	508.2
838.213	501.6
838.636	501.8
839.037	556.4
839.438	501.6
839.84	500.8
840.263	505.6
840.664	507.6
841.066	498.8
841.468	500.6
841.891	501.6
842.293	510.8
842.695	507.2
843.098	504.4
843.5	496.8
843.902	503.2
844.326	495.6
844.729	506.2
845.131	511
845.534	503.8
845.937	503.4
846.34	519
846.764	492.4
847.167	498.4
847.571	493.4
847.974	495
848.377	497.8
848.781	535.4
849.184	515.2
849.588	494.8
849.992	491.4
850.396	498.6
850.821	517
851.225	503.4
851.63	496.8
852.034	507.6
852.438	501.2
852.843	564.2
853.247	497
853.652	494.8
854.057	510.2
854.462	493.2
854.867	500
855.272	522.4
