#lambda/nm	C1
208.295	467
208.67	432.8
209.045	395.2
209.419	399.4
209.794	542
210.169	521.6
210.544	627.2
210.919	534
211.295	527.6
211.67	536.6
212.045	533
212.421	529.6
212.796	562.2
213.172	532.2
213.547	527.4
213.923	541.4
214.299	527.4
214.675	538.6
215.051	544.2
215.427	547.6
215.803	553.8
216.179	543.2
216.555	532.2
216.932	551.6
217.308	535.6
217.684	535.6
218.061	537
218.438	539.2
218.814	529.2
219.191	539.6
219.568	531.4
219.945	537.2
220.322	539.8
220.699	543.6
221.076	541.6
221.453	532.6
221.83	530
222.208	531.8
222.585	524.2
222.962	538.6
223.34	544
223.717	535.8
224.095	540.2
224.473	543.8
224.851	531.2
225.229	534.8
225.607	543.6
225.985	530.8
226.363	538.2
226.741	537.6
227.119	532.8
227.497	545
227.876	527.4
228.254	545.2
228.633	551
229.011	534.8
229.39	543.4
229.769	534.6
230.148	547.6
230.527	552.6
230.905	532.2
231.284	543.8
231.664	530.6
232.043	542
232.422	544.6
232.801	532.2
233.181	543.4
233.56	529.4
233.94	535
234.319	529.2
234.699	533.4
235.079	571.6
235.458	558
235.838	547.6
236.218	530.6
236.598	529.4
236.978	526.2
237.358	534
237.738	531.4
238.119	543.6
238.499	529.4
238.88	536.4
239.26	550.2
239.641	527.4
240.021	532.8
240.402	536.2
240.783	533.6
241.163	538.2
241.544	536.6
241.925	532
242.306	550.8
242.687	532
243.069	546
243.45	546.8
243.831	539.6
244.212	534.8
244.594	574
244.975	539.8
245.357	543.4
245.739	524.6
246.12	535
246.502	550.8
246.884	537
247.266	533.6
247.648	542.6
248.03	553.4
248.412	538.6
248.794	541.8
249.176	537.6
249.559	541.2
249.941	525.2
250.323	521.2
250.706	531.8
251.089	535.4
251.471	543.8
251.854	534.8
252.237	534.2
252.62	543.2
253.002	535.2
253.385	537.2
253.769	543.8
254.152	534.6
254.535	534.6
254.918	533
255.301	530.8
255.685	530.4
256.068	527.4
256.452	556.8
256.835	538.4
257.219	540
257.603	546.4
257.986	530.4
258.37	537.8
258.754	523.6
259.138	540.6
259.522	539.2
259.906	542.2
260.29	540.6
260.675	536.4
261.059	540.2
261.443	533.6
261.828	540.6
262.212	543.4
262.597	532.6
262.981	536
263.366	543.6
263.751	533.8
264.136	530.6
264.521	533.2
264.906	532.8
265.291	547.8
265.676	530.4
266.061	540
266.446	545.6
266.831	537.4
267.217	546.6
267.602	540
267.987	532
268.373	534
268.759	538.4
269.144	533.4
269.53	543.8
269.916	532.4
270.302	541.2
270.688	547.6
271.074	543.4
271.46	549
271.846	562.6
272.232	540
272.618	530.8
273.004	536.6
273.391	545.2
273.777	542.2
274.164	536.2
274.55	550.4
274.937	536.4
275.324	533.8
275.71	539.8
276.097	545
276.484	521.8
276.871	537.4
277.258	538.4
277.645	529
278.032	540.2
278.419	529.2
278.807	530.2
279.194	521.8
279.581	527.8
279.969	546
280.356	540
280.744	540.2
281.131	552
281.519	539.2
281.907	530.6
282.295	534
282.682	542.8
283.07	528.4
283.458	539
283.846	550.2
284.235	546.2
284.623	540
285.011	526.4
285.399	541.4
285.788	532.6
286.176	529.2
286.565	542.8
286.953	536.8
287.342	527
287.731	528.4
288.119	535.4
288.508	530.4
288.897	546.4
289.286	527.8
289.675	532.6
290.064	544.4
290.453	539.4
290.821	534
291.21	545.6
291.599	534
291.989	532.6
292.378	542.6
292.768	558.8
293.157	547.4
293.547	545.8
293.936	524
294.326	535.4
294.716	534.4
295.106	529.2
295.496	539.2
295.886	538.2
296.276	541.2
296.666	531.2
297.056	524.2
297.446	528.2
297.836	539.8
298.227	533.6
298.617	537.2
299.008	545.2
299.398	530.2
299.789	527.4
300.179	538.4
300.57	547.4
300.961	531
301.352	529.8
301.742	542.2
302.133	529.6
302.524	534.2
302.915	533
303.307	533.6
303.698	547.2
304.089	548.2
304.48	540.8
304.872	540.8
305.263	538.8
305.655	525
306.046	544.6
306.438	537.6
306.829	531.6
307.221	546
307.613	537.6
308.005	540.8
308.397	541.2
308.789	555
309.181	554
309.573	545.2
309.965	556.8
310.357	533.4
310.749	546.8
311.142	530.8
311.534	530.6
311.926	538
312.319	538.2
312.711	538.4
313.104	546.4
313.497	541.2
313.889	569.2
314.282	548.8
314.675	557.4
315.068	533.2
315.461	544
315.854	564.2
316.247	542.4
316.64	538.2
317.033	540
317.405	541.8
317.798	539.6
318.192	538
318.585	535.8
318.979	548.8
319.372	530.8
319.766	543.4
320.16	546.2
320.553	542
320.947	554.6
321.341	540.2
321.735	530.4
322.129	520.4
322.523	557.4
322.917	529.4
323.311	549
323.705	541.4
324.099	549.8
324.494	544
324.888	540
325.282	532.8
325.677	542.8
326.071	543.2
326.466	545.2
326.861	542.4
327.255	550.2
327.65	551.2
328.045	553
328.44	545.4
328.835	533.8
329.23	531.8
329.625	555.8
330.02	534.8
330.415	556.2
330.81	538.8
331.206	537
331.601	533.8
331.996	549.6
332.37	555.8
332.766	525.2
333.161	559
333.557	535.2
333.953	535.2
334.348	870.4
334.744	536.6
335.14	527
335.536	529
335.932	540.8
336.328	534.8
336.724	541.8
337.12	532
337.516	543
337.913	537
338.309	552.4
338.705	537.4
339.102	547.8
339.498	533
339.895	550.8
340.291	528.2
340.688	544
341.085	532.2
341.481	541.6
341.878	538.6
342.275	551.6
342.672	533.4
343.069	536.6
343.466	527.6
343.842	542
344.239	539.6
344.636	535.6
345.033	529.8
345.431	525.4
345.828	531.4
346.225	530.4
346.623	553.8
347.02	529
347.418	543.8
347.816	537.8
348.213	525.8
348.611	540.2
349.009	527.8
349.407	543.4
349.805	529.4
350.203	531.4
350.601	541.4
350.999	532.8
351.397	567.8
351.795	531.6
352.193	540.4
352.57	539
352.969	536.4
353.367	526.6
353.766	528
354.164	538.2
354.563	539.8
354.961	535.8
355.36	528.4
355.759	541.6
356.158	527.2
356.557	529.2
356.956	528
357.355	519.2
357.754	527.6
358.153	536.6
358.552	555.2
358.951	531
359.35	542.2
359.75	533
360.149	521.8
360.527	527
360.926	526.4
361.326	528.6
361.726	529.8
362.125	523
362.525	537.4
362.925	533.6
363.325	539.8
363.724	528.6
364.124	525.6
364.524	531.2
364.924	539.4
365.324	536.2
365.725	517.4
366.125	533.2
366.525	530.6
366.904	524.2
367.304	524.6
367.705	545.8
368.105	545.4
368.506	529.8
368.906	532.4
369.307	528.6
369.708	536.6
370.108	517.4
370.509	540.4
370.91	529.8
371.311	536.4
371.712	522.6
372.113	521.6
372.514	517.2
372.894	527.2
373.295	514.6
373.696	534.2
374.097	535.2
374.499	560.8
374.9	524.4
375.301	519.2
375.703	527
376.105	524.2
376.506	534.8
376.908	527.6
377.309	524.4
377.711	528.2
378.113	529
378.493	524.8
378.895	528.8
379.297	538.2
379.699	519
380.102	537.8
380.504	532.8
380.906	529.2
381.308	546.6
381.71	528.6
382.113	538.4
382.515	527.2
382.918	525.6
383.299	533.2
383.701	535.8
384.104	522.6
384.507	511.6
384.909	533.4
385.312	522.6
385.715	524.4
386.118	525.4
386.521	524.4
386.924	530.6
387.327	519.8
387.709	517.6
388.112	515.2
388.515	521.4
388.918	521
389.322	529.6
389.725	527.2
390.129	543.4
390.532	523.6
390.936	525.6
391.339	520.8
391.743	521.2
392.125	523.4
392.529	536.2
392.933	538.6
393.337	530.8
393.74	533.8
394.144	532.8
394.548	526.4
394.953	536
395.357	529.4
395.761	525
396.144	526.6
396.548	519
396.952	522.2
397.357	526
397.761	520.6
398.166	523.6
398.57	526
398.975	521.2
399.379	527.2
399.763	567.4
400.168	527.2
400.572	526.4
400.977	518.8
401.382	539.6
401.787	538
402.192	541.4
402.597	544.4
403.002	515.2
403.386	535.6
403.791	544.8
404.197	525.2
404.602	524.8
405.007	529
405.413	523.2
405.818	532.2
406.224	520.4
406.608	524
407.014	522.4
407.42	536
407.825	516.6
408.231	532
408.637	523.4
409.043	535.6
409.449	522.8
409.834	522.6
410.24	527.8
410.646	531.6
411.052	537.4
411.458	527
411.865	535
412.271	539
412.677	524.2
413.062	537
413.469	527
413.875	540.6
414.282	544
414.689	530
415.095	538.6
415.502	527.6
415.888	530.4
416.294	513.6
416.701	566.2
417.108	524.2
417.515	533.8
417.923	521.8
418.33	546.8
418.715	538.2
419.123	526.4
419.53	528.2
419.937	532
420.345	544.4
420.752	525.2
421.16	540.6
421.546	530.8
421.953	541.2
422.361	529.8
422.769	532.2
423.177	518.4
423.585	549.4
423.992	537.2
424.379	541.2
424.787	532.8
425.195	548.6
425.603	537.6
426.011	542.2
426.419	537.2
426.806	527.8
427.214	527.8
427.623	541.8
428.031	547.2
428.44	535.2
428.848	542.2
429.235	542.8
429.644	539
430.053	529.6
430.461	543.2
430.87	552.6
431.279	538.8
431.666	525
432.075	524.8
432.484	537
432.893	530.6
433.302	533.2
433.711	555.6
434.099	529.6
434.508	522.8
434.918	520.4
435.327	536.4
435.737	521
436.125	526.6
436.534	535
436.944	527
437.353	530
437.763	544.2
438.173	522.2
438.561	533.4
438.971	509.2
439.381	523.4
439.791	527.8
440.201	513
440.589	532
440.999	530.4
441.409	517
441.819	522.8
442.23	530
442.619	528.4
443.029	532.6
443.439	529.2
443.85	532.4
444.26	537.2
444.649	531
445.06	523
445.471	521
445.881	526.8
446.292	533.4
446.682	548.8
447.092	515.2
447.503	568.6
447.914	532.2
448.325	527
448.715	531.6
449.126	518.6
449.537	530.2
449.948	526.6
450.338	525.2
450.75	531.4
451.161	522
451.572	532.6
451.984	522.6
452.374	515.8
452.786	530.4
453.197	532
453.609	530.4
453.999	515.2
454.411	515.2
454.823	538.8
455.235	524
455.647	526.8
456.037	532.4
456.449	526
456.862	527.6
457.274	529.6
457.665	523.2
458.077	525.6
458.489	544.6
458.902	525.8
459.293	523.8
459.705	523.8
460.118	523.2
460.53	525.6
460.921	522.2
461.334	530.8
461.747	524
462.16	537.6
462.551	538.4
462.964	534
463.377	518.8
463.79	519.4
464.182	526.8
464.595	518.8
465.008	525.2
465.421	517.2
465.813	515.4
466.226	526.2
466.64	522.2
467.053	557.4
467.445	539.6
467.859	539.6
468.272	523
468.686	530
469.078	524
469.492	503.2
469.906	522
470.298	518.4
470.712	515.2
471.126	540.2
471.54	509.2
471.933	506.6
472.347	513.4
472.761	522
473.175	503.4
473.568	524.8
473.982	512.8
474.397	521.2
474.79	517.4
475.204	524.4
475.619	517.8
476.033	514.4
476.426	517.8
476.841	517.6
477.256	538.8
477.649	515
478.064	518
478.479	516.2
478.872	515.4
479.287	502.4
479.702	516.4
480.118	518.4
480.511	513.6
480.927	520.6
481.342	512.2
481.736	528.6
482.151	518.8
482.566	525.8
482.96	513.4
483.376	527.2
483.792	511.4
484.186	526.4
484.602	523
485.017	520.8
485.412	518.8
485.827	524.8
486.243	523.2
486.638	533.8
487.054	522
487.47	532.2
487.865	512.6
488.281	509.4
488.697	514.2
489.092	513
489.508	518.4
489.925	524.8
490.32	510
490.736	520.4
491.153	522.6
491.548	519.6
491.964	523.8
492.381	513.8
492.776	522
493.193	524.2
493.61	532
494.006	527
494.422	518
494.84	520.4
495.235	524
495.652	519.6
496.069	520.2
496.465	512.8
496.883	517.2
497.3	539.4
497.696	517.2
498.113	526.6
498.509	509.6
498.927	513.8
499.344	510.4
499.741	518
500.158	516.6
500.576	533
500.973	521.8
501.39	510
501.787	511.8
502.205	522.8
502.623	508.4
503.02	506.8
503.438	514
503.856	508.2
504.253	519.4
504.671	517.2
505.068	513.6
505.486	520.2
505.905	537
506.302	523
506.72	526.2
507.118	516.4
507.536	522
507.955	512.6
508.352	522.2
508.771	519.6
509.169	521.2
509.587	509.4
510.006	517.2
510.404	506.4
510.823	518.4
511.221	514.4
511.64	524.6
512.038	532.6
512.457	511.4
512.877	521.2
513.275	519.2
513.694	519
514.092	510
514.512	522.6
514.91	526
515.33	517
515.749	514.4
516.148	517.8
516.568	521.8
516.966	523.6
517.386	519
517.785	515.4
518.205	514.6
518.603	510.2
519.024	515.2
519.444	519.2
519.843	517.2
520.263	528.4
520.662	523.4
521.082	518
521.481	519.2
521.902	519
522.301	518.6
522.722	519.6
523.121	516
523.542	512.8
523.963	509.4
524.362	521
524.783	519.2
525.183	516
525.604	515
526.003	514.2
526.425	517
526.824	521.2
527.246	515.2
527.646	521
528.067	515.8
528.467	519.2
528.888	515.4
529.289	514.8
529.71	515.4
530.11	510.2
530.532	512.2
530.932	511
531.354	501.2
531.755	533
532.176	524
532.577	521.4
532.999	516.8
533.4	515.6
533.822	524
534.223	516
534.645	518.2
535.046	508.2
535.468	513.4
535.869	528.2
536.292	513.6
536.693	551.6
537.115	521.4
537.516	513.6
537.939	506.4
538.34	532.8
538.742	533.8
539.165	522.2
539.566	515.8
539.989	509.4
540.391	506.8
540.814	517.2
541.216	517
541.639	518.4
542.041	519.8
542.464	508.4
542.866	508.8
543.268	505.8
543.691	517
544.093	515.6
544.517	528.8
544.919	512.2
545.343	538.2
545.745	509.8
546.147	522
546.571	514.8
546.974	515.6
547.398	516
547.8	531.2
548.224	517.6
548.627	504.8
549.03	512.8
549.454	506.4
549.857	513
550.281	518.6
550.684	511.2
551.087	520
551.512	518
551.915	523.4
552.34	520.8
552.743	513.6
553.146	524.6
553.571	520.6
553.975	529.4
554.399	514
554.803	556
555.207	513
555.632	514
556.036	517
556.461	505
556.865	516.4
557.268	513.4
557.694	506.8
558.098	520
558.502	516.6
558.927	508.6
559.332	520.6
559.736	509
560.162	521.8
560.566	513.6
560.992	518
561.396	517.4
561.801	521.6
562.227	512
562.631	514.2
563.036	514.6
563.462	529
563.867	516.6
564.272	510.4
564.698	512.8
565.103	506.8
565.508	520.4
565.935	508.6
566.34	509.6
566.745	525.6
567.172	499.2
567.577	531.2
567.982	523.2
568.409	505.2
568.815	501.4
569.22	517.8
569.626	517.4
570.053	497
570.459	518.4
570.865	522.4
571.292	520.2
571.698	511.2
572.104	506.8
572.531	504.8
572.937	520
573.343	514.8
573.75	508.6
574.177	511.6
574.583	526.6
574.99	511.8
575.396	509.6
575.824	509.8
576.231	513
576.637	504.8
577.065	527.6
577.472	505.4
577.879	514.6
578.286	535.4
578.714	504.8
579.121	512.2
579.528	516.8
579.935	525.8
580.364	510.4
580.771	500
581.178	512.6
581.585	516
582.014	521.8
582.421	511.2
582.829	515.2
583.236	516.6
583.644	511.6
584.073	509
584.481	515
584.889	500.2
585.296	514.8
585.726	501.4
586.134	508
586.542	506.8
586.95	523.8
587.358	505
587.787	512.4
588.196	501.8
588.604	512.4
589.012	514.6
589.421	504
589.851	508
590.259	516.8
590.668	515.6
591.076	543.8
591.485	501.4
591.894	511.2
592.324	518.2
592.733	520.8
593.142	507.6
593.551	511
593.96	517.8
594.369	503.8
594.8	510
595.209	516.4
595.618	497
596.028	507
596.437	505
596.847	514.4
597.256	507.6
597.687	517.6
598.097	510
598.507	501.8
598.917	506.4
599.327	512.2
599.736	511
600.146	522
600.556	504.4
600.988	518.6
601.398	507
601.808	511.4
602.219	502.4
602.629	509.8
603.039	515.2
603.45	534
603.86	513.4
604.271	520
604.703	513
605.114	514.2
605.525	517.2
605.935	510.6
606.346	534.4
606.757	519.8
607.168	515.8
607.579	511.8
607.99	522
608.402	516
608.813	523.2
609.224	510.8
609.636	502.6
610.047	507.8
610.48	511.8
610.892	521.4
611.303	530.2
611.715	511
612.127	507.2
612.539	508.6
612.95	514.6
613.362	509.4
613.774	503.2
614.186	506
614.599	513
615.011	520.2
615.423	510.4
615.835	518
616.248	509.4
616.66	523.4
617.073	504.2
617.485	514.6
617.898	519.6
618.311	513.2
618.723	508
619.136	531
619.549	527
619.962	529.4
620.375	511.8
620.788	513.8
621.201	509.6
621.614	519
622.028	514.2
622.441	516.8
622.854	528.6
623.268	511.8
623.681	518.8
624.095	511.6
624.509	528.8
624.922	520.6
625.336	504.2
625.728	507.6
626.142	522
626.556	529.2
626.97	518.2
627.384	512.6
627.799	511.2
628.213	525.2
628.627	511.4
629.041	501
629.456	505.4
629.87	511.8
630.285	519.2
630.699	519
631.093	509.4
631.507	513
631.922	518.8
632.337	520.2
632.752	509
633.167	518.6
633.582	513.8
633.997	510.8
634.412	510.2
634.806	514.4
635.221	499.6
635.637	522
636.052	506.2
636.468	505.4
636.883	531.2
637.299	509.2
637.715	502.4
638.109	511.4
638.525	499.6
638.941	518.8
639.357	508.8
639.773	516.8
640.189	517.2
640.584	509.4
641	515.2
641.416	503.4
641.832	515.6
642.249	507.6
642.665	511.2
643.06	515.4
643.477	523
643.894	503.2
644.31	516.6
644.727	508
645.123	510
645.54	503.2
645.957	514.2
646.374	530.6
646.77	510.8
647.187	542.2
647.604	512.8
648.021	504.2
648.439	516
648.835	513.8
649.252	509.6
649.67	510.4
650.088	511
650.484	512.4
650.902	518.6
651.32	521.2
651.738	510.6
652.134	514.6
652.552	521.2
652.971	521.2
653.389	503.6
653.786	524.4
654.204	519
654.622	507
655.019	515.2
655.438	510
655.857	511
656.275	507.4
656.673	503.2
657.091	520.2
657.51	505.6
657.908	506.4
658.327	528.6
658.746	497.6
659.144	512.6
659.563	519.4
659.982	515
660.38	503.6
660.8	509
661.219	517
661.617	520.2
662.037	505
662.457	518.4
662.855	494
663.275	537.4
663.695	514.8
664.094	505.8
664.514	510.6
664.934	502.8
665.333	514
665.753	502.8
666.152	504
666.572	497.2
666.993	518.2
667.392	505.2
667.812	505.6
668.212	503.6
668.632	519.6
669.053	514.4
669.453	510.6
669.874	506.4
670.273	511.6
670.694	510
671.116	520.8
671.515	505.8
671.937	504.4
672.337	502.8
672.758	492.4
673.158	517.6
673.58	504.6
673.98	509.4
674.402	518.8
674.824	501.4
675.224	505
675.646	501
676.047	500.4
676.469	510.4
676.869	520.2
677.292	507
677.693	503.6
678.115	503.4
678.516	509
678.939	519.6
679.34	509.6
679.762	520.6
680.164	518.6
680.586	507
680.988	510.8
681.411	518.6
681.812	499
682.236	499.8
682.637	496.8
683.061	498.6
683.462	512.4
683.864	503.8
684.288	504.4
684.69	498.6
685.114	510.2
685.516	514.2
685.94	507.6
686.342	521.4
686.766	505.4
687.168	499
687.571	525
687.995	510.6
688.398	494.8
688.822	501.8
689.225	518.6
689.628	521.8
690.052	507.4
690.456	510.4
690.88	510.2
691.284	495.8
691.687	521
692.112	503.4
692.515	496.6
692.919	505
693.344	512.8
693.747	509.8
694.173	505
694.577	520
694.98	504.6
695.406	496.6
695.81	506.6
696.214	501.4
696.64	508.2
697.044	505.8
697.448	518.8
697.874	499
698.279	501.8
698.684	499.8
699.11	495.8
699.514	500.8
699.919	506
700.324	504.2
700.75	503.4
701.156	503.8
701.561	516
701.987	511.6
702.393	512.4
702.798	506
703.203	505.2
703.63	504.4
704.036	504.2
704.442	509.4
704.847	497
705.274	511.8
705.68	516.6
706.086	510.8
706.492	494.2
706.92	504.8
707.326	514.8
707.732	506.8
708.139	501
708.545	496.6
708.973	504.2
709.38	501.4
709.786	496
710.193	519
710.6	507.8
711.028	500
711.435	502.8
711.842	504.2
712.249	504.2
712.656	513
713.064	511.2
713.492	490.4
713.9	503.4
714.307	511.4
714.715	506.4
715.123	507.4
715.53	510.2
715.938	511.8
716.367	506.4
716.775	500.4
717.184	498.2
717.592	497
718	511
718.408	531.6
718.816	530.2
719.225	508.6
719.633	506.2
720.042	495.2
720.472	504.6
720.881	519
721.29	507.2
721.699	496
722.108	504.6
722.517	509.4
722.926	504
723.335	506.8
723.744	500.6
724.154	499.2
724.563	500.8
724.973	503.2
725.382	506
725.792	499.6
726.202	492.6
726.612	508
727.022	500.4
727.432	499.4
779.813	494.4
780.223	538.6
780.634	502.6
781.044	496.8
781.454	503.8
781.865	507.2
782.276	491.8
782.686	515.6
783.097	506.2
783.508	500.2
783.919	510.4
784.33	508.4
784.741	511.8
785.152	499.4
785.563	491.4
785.974	491.6
786.386	513
786.776	501.4
787.188	498.6
787.599	491.8
788.011	505.2
788.423	506.4
788.835	504.4
789.247	494.4
789.659	501
790.071	498.4
790.483	537.4
790.874	502.6
791.286	507.2
791.699	496.2
792.111	500.6
792.524	501.6
792.937	504
793.349	493
793.741	500.4
794.154	497.8
794.567	518.4
794.98	501.6
795.393	492.4
795.785	521.2
796.198	498.2
796.612	509
797.026	503.8
797.439	486.2
797.831	502.6
798.245	497.4
798.659	507
799.073	502.4
799.487	502.8
799.88	504.2
800.294	501.8
800.708	507.6
801.123	505
801.516	514.4
801.93	495
802.345	492.2
802.76	503.6
803.153	514
803.568	518.2
803.983	509.4
804.377	506.6
804.792	492.6
805.207	490.6
805.601	507.2
806.016	525.8
806.432	497.6
806.826	518.4
807.242	514.4
807.658	511.8
808.052	498.2
808.468	499.2
808.884	496.8
809.279	506.8
809.695	511.8
810.111	515
810.506	506
810.922	517
811.339	495.6
811.734	505.4
812.151	498.8
812.546	496
812.963	498.4
813.38	497.8
813.776	493.6
814.193	512.4
814.589	501.6
815.006	503.4
815.402	500.8
815.82	497.2
816.237	505
816.633	501.6
817.051	492.2
817.448	504.6
817.866	487.6
818.262	515.6
818.68	492.6
819.077	499.2
819.495	512.4
819.892	537.2
820.311	494.8
820.708	499.4
821.127	499.4
821.524	510.6
821.943	508.6
822.34	507.2
822.759	499.8
823.157	506
823.576	511.6
823.974	516
824.393	550.2
824.791	495
825.189	496.6
825.609	499.6
826.007	496.2
826.427	490.8
826.826	503.2
827.246	509
827.644	486.4
828.043	511
828.463	494.8
828.862	507.4
829.261	503.8
829.682	490.6
830.081	500.4
830.502	498.8
830.901	502.6
831.301	506.2
831.722	496
832.121	505.8
832.521	490
832.943	498
833.342	504.8
833.742	499.2
834.164	495
834.564	496.2
834.965	497.2
835.386	496.6
835.787	499
836.188	500.2
836.588	500
837.01	501
837.411	496.4
837.812	505.8
838.213	507.8
838.636	495.6
839.037	561.6
839.438	503.6
839.84	496.6
840.263	508
840.664	501.6
841.066	509.2
841.468	506
841.891	497.8
842.293	509.4
842.695	500.8
843.098	512
843.5	500.4
843.902	506
844.326	506
844.729	502.6
845.131	503.4
845.534	501.4
845.937	507.2
846.34	514
846.764	495.6
847.167	507.4
847.571	492
847.974	502.2
848.377	499.2
848.781	537.8
849.184	518
849.588	499.4
849.992	502.2
850.396	498.4
850.821	517.6
851.225	508.2
851.63	502
852.034	507.8
852.438	503.2
852.843	567.6
853.247	492.8
853.652	493.8
854.057	517
854.462	498.6
854.867	504.2
855.272	523
855.677	510
856.082	498.8
856.487	496.8
856.893	509.4
