#lambda/nm	C1
208.295	473.2
208.67	440.6
209.045	397.6
209.419	399
209.794	537.8
210.169	524.8
210.544	623
210.919	545
211.295	524.6
211.67	537.4
212.045	531.4
212.421	537
212.796	561.2
213.172	525.8
213.547	534.4
213.923	532.8
214.299	535.2
214.675	543.2
215.051	539
215.427	546.2
215.803	551.8
216.179	538.8
216.555	533.8
216.932	534.4
217.308	535.8
217.684	536.4
218.061	541
218.438	534.2
218.814	531.4
219.191	544.2
219.568	525
219.945	530
220.322	544.2
220.699	532.8
221.076	546.6
221.453	533.2
221.83	527
222.208	529.4
222.585	528
222.962	535.8
223.34	540.2
223.717	535.6
224.095	530.8
224.473	530.6
224.851	532.4
225.229	529.8
225.607	544
225.985	523.4
226.363	542.4
226.741	538.4
227.119	532.4
227.497	540
227.876	520
228.254	530.6
228.633	537
229.011	538.2
229.39	531.4
229.769	537.2
230.148	534.6
230.527	540.8
230.905	535
231.284	537
231.664	533.8
232.043	539.4
232.422	537
232.801	530.4
233.181	536.2
233.56	532.4
233.94	534
234.319	526
234.699	529.8
235.079	566.4
235.458	559.6
235.838	547.2
236.218	529
236.598	525.2
236.978	528.2
237.358	536
237.738	536.8
238.119	540.6
238.499	528.4
238.88	531.2
239.26	556.4
239.641	531.4
240.021	539
240.402	535
240.783	535.2
241.163	533.4
241.544	535.6
241.925	534.2
242.306	553.8
242.687	523.2
243.069	544
243.45	543.8
243.831	532.8
244.212	535.6
244.594	565.8
244.975	530.8
245.357	531.4
245.739	529.8
246.12	529.6
246.502	547
246.884	527
247.266	528.6
247.648	529.4
248.03	554.6
248.412	529
248.794	535.2
249.176	525
249.559	537
249.941	528.6
250.323	525.2
250.706	525.8
251.089	539.8
251.471	537.4
251.854	535.8
252.237	534.2
252.62	546.4
253.002	539.4
253.385	539
253.769	547
254.152	538.4
254.535	544.8
254.918	531.4
255.301	536.8
255.685	531
256.068	533.2
256.452	551.2
256.835	546
257.219	543.2
257.603	541.6
257.986	524
258.37	542
258.754	530.8
259.138	540.2
259.522	537.2
259.906	530
260.29	534.4
260.675	532.4
261.059	536.4
261.443	522.8
261.828	534.6
262.212	541
262.597	534.6
262.981	539.8
263.366	539.2
263.751	540.4
264.136	531.2
264.521	540.6
264.906	527.8
265.291	540.8
265.676	531.8
266.061	531
266.446	553.8
266.831	532.2
267.217	553.6
267.602	539.4
267.987	534.6
268.373	534.2
268.759	545.4
269.144	541.8
269.53	539.4
269.916	530.8
270.302	531
270.688	542
271.074	540.4
271.46	546.8
271.846	563.8
272.232	535.8
272.618	532.4
273.004	533.6
273.391	549.8
273.777	545.2
274.164	540.2
274.55	550
274.937	549.8
275.324	536.4
275.71	539
276.097	539.4
276.484	533.2
276.871	544.8
277.258	543.6
277.645	533
278.032	535.6
278.419	535
278.807	542.8
279.194	528.4
279.581	530.6
279.969	541.8
280.356	541.4
280.744	541.8
281.131	550
281.519	544.2
281.907	535
282.295	536.4
282.682	545.4
283.07	538.8
283.458	542
283.846	541.2
284.235	542.8
284.623	543.4
285.011	530.4
285.399	543
285.788	534.8
286.176	529.6
286.565	543.6
286.953	531.6
287.342	526.4
287.731	526.2
288.119	529.2
288.508	536.8
288.897	537.6
289.286	527.6
289.675	529
290.064	538.6
290.453	533.2
290.821	526.8
291.21	543.2
291.599	528.2
291.989	540.4
292.378	539.8
292.768	551.6
293.157	545.4
293.547	546.8
293.936	538.2
294.326	535
294.716	535.8
295.106	532.6
295.496	542.6
295.886	542.4
296.276	536.6
296.666	533.4
297.056	526.6
297.446	529.2
297.836	549.2
298.227	532.2
298.617	542.2
299.008	550.6
299.398	531.8
299.789	529.2
300.179	537.4
300.57	550.4
300.961	529.8
301.352	530.8
301.742	539.4
302.133	533.4
302.524	533.4
302.915	542.2
303.307	535.2
303.698	547.4
304.089	543.2
304.48	538
304.872	545.8
305.263	536.6
305.655	534.6
306.046	543.8
306.438	539.6
306.829	535.6
307.221	545.8
307.613	537.8
308.005	540.4
308.397	550.4
308.789	556.6
309.181	553.8
309.573	549.6
309.965	544.8
310.357	534.2
310.749	549.6
311.142	528.6
311.534	533.4
311.926	544.8
312.319	537.6
312.711	538.8
313.104	550.4
313.497	534.6
313.889	567
314.282	539.6
314.675	552.8
315.068	535
315.461	540.2
315.854	563.6
316.247	542.6
316.64	534.2
317.033	531.2
317.405	537.8
317.798	526.6
318.192	543
318.585	536
318.979	541.2
319.372	531.2
319.766	527.6
320.16	542.6
320.553	545
320.947	552.4
321.341	534.2
321.735	530.4
322.129	530
322.523	544.2
322.917	531
323.311	542.6
323.705	538
324.099	537.2
324.494	548.2
324.888	543.8
325.282	531
325.677	544.4
326.071	543.4
326.466	532.6
326.861	534
327.255	541.6
327.65	540.2
328.045	547.4
328.44	532.2
328.835	527.6
329.23	529.2
329.625	551.6
330.02	531.6
330.415	547.4
330.81	532.8
331.206	542.4
331.601	531
331.996	541.8
332.37	552
332.766	532.2
333.161	554.8
333.557	523.6
333.953	536.2
334.348	804.6
334.744	532.4
335.14	532.4
335.536	529.4
335.932	550.2
336.328	544
336.724	543
337.12	539
337.516	538.2
337.913	535.4
338.309	548.2
338.705	538.8
339.102	548.8
339.498	536.4
339.895	542.4
340.291	530.8
340.688	542.8
341.085	535.8
341.481	536
341.878	538
342.275	549.8
342.672	530.4
343.069	524.8
343.466	515.6
343.842	538.2
344.239	526
344.636	532.4
345.033	518
345.431	519.6
345.828	533.8
346.225	524.6
346.623	560.2
347.02	533.8
347.418	538.2
347.816	545.4
348.213	526
348.611	527.4
349.009	525
349.407	537.4
349.805	530.6
350.203	523
350.601	541
350.999	532.6
351.397	590
351.795	533
352.193	541
352.57	536.8
352.969	538.2
353.367	525.2
353.766	523.8
354.164	529
354.563	536.4
354.961	525
355.36	535
355.759	529.4
356.158	523.8
356.557	522
356.956	523.6
357.355	527.8
357.754	534
358.153	530.4
358.552	541.2
358.951	536
359.35	538.4
359.75	527
360.149	519.8
360.527	516.4
360.926	516.8
361.326	529.4
361.726	532.6
362.125	525
362.525	535
362.925	523.2
363.325	528
363.724	529.4
364.124	523.8
364.524	526
364.924	530
365.324	535
365.725	525.4
366.125	520
366.525	532.6
366.904	524.6
367.304	513.8
367.705	544.4
368.105	544.8
368.506	526.8
368.906	531
369.307	525.6
369.708	527
370.108	528
370.509	535.6
370.91	518.4
371.311	529.2
371.712	540.6
372.113	529.8
372.514	522.4
372.894	536
373.295	523.6
373.696	532.6
374.097	537
374.499	556.4
374.9	531.4
375.301	522.2
375.703	537
376.105	521.8
376.506	530.4
376.908	534.8
377.309	529.2
377.711	529.4
378.113	527
378.493	527
378.895	530
379.297	533.4
379.699	518
380.102	530.4
380.504	530.6
380.906	528.4
381.308	550.4
381.71	522
382.113	536.2
382.515	523.2
382.918	525
383.299	527
383.701	539.8
384.104	528.4
384.507	515.8
384.909	526.4
385.312	519
385.715	519.6
386.118	530.2
386.521	518.4
386.924	540.2
387.327	520.6
387.709	522.2
388.112	524
388.515	525.4
388.918	523.8
389.322	525.8
389.725	523.6
390.129	541
390.532	537.8
390.936	528.6
391.339	524.4
391.743	527.4
392.125	525.4
392.529	528.8
392.933	544.4
393.337	531
393.74	527.8
394.144	527.2
394.548	524
394.953	532.4
395.357	538.2
395.761	518.8
396.144	527.8
396.548	527.6
396.952	532.6
397.357	526.8
397.761	519.6
398.166	518
398.57	520.2
398.975	522.2
399.379	523
399.763	566.6
400.168	527.8
400.572	523
400.977	529.8
401.382	537
401.787	534
402.192	540.4
402.597	540.2
403.002	516.6
403.386	539.6
403.791	545.4
404.197	524.8
404.602	522
405.007	529.2
405.413	528.2
405.818	531.4
406.224	522.6
406.608	525.2
407.014	517.2
407.42	545
407.825	524.2
408.231	538
408.637	525
409.043	533.6
409.449	523.8
409.834	522.2
410.24	533.2
410.646	541.6
411.052	534.2
411.458	531.6
411.865	535
412.271	544.4
412.677	524.6
413.062	529.6
413.469	520.2
413.875	545
414.282	534.8
414.689	528.8
415.095	529.6
415.502	519.8
415.888	535.4
416.294	520.6
416.701	566.4
417.108	524.8
417.515	539.8
417.923	525.8
418.33	544.4
418.715	531.2
419.123	523.6
419.53	517.8
419.937	526.8
420.345	543
420.752	526.2
421.16	530.6
421.546	527.2
421.953	531.6
422.361	516
422.769	532.8
423.177	517
423.585	546.4
423.992	542.4
424.379	535
424.787	534
425.195	544.8
425.603	533.6
426.011	531.6
426.419	541.4
426.806	534.4
427.214	523.2
427.623	539.4
428.031	530.4
428.44	532.8
428.848	537.8
429.235	541
429.644	529.4
430.053	524.8
430.461	543.4
430.87	553
431.279	542.8
431.666	526.6
432.075	532.8
432.484	532
432.893	533.2
433.302	539.2
433.711	564.6
434.099	529.8
434.508	525.2
434.918	523.8
435.327	531.4
435.737	529.2
436.125	533.8
436.534	534.2
436.944	538
437.353	532.8
437.763	544.8
438.173	517.8
438.561	533.4
438.971	512.8
439.381	527
439.791	523.8
440.201	511
440.589	525.8
440.999	527
441.409	525.4
441.819	520.2
442.23	525
442.619	522.8
443.029	530.4
443.439	517
443.85	529.6
444.26	534.6
444.649	533.4
445.06	529.6
445.471	523.8
445.881	522.2
446.292	532.2
446.682	545.6
447.092	513.4
447.503	566.6
447.914	526.6
448.325	517.2
448.715	530
449.126	519
449.537	525.4
449.948	529.4
450.338	520.8
450.75	531.2
451.161	527.2
451.572	532.8
451.984	520.4
452.374	517
452.786	518.8
453.197	532.6
453.609	540.6
453.999	507.2
454.411	527
454.823	536.8
455.235	526.2
455.647	517
456.037	534
456.449	504
456.862	527
457.274	525
457.665	512.4
458.077	525
458.489	542
458.902	522.8
459.293	524.6
459.705	520.8
460.118	518.2
460.53	529
460.921	519.4
461.334	517.8
461.747	522.6
462.16	540.8
462.551	534.8
462.964	531.2
463.377	510.6
463.79	527
464.182	527.2
464.595	518.8
465.008	526
465.421	529.2
465.813	521
466.226	541.8
466.64	523
467.053	555.2
467.445	529.6
467.859	529.8
468.272	528.4
468.686	528.6
469.078	523.6
469.492	516.4
469.906	523.8
470.298	523
470.712	522.2
471.126	540.8
471.54	515
471.933	513.4
472.347	523.6
472.761	517
473.175	511.6
473.568	514.4
473.982	514.2
474.397	515.4
474.79	517.8
475.204	530.4
475.619	524.8
476.033	522
476.426	523
476.841	516.4
477.256	532.4
477.649	514.8
478.064	517.2
478.479	518.4
478.872	513.4
479.287	511.4
479.702	510.8
480.118	517.6
480.511	515.4
480.927	523.8
481.342	514.8
481.736	524.8
482.151	514.6
482.566	531.8
482.96	522
483.376	527.8
483.792	517.2
484.186	518.4
484.602	519.6
485.017	520.4
485.412	522.2
485.827	524
486.243	516.4
486.638	533.2
487.054	524.4
487.47	525.4
487.865	513.6
488.281	520
488.697	513.4
489.092	514
489.508	509.6
489.925	530.2
490.32	506.8
490.736	523.2
491.153	519.8
491.548	524
491.964	529.4
492.381	513.2
492.776	520.4
493.193	518.8
493.61	520
494.006	519.2
494.422	522.8
494.84	508.8
495.235	523.4
495.652	520.6
496.069	522.4
496.465	510.6
496.883	514.2
497.3	542.4
497.696	521.6
498.113	523.6
498.509	512.6
498.927	509.6
499.344	512.6
499.741	512.4
500.158	528.6
500.576	526.4
500.973	513.6
501.39	511.8
501.787	512.2
502.205	513.8
502.623	512.2
503.02	508.2
503.438	511.8
503.856	517.4
504.253	519.2
504.671	525.8
505.068	513.2
505.486	513.2
505.905	529.8
506.302	517.2
506.72	524.2
507.118	517.2
507.536	515.8
507.955	511.6
508.352	523.4
508.771	525.2
509.169	521.8
509.587	505.6
510.006	517
510.404	510.2
510.823	513.6
511.221	514.4
511.64	515
512.038	521.6
512.457	512.4
512.877	511.8
513.275	510.6
513.694	514.6
514.092	514.6
514.512	515.4
514.91	524.6
515.33	515.6
515.749	517.4
516.148	518.2
516.568	520.2
516.966	522.4
517.386	509.2
517.785	517.6
518.205	510
518.603	516.2
519.024	513
519.444	513
519.843	518
520.263	527.8
520.662	519
521.082	507.4
521.481	508.4
521.902	512.2
522.301	511.4
522.722	524.2
523.121	515.8
523.542	505.2
523.963	513
524.362	519.6
524.783	514.2
525.183	508.4
525.604	516.2
526.003	516
526.425	509.8
526.824	526.2
527.246	519.4
527.646	522.8
528.067	510.8
528.467	520.6
528.888	519.6
529.289	518
529.71	516.4
530.11	517
530.532	519.2
530.932	510.4
531.354	505
531.755	540.2
532.176	514.4
532.577	512.6
532.999	529.4
533.4	512.4
533.822	527
534.223	515.2
534.645	516.6
535.046	514.2
535.468	515.2
535.869	529.8
536.292	513.2
536.693	543.4
537.115	511.4
537.516	516.8
537.939	515.6
538.34	529
538.742	517.6
539.165	507.2
539.566	512.8
539.989	502.2
540.391	516.6
540.814	516.8
541.216	519.2
541.639	507.6
542.041	514
542.464	515.4
542.866	510.4
543.268	509.2
543.691	522.2
544.093	520
544.517	535
544.919	514.2
545.343	536.6
545.745	507.2
546.147	519
546.571	507.2
546.974	511
547.398	509.2
547.8	525
548.224	510
548.627	504.6
549.03	520.6
549.454	511.2
549.857	503.2
550.281	518.6
550.684	508.6
551.087	532.8
551.512	518.6
551.915	514.2
552.34	514.6
552.743	514.8
553.146	511.8
553.571	507
553.975	524.4
554.399	504.4
554.803	555
555.207	513.4
555.632	506
556.036	520.6
556.461	503.6
556.865	509.2
557.268	504.6
557.694	514.2
558.098	522.8
558.502	512.6
558.927	508.6
559.332	511.8
559.736	513.2
560.162	511.8
560.566	506.2
560.992	520.6
561.396	520
561.801	510.8
562.227	517.6
562.631	517.4
563.036	507.8
563.462	522.8
563.867	515.4
564.272	498.6
564.698	529.8
565.103	505.6
565.508	527.2
565.935	516.6
566.34	513.8
566.745	523.6
567.172	513
567.577	527.6
567.982	514.6
568.409	518.2
568.815	504.8
569.22	515.8
569.626	528.2
570.053	504.2
570.459	516.6
570.865	517
571.292	518
571.698	514.4
572.104	508.4
572.531	513.4
572.937	513.6
573.343	508.4
573.75	512
574.177	521
574.583	519
574.99	505
575.396	517.6
575.824	504
576.231	511.2
576.637	508.6
577.065	527.8
577.472	507.4
577.879	512.8
578.286	519.4
578.714	507.4
579.121	510.2
579.528	514.8
579.935	521.6
580.364	510.6
580.771	502.6
581.178	504.2
581.585	521.2
582.014	514.6
582.421	504
582.829	511.4
583.236	520.6
583.644	509.6
584.073	512.8
584.481	514
584.889	514.4
585.296	517.2
585.726	508.6
586.134	503.8
586.542	511.2
586.95	519.2
587.358	508.2
587.787	509.8
588.196	498.2
588.604	508
589.012	514.6
589.421	502.2
589.851	511
590.259	517.6
590.668	503.2
591.076	545.4
591.485	501.2
591.894	513.8
592.324	516.8
592.733	522.4
593.142	501.4
593.551	501.8
593.96	517.2
594.369	513
594.8	503.4
595.209	508.2
595.618	499.8
596.028	508
596.437	503.8
596.847	514
597.256	513.4
597.687	517.4
598.097	512.4
598.507	499.8
598.917	513.6
599.327	509.4
599.736	514.2
600.146	520.4
600.556	508.2
600.988	523.2
601.398	505.2
601.808	521.2
602.219	504
602.629	515.6
603.039	518.6
603.45	528.8
603.86	511.2
604.271	522.8
604.703	508
605.114	512.4
605.525	518.8
605.935	514
606.346	527.4
606.757	521.4
607.168	512.4
607.579	511.2
607.99	509.8
608.402	514.2
608.813	516.6
609.224	508.4
609.636	506
610.047	512.4
610.48	508.4
610.892	525.2
611.303	518
611.715	507.4
612.127	510.2
612.539	509.2
612.95	515.6
613.362	497.6
613.774	502.6
614.186	510.4
614.599	502.2
615.011	515.8
615.423	516.4
615.835	509
616.248	504.8
616.66	520
617.073	505.4
617.485	507.2
617.898	516.6
618.311	512.4
618.723	508.8
619.136	537
619.549	521
619.962	528
620.375	506.6
620.788	517.2
621.201	513.2
621.614	518.2
622.028	514
622.441	517.2
622.854	526.8
623.268	511.8
623.681	527.4
624.095	511.4
624.509	524.2
624.922	516
625.336	507
625.728	512.6
626.142	522.2
626.556	528.4
626.97	524.8
627.384	510.2
627.799	512.4
628.213	523.6
628.627	520.8
629.041	506.2
629.456	511.6
629.87	518.6
630.285	522.8
630.699	517.8
631.093	520.8
631.507	513.8
631.922	514.2
632.337	519.6
632.752	502.8
633.167	515.6
633.582	514.6
633.997	514.6
634.412	506.6
634.806	506.8
635.221	502
635.637	519.2
636.052	506.6
636.468	510.6
636.883	519
637.299	508.2
637.715	498.4
638.109	498.4
638.525	498.4
638.941	526
639.357	512.4
639.773	522.6
640.189	503.4
640.584	505.4
641	514.6
641.416	498.8
641.832	508.8
642.249	507
642.665	506.8
643.06	509
643.477	518.2
643.894	503.6
644.31	513.2
644.727	513.2
645.123	508.8
645.54	506
645.957	510.2
646.374	523
646.77	512.8
647.187	539.2
647.604	510.4
648.021	501
648.439	499.4
648.835	515
649.252	506.4
649.67	506
650.088	509
650.484	516.4
650.902	507
651.32	515.8
651.738	506.6
652.134	511.6
652.552	529.6
652.971	507.2
653.389	516
653.786	516.6
654.204	515
654.622	501.6
655.019	513.8
655.438	521.6
655.857	506.8
656.275	511.6
656.673	508.4
657.091	518.2
657.51	503.4
657.908	516.8
658.327	522.8
658.746	500.8
659.144	508.2
659.563	520.8
659.982	508.4
660.38	502.2
660.8	512.4
661.219	512.4
661.617	509
662.037	502
662.457	519.6
662.855	498.6
663.275	533.6
663.695	511.2
664.094	509.8
664.514	510.6
664.934	504.6
665.333	510.4
665.753	501.6
666.152	501
666.572	498
666.993	515.4
667.392	499
667.812	510.6
668.212	501.8
668.632	511.4
669.053	502.6
669.453	503.6
669.874	512.6
670.273	514
670.694	498.6
671.116	513.6
671.515	511.6
671.937	511.6
672.337	503.2
672.758	502.8
673.158	513.6
673.58	505.4
673.98	508.4
674.402	515.4
674.824	507.8
675.224	504.6
675.646	498.8
676.047	498.4
676.469	505.2
676.869	513.4
677.292	507.2
677.693	507.8
678.115	502.4
678.516	509.4
678.939	507.4
679.34	498.6
679.762	513.2
680.164	513.2
680.586	504.8
680.988	509
681.411	533.8
681.812	501
682.236	503.6
682.637	496
683.061	501.2
683.462	501.6
683.864	506.2
684.288	509.8
684.69	499.6
685.114	508
685.516	512
685.94	501
686.342	515.2
686.766	504.6
687.168	494.2
687.571	520.4
687.995	516.2
688.398	501.4
688.822	497.4
689.225	515
689.628	521
690.052	510.6
690.456	510.8
690.88	506.8
691.284	507.2
691.687	511.2
692.112	498.6
692.515	496.8
692.919	500.6
693.344	512
693.747	503.8
694.173	500.8
694.577	518
694.98	510.2
695.406	497.4
695.81	504.4
696.214	513.8
696.64	509.2
697.044	513.2
697.448	509.4
697.874	508.4
698.279	504.6
698.684	498.4
699.11	506.4
699.514	505.8
699.919	504.2
700.324	502.8
700.75	506.2
701.156	502.4
701.561	520.8
701.987	510.4
702.393	511
702.798	508.8
703.203	512.2
703.63	511
704.036	501
704.442	511.8
704.847	493.4
705.274	501.8
705.68	511.4
706.086	514.2
706.492	490.6
706.92	500
707.326	522.8
707.732	500.2
708.139	497.2
708.545	492.6
708.973	501
709.38	501.4
709.786	493.2
710.193	517.4
710.6	498.2
711.028	499
711.435	499.6
711.842	509.4
712.249	501.8
712.656	505.6
713.064	513.6
713.492	496.4
713.9	502
714.307	510.2
714.715	502.6
715.123	510.2
715.53	503.8
715.938	515.4
716.367	500.2
716.775	502.4
717.184	501.2
717.592	503.8
718	508.2
718.408	523.4
718.816	536.8
719.225	503.8
719.633	507.8
720.042	494.6
720.472	501.8
720.881	520
721.29	500.8
721.699	492.8
722.108	501.2
722.517	508.8
722.926	504.4
723.335	514
723.744	507.6
724.154	505.8
724.563	496
724.973	504.8
725.382	504.8
725.792	506.2
726.202	496.2
726.612	507.2
727.022	500.4
727.432	490
779.813	503
780.223	541.2
780.634	508.4
781.044	492.4
781.454	500.6
781.865	511.4
782.276	493.8
782.686	504.4
783.097	499.6
783.508	499
783.919	507.8
784.33	507.2
784.741	510.4
785.152	496.4
785.563	491.4
785.974	496.4
786.386	507.6
786.776	494
787.188	501.8
787.599	491.6
788.011	507
788.423	508.6
788.835	500.8
789.247	496.2
789.659	494.6
790.071	499.6
790.483	535
790.874	499.2
791.286	504
791.699	493.8
792.111	501.6
792.524	509.6
792.937	501.8
793.349	495
793.741	499.2
794.154	495.2
794.567	517.2
794.98	501.4
795.393	495
795.785	513.8
796.198	496.2
796.612	508.4
797.026	496.6
797.439	495.4
797.831	504.8
798.245	493.6
798.659	493.4
799.073	488.6
799.487	493.2
799.88	501.8
800.294	499
800.708	504.2
801.123	503.6
801.516	512.2
801.93	482.4
802.345	489.8
802.76	494.8
803.153	512.2
803.568	517
803.983	518.8
804.377	508.4
804.792	489.6
805.207	492.2
805.601	505.8
806.016	526.8
806.432	498.2
806.826	523
807.242	514.2
807.658	502
808.052	502.2
808.468	494
808.884	500.4
809.279	501.8
809.695	505.4
810.111	520.8
810.506	506.2
810.922	515
811.339	495
811.734	513.6
812.151	504
812.546	502
812.963	494.4
813.38	517.2
813.776	502.2
814.193	521.8
814.589	490
815.006	494
815.402	498.8
815.82	500.6
816.237	496.6
816.633	505
817.051	496.2
817.448	503
817.866	491.4
818.262	510
818.68	493.8
819.077	494.8
819.495	500.8
819.892	539
820.311	498.2
820.708	499.2
821.127	501.4
821.524	505
821.943	497.2
822.34	518.8
822.759	507
823.157	492.2
823.576	509.8
823.974	505.6
824.393	554.6
824.791	500.8
825.189	504.6
825.609	496.6
826.007	501.8
826.427	491.4
826.826	496.4
827.246	499.6
827.644	490
828.043	509.6
828.463	505
828.862	503.8
829.261	504.2
829.682	494.2
830.081	508.4
830.502	493.2
830.901	507.8
831.301	498
831.722	497
832.121	501.8
832.521	497
832.943	503.4
833.342	497.8
833.742	497.2
834.164	492
834.564	485.8
834.965	504.6
835.386	498.8
835.787	492.2
836.188	498.8
836.588	507.8
837.01	503.6
837.411	488.4
837.812	504.2
838.213	502.4
838.636	504.2
839.037	556.2
839.438	509.8
839.84	504
840.263	511.8
840.664	503
841.066	496
841.468	501.8
841.891	500.6
842.293	501
842.695	504.8
843.098	512.2
843.5	501
843.902	508.2
844.326	507.2
844.729	499
845.131	514.2
845.534	505.8
845.937	505.8
846.34	515.6
846.764	496.6
847.167	502.6
847.571	495.2
847.974	502.6
848.377	498.4
848.781	532.8
849.184	512
849.588	497.2
849.992	491.2
850.396	502.2
850.821	516.8
851.225	502.4
851.63	504
852.034	509.8
852.438	490
852.843	565.4
853.247	488.6
853.652	493
854.057	512.2
854.462	501.4
854.867	492.4
855.272	528
855.677	503
856.082	491.8
856.487	495.6
856.893	507.6
