#lambda/nm	C1
208.295	467.6
208.67	437
209.045	391.6
209.419	398.2
209.794	548.8
210.169	521.4
210.544	629
210.919	544.6
211.295	526.4
211.67	537.2
212.045	533.8
212.421	534
212.796	555.4
213.172	530.4
213.547	528.8
213.923	530
214.299	535.6
214.675	541.6
215.051	535.6
215.427	548.6
215.803	552.2
216.179	545.2
216.555	534.2
216.932	543.4
217.308	535.8
217.684	529.6
218.061	543.2
218.438	542.4
218.814	520.2
219.191	543.8
219.568	534.8
219.945	532.8
220.322	543.6
220.699	534.2
221.076	548.8
221.453	525.6
221.83	523.6
222.208	535
222.585	535.8
222.962	533.6
223.34	530
223.717	531.2
224.095	536
224.473	538.6
224.851	530.2
225.229	532
225.607	545.6
225.985	524.4
226.363	540.2
226.741	540.4
227.119	530
227.497	539.6
227.876	528.6
228.254	536.4
228.633	537.4
229.011	543.4
229.39	535
229.769	544.8
230.148	537.8
230.527	553
230.905	538
231.284	542.6
231.664	537.4
232.043	543.8
232.422	535.8
232.801	533.8
233.181	541.8
233.56	537.4
233.94	532.6
234.319	524.8
234.699	529.6
235.079	565.6
235.458	566.2
235.838	548.4
236.218	526
236.598	519.8
236.978	526.6
237.358	518.8
237.738	532.4
238.119	547
238.499	532.2
238.88	534
239.26	550.6
239.641	522.2
240.021	528.4
240.402	532.8
240.783	532
241.163	544.6
241.544	538.4
241.925	539.8
242.306	556.2
242.687	532.6
243.069	526.2
243.45	546.4
243.831	526.8
244.212	530.8
244.594	560.4
244.975	546.8
245.357	535.2
245.739	533.4
246.12	535.6
246.502	550.4
246.884	536.2
247.266	533.6
247.648	543.2
248.03	551.6
248.412	535.2
248.794	529
249.176	530
249.559	548
249.941	527.6
250.323	530.2
250.706	531.4
251.089	537.4
251.471	534.8
251.854	538
252.237	532.6
252.62	543.4
253.002	536.6
253.385	536.8
253.769	545.6
254.152	538.8
254.535	535.8
254.918	525
255.301	537.6
255.685	538.8
256.068	533.6
256.452	556.8
256.835	540.2
257.219	536.4
257.603	545.2
257.986	521.2
258.37	547.2
258.754	530.2
259.138	535.8
259.522	545
259.906	531.4
260.29	540.4
260.675	527.8
261.059	529.8
261.443	533.6
261.828	538.2
262.212	537.8
262.597	525.4
262.981	533.2
263.366	542.8
263.751	536
264.136	525.6
264.521	528.2
264.906	529.6
265.291	537.6
265.676	527
266.061	544.4
266.446	542.8
266.831	534
267.217	541.8
267.602	533.6
267.987	529.6
268.373	531.6
268.759	538
269.144	535.8
269.53	537.4
269.916	533.4
270.302	539
270.688	544.2
271.074	535.4
271.46	542.6
271.846	556.8
272.232	527.6
272.618	530
273.004	535.8
273.391	541.2
273.777	548.2
274.164	542.2
274.55	539.4
274.937	537.6
275.324	538.2
275.71	537.8
276.097	545.8
276.484	536
276.871	537.6
277.258	544.8
277.645	529.8
278.032	529.8
278.419	526.2
278.807	536.2
279.194	535
279.581	528
279.969	539
280.356	532.8
280.744	537.6
281.131	565
281.519	545.2
281.907	533.4
282.295	535
282.682	544
283.07	540.4
283.458	546.4
283.846	546.6
284.235	546
284.623	550.2
285.011	531.2
285.399	542.6
285.788	537
286.176	530
286.565	547.8
286.953	529
287.342	540.2
287.731	533
288.119	530.4
288.508	531.2
288.897	531.4
289.286	525.2
289.675	538.4
290.064	545.4
290.453	525
290.821	535.6
291.21	552
291.599	532
291.989	531.2
292.378	541
292.768	544
293.157	536.2
293.547	543.4
293.936	534.2
294.326	528.6
294.716	537
295.106	536.6
295.496	536.6
295.886	543
296.276	534
296.666	530
297.056	528
297.446	526.2
297.836	547.2
298.227	543.4
298.617	532.8
299.008	540.4
299.398	530.6
299.789	525
300.179	539.2
300.57	552.8
300.961	530.4
301.352	520.4
301.742	536.2
302.133	531.2
302.524	526.2
302.915	537.2
303.307	530.6
303.698	549
304.089	541.6
304.48	526.2
304.872	542.4
305.263	531.6
305.655	529
306.046	537.8
306.438	537.8
306.829	530.8
307.221	547.8
307.613	540.4
308.005	541.8
308.397	541.4
308.789	553.2
309.181	562.6
309.573	555.4
309.965	549.8
310.357	536
310.749	552
311.142	524.6
311.534	528.8
311.926	539.6
312.319	537.6
312.711	528.4
313.104	546.6
313.497	533.8
313.889	571.8
314.282	551
314.675	555
315.068	538.6
315.461	540
315.854	561.8
316.247	544.4
316.64	536.4
317.033	530.8
317.405	540.6
317.798	535.4
318.192	545.2
318.585	535.6
318.979	552.8
319.372	534.4
319.766	541.2
320.16	549
320.553	542.6
320.947	553.8
321.341	537.2
321.735	536.8
322.129	524.6
322.523	553.8
322.917	526.8
323.311	544.2
323.705	539.4
324.099	540.4
324.494	552
324.888	538.8
325.282	536.6
325.677	550.4
326.071	544.4
326.466	541.8
326.861	541.8
327.255	545.8
327.65	540
328.045	550.2
328.44	537
328.835	540.6
329.23	531.6
329.625	552.8
330.02	535.4
330.415	556.6
330.81	537.2
331.206	541.2
331.601	535.6
331.996	536.6
332.37	555.6
332.766	528
333.161	563
333.557	526.2
333.953	540.4
334.348	875
334.744	526.6
335.14	531
335.536	524.2
335.932	538.6
336.328	533
336.724	545.8
337.12	532.6
337.516	538.2
337.913	544.2
338.309	547.2
338.705	535.6
339.102	533.2
339.498	533.4
339.895	544.4
340.291	529.2
340.688	540.6
341.085	530.4
341.481	528.2
341.878	530.6
342.275	547.6
342.672	531.8
343.069	532.2
343.466	530.2
343.842	540.4
344.239	533.6
344.636	530.4
345.033	533
345.431	530.4
345.828	534.6
346.225	524
346.623	558.6
347.02	530.2
347.418	536.6
347.816	541.6
348.213	527.8
348.611	544.6
349.009	530.6
349.407	549.4
349.805	530.4
350.203	523.4
350.601	538
350.999	532.6
351.397	583.6
351.795	535.4
352.193	535.8
352.57	541.2
352.969	545.6
353.367	526.8
353.766	525.6
354.164	532.2
354.563	537
354.961	533.2
355.36	524
355.759	527.8
356.158	519
356.557	523.8
356.956	524.4
357.355	520.8
357.754	522.6
358.153	534.6
358.552	555.2
358.951	534
359.35	539.8
359.75	520
360.149	524.2
360.527	523.6
360.926	518.8
361.326	528.4
361.726	528
362.125	517.6
362.525	529.8
362.925	521.2
363.325	529.6
363.724	523.4
364.124	520.8
364.524	521.6
364.924	524.8
365.324	536
365.725	518.6
366.125	535.8
366.525	529
366.904	520.2
367.304	516.6
367.705	546
368.105	539.6
368.506	526.4
368.906	532.6
369.307	533.4
369.708	539.4
370.108	519
370.509	532
370.91	527.6
371.311	528.8
371.712	538.8
372.113	529
372.514	524
372.894	536
373.295	523.4
373.696	538.6
374.097	541
374.499	555.8
374.9	525.6
375.301	525
375.703	533.6
376.105	523.4
376.506	533
376.908	527.8
377.309	529
377.711	529.8
378.113	524.6
378.493	527.8
378.895	529
379.297	531.8
379.699	524.4
380.102	536.8
380.504	525.2
380.906	520
381.308	544.8
381.71	528.6
382.113	535.4
382.515	526.8
382.918	529.2
383.299	526
383.701	540.6
384.104	524.2
384.507	514.6
384.909	528.6
385.312	521.6
385.715	524
386.118	523.8
386.521	521
386.924	535.2
387.327	525.8
387.709	516.6
388.112	509.8
388.515	519
388.918	521
389.322	529.4
389.725	525.4
390.129	544.2
390.532	524.6
390.936	515.6
391.339	517.4
391.743	529.8
392.125	527
392.529	537.6
392.933	533.4
393.337	525.2
393.74	528.2
394.144	529.8
394.548	523
394.953	521.8
395.357	538
395.761	527.6
396.144	520.2
396.548	522.8
396.952	533.8
397.357	526.2
397.761	521.2
398.166	513.6
398.57	522.2
398.975	516
399.379	518.6
399.763	567.6
400.168	528.4
400.572	516
400.977	524.4
401.382	538
401.787	527.4
402.192	536.2
402.597	537.8
403.002	510.6
403.386	540.8
403.791	549.4
404.197	519.8
404.602	529.2
405.007	520
405.413	526.4
405.818	528.4
406.224	526.2
406.608	522.2
407.014	522
407.42	539.4
407.825	524.6
408.231	532.2
408.637	530.2
409.043	540.6
409.449	522.4
409.834	525.6
410.24	531
410.646	537.6
411.052	538.2
411.458	523.6
411.865	535.4
412.271	534.2
412.677	527.6
413.062	528.6
413.469	523.6
413.875	550
414.282	536.8
414.689	529
415.095	530.8
415.502	526
415.888	528.8
416.294	512.4
416.701	556
417.108	521.8
417.515	538
417.923	529.6
418.33	540.6
418.715	534.4
419.123	522.8
419.53	524.6
419.937	523.8
420.345	538.2
420.752	527.4
421.16	536.8
421.546	522.2
421.953	534.2
422.361	516.6
422.769	523.2
423.177	523.8
423.585	539.8
423.992	539
424.379	542.6
424.787	532.8
425.195	541.8
425.603	533
426.011	539.4
426.419	539.2
426.806	529.6
427.214	532.4
427.623	533.8
428.031	544.6
428.44	532
428.848	536.2
429.235	538
429.644	533.4
430.053	526.4
430.461	539.4
430.87	544.2
431.279	532.2
431.666	521.4
432.075	528.8
432.484	529
432.893	517
433.302	535.8
433.711	556
434.099	530.4
434.508	528.8
434.918	522.6
435.327	533
435.737	529.8
436.125	525.8
436.534	529.2
436.944	537.6
437.353	527.8
437.763	546.4
438.173	528
438.561	533
438.971	519
439.381	531
439.791	531.2
440.201	505.6
440.589	526.2
440.999	535.2
441.409	528
441.819	509.6
442.23	538.8
442.619	530.2
443.029	529
443.439	526.8
443.85	539
444.26	545
444.649	530.8
445.06	526.4
445.471	519.4
445.881	527
446.292	540.6
446.682	545.4
447.092	518.4
447.503	570.4
447.914	524.2
448.325	527.6
448.715	530.8
449.126	511.8
449.537	524.4
449.948	523.2
450.338	517.8
450.75	524
451.161	529.4
451.572	527.6
451.984	517.2
452.374	508.8
452.786	512.8
453.197	531.2
453.609	533.4
453.999	513.4
454.411	515.6
454.823	533
455.235	530.8
455.647	519
456.037	531
456.449	510.8
456.862	526.6
457.274	519
457.665	520
458.077	531
458.489	539.8
458.902	520.8
459.293	523.6
459.705	515.4
460.118	519.6
460.53	521.8
460.921	523.8
461.334	536.2
461.747	515
462.16	534.2
462.551	532.4
462.964	534.6
463.377	508
463.79	518.4
464.182	529.2
464.595	522.6
465.008	524.6
465.421	526.8
465.813	515.4
466.226	526.2
466.64	518.6
467.053	558
467.445	534.4
467.859	539
468.272	518.4
468.686	528.6
469.078	524.6
469.492	510.4
469.906	528.6
470.298	525.4
470.712	515.4
471.126	548.4
471.54	517.2
471.933	519.8
472.347	518.6
472.761	518.2
473.175	521.4
473.568	516
473.982	515.4
474.397	518.6
474.79	520
475.204	520.8
475.619	521.4
476.033	527.8
476.426	517.8
476.841	519.4
477.256	541.4
477.649	512.8
478.064	510.8
478.479	511.6
478.872	513.6
479.287	511.6
479.702	513
480.118	515
480.511	523.4
480.927	520
481.342	515.6
481.736	521.4
482.151	514.6
482.566	525.4
482.96	522.4
483.376	525.4
483.792	511.8
484.186	526.4
484.602	520.6
485.017	517
485.412	516
485.827	524.2
486.243	521.4
486.638	530.6
487.054	519.6
487.47	528.2
487.865	514.8
488.281	516.8
488.697	514.8
489.092	511.8
489.508	509
489.925	519.6
490.32	510.6
490.736	523
491.153	518.6
491.548	522.2
491.964	522.6
492.381	506.8
492.776	522.6
493.193	522.4
493.61	515.6
494.006	516.2
494.422	523.8
494.84	516.2
495.235	529
495.652	516.8
496.069	513.4
496.465	507
496.883	521.8
497.3	526.2
497.696	515.8
498.113	521.8
498.509	511.4
498.927	516.2
499.344	516.8
499.741	513.2
500.158	524
500.576	526.8
500.973	522.6
501.39	510.8
501.787	512.8
502.205	521.4
502.623	510
503.02	505.8
503.438	512.8
503.856	512.8
504.253	522
504.671	524.4
505.068	516.6
505.486	509
505.905	528.6
506.302	515.6
506.72	528.2
507.118	509.4
507.536	519.8
507.955	520
508.352	528.6
508.771	517.8
509.169	525.4
509.587	509.4
510.006	523.4
510.404	513.4
510.823	515
511.221	511.6
511.64	509.6
512.038	531.2
512.457	517.2
512.877	518.2
513.275	515.8
513.694	516.6
514.092	521
514.512	516.2
514.91	523.4
515.33	519.4
515.749	519.6
516.148	521.6
516.568	523.4
516.966	518.8
517.386	505.2
517.785	518.6
518.205	508.4
518.603	513.2
519.024	512.8
519.444	514.4
519.843	514
520.263	525.2
520.662	518.6
521.082	515.8
521.481	517.6
521.902	504.8
522.301	508.4
522.722	519.6
523.121	507.4
523.542	515.6
523.963	520.8
524.362	516.2
524.783	517
525.183	520.2
525.604	517.4
526.003	513.8
526.425	507.2
526.824	523.6
527.246	523.6
527.646	529
528.067	523.4
528.467	511.4
528.888	519
529.289	513.8
529.71	514.6
530.11	514.4
530.532	505.8
530.932	502.8
531.354	512.4
531.755	537.2
532.176	511.8
532.577	513.8
532.999	514.2
533.4	505.8
533.822	520
534.223	513.8
534.645	510.6
535.046	514
535.468	515.2
535.869	520.4
536.292	510
536.693	540.4
537.115	515.6
537.516	515.8
537.939	517.8
538.34	526.2
538.742	524.8
539.165	518.6
539.566	515
539.989	502.6
540.391	510.8
540.814	520.2
541.216	526.2
541.639	516.4
542.041	514.6
542.464	511
542.866	506.4
543.268	513.8
543.691	524
544.093	515.8
544.517	535.6
544.919	512.2
545.343	532.2
545.745	512.2
546.147	518.2
546.571	512.6
546.974	507
547.398	517.6
547.8	528.8
548.224	517.2
548.627	511.2
549.03	514.8
549.454	509.8
549.857	507.8
550.281	509.4
550.684	509.6
551.087	531.6
551.512	530
551.915	526.2
552.34	513.6
552.743	513.4
553.146	515.2
553.571	517
553.975	528.6
554.399	513.6
554.803	555.8
555.207	516.4
555.632	509.4
556.036	523.4
556.461	513.2
556.865	518.4
557.268	514.2
557.694	519.8
558.098	526.8
558.502	524.8
558.927	519
559.332	525.6
559.736	527
560.162	531.2
560.566	523.2
560.992	527.8
561.396	524.2
561.801	520.4
562.227	524.6
562.631	526
563.036	525
563.462	529.4
563.867	520.8
564.272	517.6
564.698	534.2
565.103	521.2
565.508	541.8
565.935	521.8
566.34	525.6
566.745	531.6
567.172	526.4
567.577	540.4
567.982	533.8
568.409	527
568.815	517.6
569.22	528
569.626	537
570.053	516.8
570.459	531.8
570.865	531.6
571.292	524
571.698	537.4
572.104	512.6
572.531	519.8
572.937	531
573.343	525.8
573.75	529.8
574.177	523.2
574.583	521.6
574.99	520.6
575.396	527.8
575.824	525
576.231	523.8
576.637	515.4
577.065	537
577.472	521
577.879	521.8
578.286	524.8
578.714	509.4
579.121	518.2
579.528	515.4
579.935	530.6
580.364	519.4
580.771	507.4
581.178	503.8
581.585	519
582.014	525
582.421	512
582.829	515.8
583.236	527.2
583.644	513.4
584.073	514.8
584.481	508.2
584.889	514.6
585.296	521.2
585.726	514.6
586.134	512.6
586.542	501.8
586.95	528.2
587.358	510
587.787	525.2
588.196	509.8
588.604	509.4
589.012	522
589.421	509
589.851	513.6
590.259	516
590.668	509.2
591.076	539.4
591.485	506.6
591.894	525.4
592.324	529.4
592.733	519.4
593.142	501.8
593.551	523.2
593.96	540.6
594.369	506.4
594.8	500.8
595.209	515.6
595.618	500.4
596.028	512.8
596.437	502.6
596.847	517.4
597.256	517.8
597.687	520.6
598.097	516
598.507	510.4
598.917	515
599.327	519.4
599.736	517.8
600.146	526
600.556	521.4
600.988	513.4
601.398	513
601.808	521
602.219	502.2
602.629	521
603.039	518.8
603.45	536
603.86	518.6
604.271	528.2
604.703	517.4
605.114	515.6
605.525	520.4
605.935	518
606.346	531
606.757	519
607.168	512.8
607.579	507.4
607.99	521.2
608.402	515.8
608.813	523.6
609.224	522.6
609.636	510.8
610.047	509
610.48	520
610.892	522.6
611.303	521.2
611.715	513
612.127	512.8
612.539	516.8
612.95	513.2
613.362	507
613.774	501.8
614.186	508.4
614.599	515.2
615.011	521.4
615.423	517
615.835	513.6
616.248	510.6
616.66	515.6
617.073	509.4
617.485	511.4
617.898	519.4
618.311	512
618.723	512.4
619.136	540.2
619.549	522.4
619.962	532.6
620.375	517.4
620.788	524.6
621.201	512.2
621.614	516.6
622.028	520.8
622.441	522.6
622.854	536.2
623.268	507.2
623.681	524.2
624.095	521.4
624.509	524.6
624.922	524
625.336	510.2
625.728	518.6
626.142	524.8
626.556	526.2
626.97	526.6
627.384	518.4
627.799	518.6
628.213	519.8
628.627	524.8
629.041	511.6
629.456	513.2
629.87	512.2
630.285	528.2
630.699	526.6
631.093	521.4
631.507	521.6
631.922	520
632.337	526.6
632.752	508.8
633.167	519.4
633.582	514.6
633.997	514
634.412	513.6
634.806	518.6
635.221	506.2
635.637	522
636.052	508.6
636.468	518.8
636.883	538
637.299	520.8
637.715	505.2
638.109	515.2
638.525	513
638.941	521.2
639.357	513.2
639.773	515.4
640.189	511.4
640.584	517.4
641	516.6
641.416	505.8
641.832	513.2
642.249	504.8
642.665	509.4
643.06	519.2
643.477	513.2
643.894	502.2
644.31	506.4
644.727	510.8
645.123	515.4
645.54	510.8
645.957	508.8
646.374	522.8
646.77	507
647.187	536.6
647.604	511.8
648.021	494.8
648.439	509.4
648.835	516.6
649.252	510
649.67	513
650.088	509
650.484	506.2
650.902	510.2
651.32	516.2
651.738	513.4
652.134	508.2
652.552	527.2
652.971	516.8
653.389	511.2
653.786	527
654.204	512.8
654.622	505.8
655.019	510.6
655.438	517.6
655.857	514.6
656.275	509.2
656.673	498.4
657.091	517
657.51	510.2
657.908	522.2
658.327	528
658.746	499.8
659.144	503.6
659.563	513.4
659.982	516.6
660.38	502.8
660.8	510.4
661.219	518
661.617	518
662.037	508.8
662.457	516.8
662.855	498.4
663.275	535.8
663.695	514.8
664.094	511
664.514	511.4
664.934	506.2
665.333	514.4
665.753	506
666.152	501.6
666.572	500
666.993	520.2
667.392	506.8
667.812	502.6
668.212	505.4
668.632	511.8
669.053	497.4
669.453	518.8
669.874	503
670.273	515.2
670.694	500.6
671.116	517.8
671.515	516.6
671.937	507
672.337	506.2
672.758	507.8
673.158	517.8
673.58	509.6
673.98	515
674.402	525
674.824	507.6
675.224	504
675.646	493.8
676.047	513
676.469	502.8
676.869	512.4
677.292	509.6
677.693	507.8
678.115	503.4
678.516	506.6
678.939	509
679.34	505.2
679.762	514
680.164	509.6
680.586	495
680.988	504.2
681.411	526.4
681.812	499
682.236	492.4
682.637	502.6
683.061	496.2
683.462	503.2
683.864	503.8
684.288	506
684.69	493.4
685.114	516
685.516	506
685.94	503.4
686.342	510.8
686.766	499.4
687.168	507.4
687.571	512.8
687.995	498.8
688.398	493.2
688.822	500.2
689.225	515.4
689.628	519
690.052	503.4
690.456	515
690.88	505.4
691.284	495.4
691.687	505.8
692.112	491.2
692.515	495.6
692.919	505.8
693.344	508.2
693.747	504.6
694.173	497.6
694.577	512.8
694.98	507.4
695.406	504
695.81	508.2
696.214	500.2
696.64	501.6
697.044	510.8
697.448	513.6
697.874	510
698.279	503.2
698.684	498.4
699.11	499
699.514	501.4
699.919	503.8
700.324	500.6
700.75	499
701.156	504.4
701.561	517.2
701.987	507.6
702.393	519.4
702.798	513
703.203	506.4
703.63	501.8
704.036	501.2
704.442	507.8
704.847	499.6
705.274	508.4
705.68	498.6
706.086	511.8
706.492	498
706.92	505.6
707.326	508
707.732	492.6
708.139	500.6
708.545	496.2
708.973	497.8
709.38	497.8
709.786	488
710.193	513.2
710.6	502.4
711.028	495.2
711.435	501
711.842	502.8
712.249	501.4
712.656	510.6
713.064	505.6
713.492	500
713.9	500
714.307	502.4
714.715	506.4
715.123	507.8
715.53	506.4
715.938	509.8
716.367	500.6
716.775	498.4
717.184	496.8
717.592	497
718	509.8
718.408	528
718.816	543.2
719.225	506.4
719.633	508.2
720.042	495
720.472	509.6
720.881	519.6
721.29	512.8
721.699	501.6
722.108	504
722.517	509.4
722.926	506
723.335	515
723.744	510
724.154	510.2
724.563	504.8
724.973	506.8
725.382	506
725.792	511.6
726.202	497
726.612	512.4
727.022	506.6
727.432	504.2
779.813	505.6
780.223	538.4
780.634	499
781.044	503
781.454	503.6
781.865	513
782.276	507.2
782.686	506.8
783.097	499.6
783.508	499.8
783.919	506
784.33	521
784.741	509.4
785.152	501.8
785.563	490.8
785.974	502.8
786.386	506.2
786.776	502.6
787.188	508.4
787.599	495
788.011	504.2
788.423	513.6
788.835	496.4
789.247	499
789.659	499.8
790.071	500.8
790.483	536.4
790.874	499.4
791.286	506.4
791.699	498.8
792.111	506.6
792.524	497.6
792.937	502
793.349	496.2
793.741	496.6
794.154	502.4
794.567	517.2
794.98	503.6
795.393	494.4
795.785	518
796.198	492
796.612	503
797.026	504.6
797.439	489.2
797.831	505
798.245	491
798.659	494.8
799.073	500.6
799.487	492.2
799.88	499.4
800.294	506.2
800.708	502.8
801.123	495
801.516	514
801.93	488.6
802.345	485.6
802.76	500.6
803.153	513.6
803.568	515
803.983	512.2
804.377	503
804.792	492
805.207	489.4
805.601	503.4
806.016	530.6
806.432	496.8
806.826	527.8
807.242	502.8
807.658	505.8
808.052	502
808.468	495.6
808.884	502.8
809.279	500
809.695	510.6
810.111	519.8
810.506	508.2
810.922	511.2
811.339	500.6
811.734	508.4
812.151	502.2
812.546	502.4
812.963	501.8
813.38	506.8
813.776	496.6
814.193	519
814.589	494.6
815.006	495.8
815.402	498.4
815.82	491.2
816.237	503.8
816.633	505.4
817.051	496.8
817.448	501
817.866	489.6
818.262	509.4
818.68	496.4
819.077	494.2
819.495	506.8
819.892	541.4
820.311	493.6
820.708	502.2
821.127	493.8
821.524	512
821.943	507.2
822.34	515.8
822.759	495
823.157	506
823.576	514.6
823.974	506.2
824.393	586.4
824.791	500
825.189	488.4
825.609	501.8
826.007	498.4
826.427	493.2
826.826	504.6
827.246	507
827.644	481.8
828.043	508.4
828.463	491.2
828.862	494.6
829.261	502.4
829.682	485.8
830.081	503.6
830.502	491
830.901	493
831.301	495
831.722	489.4
832.121	503.2
832.521	495.2
832.943	498
833.342	502.4
833.742	494.4
834.164	492.6
834.564	490.8
834.965	498.8
835.386	497.8
835.787	500.2
836.188	491.8
836.588	496.2
837.01	501.4
837.411	499.6
837.812	505.2
838.213	497.2
838.636	498.4
839.037	554.6
839.438	493.8
839.84	499
840.263	501.8
840.664	504.8
841.066	495.4
841.468	502.4
841.891	498.4
842.293	503.8
842.695	503.8
843.098	506.8
843.5	498
843.902	499.8
844.326	499.2
844.729	504.4
845.131	510.6
845.534	502.2
845.937	513.8
846.34	508.4
846.764	501.6
847.167	494
847.571	494.2
847.974	501
848.377	502.8
848.781	530
849.184	512.4
849.588	495.2
849.992	500.6
850.396	498.4
850.821	515.8
851.225	495.2
851.63	503.2
852.034	513.2
852.438	502.2
852.843	526.2
853.247	491.2
853.652	498.4
854.057	513.6
854.462	502.2
854.867	500.8
855.272	528.8
855.677	498
856.082	499.2
856.487	495.2
