#lambda/nm	C1
208.295	467
208.67	432.2
209.045	389.2
209.419	402.2
209.794	539
210.169	524.4
210.544	632.4
210.919	545.4
211.295	532.6
211.67	536.8
212.045	529.6
212.421	526.2
212.796	563.6
213.172	531.2
213.547	531.4
213.923	531.4
214.299	528.4
214.675	540.4
215.051	541.8
215.427	545.4
215.803	550.4
216.179	540.4
216.555	527.8
216.932	536.8
217.308	540.4
217.684	536.4
218.061	540.6
218.438	541
218.814	535
219.191	543.8
219.568	532.4
219.945	539
220.322	538.8
220.699	536
221.076	542
221.453	544.6
221.83	528.4
222.208	535.4
222.585	536
222.962	538.4
223.34	536
223.717	532.8
224.095	533.6
224.473	538.4
224.851	528.8
225.229	529.6
225.607	549.8
225.985	528.2
226.363	541.4
226.741	540.8
227.119	538.4
227.497	546.8
227.876	528.8
228.254	545
228.633	540.6
229.011	532
229.39	542.6
229.769	538.6
230.148	547.2
230.527	555.4
230.905	533.2
231.284	541.6
231.664	531.8
232.043	548.8
232.422	548.8
232.801	538.6
233.181	537.6
233.56	534.4
233.94	539.8
234.319	522.8
234.699	531.8
235.079	565.2
235.458	571.8
235.838	547.2
236.218	535.2
236.598	525.4
236.978	527.2
237.358	529
237.738	529.6
238.119	539.4
238.499	528.4
238.88	540
239.26	549.8
239.641	527.8
240.021	534.8
240.402	533.4
240.783	538
241.163	531.6
241.544	534.6
241.925	536.8
242.306	549
242.687	533.8
243.069	537.2
243.45	551.6
243.831	535.2
244.212	529.4
244.594	566
244.975	542
245.357	544
245.739	534.8
246.12	538.2
246.502	548.4
246.884	533
247.266	537.2
247.648	534.8
248.03	549.4
248.412	530
248.794	544.6
249.176	529
249.559	545.6
249.941	538.8
250.323	530.4
250.706	530.6
251.089	537.6
251.471	540
251.854	540.8
252.237	534.2
252.62	546
253.002	539.8
253.385	536.6
253.769	543.8
254.152	531
254.535	544.6
254.918	530
255.301	535.2
255.685	534.2
256.068	532.8
256.452	550
256.835	535.8
257.219	543.8
257.603	547.6
257.986	526.2
258.37	538.6
258.754	525.8
259.138	545.6
259.522	538.8
259.906	537
260.29	536
260.675	535.4
261.059	537.4
261.443	527.4
261.828	540.4
262.212	543.8
262.597	524
262.981	535.2
263.366	546.4
263.751	539.8
264.136	534.8
264.521	531.6
264.906	525.4
265.291	540
265.676	534.8
266.061	544.4
266.446	556.4
266.831	538.2
267.217	553.4
267.602	549.4
267.987	535.2
268.373	529
268.759	544.2
269.144	541.6
269.53	538
269.916	530.6
270.302	530.4
270.688	539.4
271.074	533.8
271.46	541.2
271.846	557.4
272.232	541.4
272.618	532.4
273.004	540
273.391	545.4
273.777	544
274.164	535.6
274.55	543.4
274.937	540.2
275.324	535.8
275.71	537
276.097	541.4
276.484	528.8
276.871	541.2
277.258	536.4
277.645	524.2
278.032	529.8
278.419	540.2
278.807	533.6
279.194	525.6
279.581	523.2
279.969	538.8
280.356	533.6
280.744	530.4
281.131	548.8
281.519	544.4
281.907	529.8
282.295	525.8
282.682	541
283.07	539.4
283.458	543.2
283.846	543
284.235	543.8
284.623	543.8
285.011	521.6
285.399	538.4
285.788	533.6
286.176	524.4
286.565	538.4
286.953	525.8
287.342	526
287.731	528
288.119	526.2
288.508	531.8
288.897	530
289.286	520.2
289.675	531.4
290.064	537.4
290.453	533.4
290.821	541.4
291.21	545.2
291.599	528
291.989	530.2
292.378	544.4
292.768	549.8
293.157	535.4
293.547	548.6
293.936	538.8
294.326	535.4
294.716	542.2
295.106	536.2
295.496	535.8
295.886	544.8
296.276	536.2
296.666	528
297.056	529.6
297.446	536.6
297.836	554.2
298.227	537
298.617	531.8
299.008	549.8
299.398	535
299.789	527.6
300.179	543
300.57	545.2
300.961	534
301.352	527.6
301.742	539.4
302.133	530.2
302.524	531.8
302.915	530.2
303.307	525
303.698	544.6
304.089	541.2
304.48	531.8
304.872	534.2
305.263	534
305.655	535
306.046	539.2
306.438	535
306.829	532.2
307.221	550.6
307.613	536.4
308.005	543.6
308.397	542.2
308.789	550
309.181	553.2
309.573	546
309.965	546.6
310.357	543
310.749	546.8
311.142	529.6
311.534	531.6
311.926	540
312.319	533.4
312.711	532.4
313.104	540.6
313.497	537.4
313.889	561.2
314.282	552.4
314.675	556.8
315.068	539
315.461	534
315.854	563.4
316.247	542.6
316.64	540
317.033	539
317.405	543.4
317.798	537.6
318.192	535.6
318.585	528.4
318.979	542.6
319.372	534.2
319.766	536.2
320.16	539.8
320.553	550.8
320.947	553
321.341	527
321.735	538
322.129	524.4
322.523	551.2
322.917	528.6
323.311	550.8
323.705	542.8
324.099	536
324.494	551.4
324.888	546.2
325.282	539.8
325.677	545.2
326.071	536
326.466	547.8
326.861	539.6
327.255	547
327.65	548.8
328.045	551
328.44	541.6
328.835	540.8
329.23	534
329.625	554
330.02	526
330.415	554.8
330.81	529.6
331.206	534.4
331.601	535.8
331.996	542.2
332.37	551.2
332.766	526.6
333.161	557.8
333.557	538.2
333.953	539.6
334.348	759
334.744	536.8
335.14	529.4
335.536	530.2
335.932	541
336.328	539.4
336.724	542
337.12	538.2
337.516	542.8
337.913	537.4
338.309	544.6
338.705	529
339.102	545.4
339.498	528
339.895	546.6
340.291	536.4
340.688	539.6
341.085	530
341.481	528.2
341.878	532
342.275	547.8
342.672	534.2
343.069	532.8
343.466	528.8
343.842	548.4
344.239	531.8
344.636	534.4
345.033	529.6
345.431	531
345.828	535
346.225	529.2
346.623	557.4
347.02	531.4
347.418	534
347.816	552.4
348.213	522.6
348.611	537.6
349.009	531.2
349.407	548.6
349.805	525.2
350.203	523.2
350.601	541.2
350.999	537.4
351.397	577.4
351.795	539.6
352.193	533.8
352.57	541.2
352.969	543.6
353.367	527
353.766	523.6
354.164	530.6
354.563	536.6
354.961	536.8
355.36	530.2
355.759	530
356.158	519.4
356.557	534.8
356.956	522
357.355	520.8
357.754	538.4
358.153	533.2
358.552	551.4
358.951	527.4
359.35	548.2
359.75	537
360.149	533
360.527	517.2
360.926	525
361.326	531.6
361.726	529
362.125	523.8
362.525	536.8
362.925	530.8
363.325	534.6
363.724	527.2
364.124	525.6
364.524	525.4
364.924	533.2
365.324	533.6
365.725	522
366.125	532.6
366.525	529.8
366.904	524.8
367.304	510.4
367.705	542.6
368.105	543.6
368.506	530
368.906	534.8
369.307	526.2
369.708	535.8
370.108	520.2
370.509	537.2
370.91	521.4
371.311	536
371.712	536.2
372.113	526.4
372.514	511.4
372.894	521.6
373.295	524.8
373.696	536.8
374.097	542.8
374.499	547
374.9	534.2
375.301	522
375.703	526.2
376.105	522.2
376.506	527.4
376.908	530.2
377.309	528
377.711	523.6
378.113	519.6
378.493	530
378.895	517.8
379.297	529.6
379.699	513
380.102	530.8
380.504	519.2
380.906	521.4
381.308	551.4
381.71	528.8
382.113	541.8
382.515	517.4
382.918	531.6
383.299	529
383.701	535.4
384.104	522.8
384.507	507.8
384.909	524.4
385.312	516.6
385.715	518
386.118	526.6
386.521	524
386.924	537.4
387.327	518
387.709	517.6
388.112	518.6
388.515	522.4
388.918	523.4
389.322	529.8
389.725	518.6
390.129	542.8
390.532	528.8
390.936	523.6
391.339	524.4
391.743	532.4
392.125	532.6
392.529	531.8
392.933	545.8
393.337	528.6
393.74	526.4
394.144	531
394.548	523.8
394.953	530
395.357	536.2
395.761	524.8
396.144	531.4
396.548	531.8
396.952	526.6
397.357	535.2
397.761	524.6
398.166	524.2
398.57	531.4
398.975	519.2
399.379	529
399.763	563.2
400.168	531.6
400.572	521.8
400.977	509.8
401.382	541
401.787	530.6
402.192	528.8
402.597	538.2
403.002	515.6
403.386	538
403.791	537.8
404.197	517.8
404.602	528
405.007	522.4
405.413	522.4
405.818	527
406.224	522.4
406.608	526
407.014	521.8
407.42	549.4
407.825	521.8
408.231	536.6
408.637	527.4
409.043	540.8
409.449	518.4
409.834	524.6
410.24	525
410.646	532
411.052	532.8
411.458	529.4
411.865	539
412.271	529.4
412.677	529.2
413.062	539.4
413.469	524.8
413.875	552
414.282	535.2
414.689	528
415.095	534.8
415.502	524.6
415.888	531.6
416.294	519.2
416.701	556.4
417.108	520.8
417.515	533.4
417.923	528
418.33	545.8
418.715	538.6
419.123	527
419.53	523.2
419.937	528
420.345	538.8
420.752	525.8
421.16	535.8
421.546	531.6
421.953	532.8
422.361	518.4
422.769	528.2
423.177	524.2
423.585	559.2
423.992	548.2
424.379	541.2
424.787	542.6
425.195	551.8
425.603	532
426.011	535.6
426.419	540
426.806	523
427.214	531.8
427.623	537.4
428.031	542
428.44	537.6
428.848	537.6
429.235	548.4
429.644	530
430.053	529.6
430.461	548.6
430.87	549
431.279	539.4
431.666	525.6
432.075	532.4
432.484	528.6
432.893	524.8
433.302	536.8
433.711	552.2
434.099	520.4
434.508	520.4
434.918	519.6
435.327	531.6
435.737	529.2
436.125	521
436.534	526.6
436.944	531.6
437.353	531
437.763	549
438.173	518.6
438.561	534.4
438.971	518.4
439.381	530.2
439.791	532.2
440.201	512
440.589	533
440.999	537
441.409	523.2
441.819	517.2
442.23	532.2
442.619	532.6
443.029	530
443.439	526
443.85	537
444.26	540.8
444.649	533.6
445.06	530
445.471	533.6
445.881	529.8
446.292	539.2
446.682	544
447.092	511
447.503	568
447.914	520.6
448.325	528.6
448.715	519.2
449.126	520
449.537	523.6
449.948	526.6
450.338	528.4
450.75	537.2
451.161	524.2
451.572	527.6
451.984	521.8
452.374	521
452.786	514.4
453.197	527
453.609	526.2
453.999	521.2
454.411	516.4
454.823	539.2
455.235	521.8
455.647	529.4
456.037	528.8
456.449	515.4
456.862	521.6
457.274	531
457.665	516.2
458.077	523.8
458.489	552.4
458.902	528.4
459.293	530
459.705	521.4
460.118	518
460.53	521
460.921	523.8
461.334	520.8
461.747	526.6
462.16	532.4
462.551	532.2
462.964	527
463.377	508.4
463.79	528.2
464.182	529.2
464.595	515.8
465.008	516.8
465.421	536.4
465.813	519.6
466.226	527.4
466.64	511.4
467.053	554.6
467.445	532.2
467.859	524.8
468.272	524.4
468.686	528.8
469.078	527
469.492	513.4
469.906	525.6
470.298	528.2
470.712	517
471.126	542.6
471.54	511.4
471.933	515.6
472.347	523.6
472.761	512.2
473.175	513.2
473.568	517.4
473.982	508
474.397	520
474.79	525.2
475.204	527.2
475.619	516.8
476.033	520
476.426	518.6
476.841	514.6
477.256	545.2
477.649	516.8
478.064	509.6
478.479	516.4
478.872	517.2
479.287	507.2
479.702	513
480.118	517.2
480.511	513.6
480.927	526
481.342	520.8
481.736	523.2
482.151	511.4
482.566	529.8
482.96	526.6
483.376	517.8
483.792	518.4
484.186	524
484.602	516.2
485.017	524.8
485.412	518.8
485.827	525.6
486.243	520.8
486.638	535.4
487.054	525.2
487.47	527
487.865	522
488.281	516.6
488.697	516.6
489.092	517.4
489.508	514.6
489.925	524.4
490.32	508.4
490.736	523
491.153	522.4
491.548	525.6
491.964	525.8
492.381	514
492.776	522.4
493.193	521.2
493.61	524.4
494.006	522
494.422	526.6
494.84	509.6
495.235	526.4
495.652	516
496.069	526.2
496.465	503.6
496.883	512
497.3	530.4
497.696	505.2
498.113	528.2
498.509	509
498.927	503.6
499.344	505.6
499.741	504
500.158	521.2
500.576	526
500.973	516.8
501.39	512
501.787	508.8
502.205	520.4
502.623	513.6
503.02	507.2
503.438	518.2
503.856	508.8
504.253	526.4
504.671	519.2
505.068	517.8
505.486	521.4
505.905	526.8
506.302	517.6
506.72	524.8
507.118	506.2
507.536	520.6
507.955	519.6
508.352	520.2
508.771	526.2
509.169	522.2
509.587	512.2
510.006	519
510.404	511.8
510.823	516.6
511.221	523
511.64	517.4
512.038	520.8
512.457	515.4
512.877	510.2
513.275	511.2
513.694	518.4
514.092	517.2
514.512	519.6
514.91	521.2
515.33	514.2
515.749	524.6
516.148	514.8
516.568	521.6
516.966	515
517.386	513
517.785	512.2
518.205	513.8
518.603	507.4
519.024	515
519.444	513.2
519.843	515.2
520.263	527.4
520.662	518
521.082	515.8
521.481	518.4
521.902	514.4
522.301	515.2
522.722	517.6
523.121	514.4
523.542	519.2
523.963	519.2
524.362	523.8
524.783	523
525.183	521.2
525.604	523.8
526.003	509.6
526.425	513.2
526.824	525
527.246	522.4
527.646	529.4
528.067	514.2
528.467	522.6
528.888	515
529.289	510.6
529.71	513.4
530.11	505.8
530.532	512
530.932	507.2
531.354	507.6
531.755	536.6
532.176	518
532.577	509
532.999	516.4
533.4	519.8
533.822	520.8
534.223	519.8
534.645	516.8
535.046	513.4
535.468	511
535.869	533.4
536.292	518.2
536.693	543
537.115	521.8
537.516	516
537.939	512.4
538.34	526.4
538.742	525
539.165	523
539.566	521
539.989	509.4
540.391	514
540.814	517.2
541.216	512.4
541.639	519.6
542.041	513.2
542.464	512.2
542.866	514
543.268	509.2
543.691	520.8
544.093	525.8
544.517	534.8
544.919	512.2
545.343	534.8
545.745	510.8
546.147	521.6
546.571	512.8
546.974	511.2
547.398	516
547.8	530.2
548.224	514.6
548.627	512.6
549.03	519.4
549.454	509.2
549.857	514
550.281	511.4
550.684	515
551.087	528.4
551.512	523.4
551.915	518.4
552.34	523
552.743	515.6
553.146	515.8
553.571	514.4
553.975	541.2
554.399	519
554.803	562.4
555.207	515.2
555.632	520
556.036	522.6
556.461	512.6
556.865	518
557.268	520.6
557.694	518.6
558.098	535.4
558.502	533.6
558.927	521.8
559.332	520.2
559.736	519.8
560.162	524
560.566	518.2
560.992	527.6
561.396	524.4
561.801	520.8
562.227	523
562.631	526.4
563.036	528.6
563.462	525.8
563.867	523
564.272	515.8
564.698	527
565.103	511.2
565.508	532
565.935	518.4
566.34	523
566.745	528.2
567.172	522
567.577	541.4
567.982	536
568.409	524.4
568.815	515.8
569.22	521.2
569.626	528.4
570.053	505.4
570.459	523.2
570.865	525
571.292	527.2
571.698	523.4
572.104	510
572.531	514
572.937	529
573.343	523.4
573.75	514
574.177	516.4
574.583	525.6
574.99	510.6
575.396	520.2
575.824	519.6
576.231	513
576.637	506.4
577.065	536.6
577.472	515.8
577.879	512.6
578.286	529.6
578.714	507.8
579.121	516.2
579.528	514.2
579.935	517.6
580.364	518.2
580.771	500.8
581.178	516.4
581.585	524.4
582.014	520.4
582.421	514.2
582.829	515.2
583.236	525.6
583.644	509.8
584.073	510.4
584.481	522.2
584.889	513.4
585.296	518.2
585.726	528.2
586.134	513.4
586.542	514
586.95	527.8
587.358	512.6
587.787	520.6
588.196	508.6
588.604	518
589.012	523.6
589.421	514.4
589.851	504.4
590.259	513.4
590.668	518
591.076	545.4
591.485	510.6
591.894	518.8
592.324	526.6
592.733	530.2
593.142	504.4
593.551	510.6
593.96	537.8
594.369	499.8
594.8	504.8
595.209	507.4
595.618	502.4
596.028	497.8
596.437	504.8
596.847	507.2
597.256	512
597.687	508.4
598.097	514.2
598.507	503.6
598.917	511.4
599.327	517.4
599.736	518.8
600.146	517.8
600.556	515
600.988	523.4
601.398	512.8
601.808	518.2
602.219	502.2
602.629	515.8
603.039	512
603.45	536
603.86	518.6
604.271	527.6
604.703	511.6
605.114	511
605.525	521.4
605.935	520.4
606.346	528.4
606.757	515.8
607.168	519.6
607.579	503.8
607.99	525.6
608.402	514.8
608.813	524.2
609.224	511.4
609.636	504.2
610.047	503.2
610.48	515.8
610.892	520.8
611.303	518.6
611.715	518.6
612.127	506.2
612.539	514.6
612.95	518.6
613.362	498.6
613.774	502.8
614.186	512.6
614.599	515.6
615.011	521.2
615.423	525
615.835	508
616.248	504
616.66	514.6
617.073	511.2
617.485	517.6
617.898	519.2
618.311	507.4
618.723	513.2
619.136	533.6
619.549	516.2
619.962	538.6
620.375	514.4
620.788	517
621.201	505.2
621.614	512.6
622.028	508.6
622.441	513.6
622.854	525.8
623.268	512.2
623.681	522.4
624.095	511.4
624.509	518.6
624.922	512
625.336	502.6
625.728	507.2
626.142	519.8
626.556	520.2
626.97	518.2
627.384	501.6
627.799	507.6
628.213	522.2
628.627	511.2
629.041	504.4
629.456	511.6
629.87	516.2
630.285	523.6
630.699	518.2
631.093	508
631.507	509.8
631.922	517.8
632.337	521.6
632.752	503.4
633.167	512.2
633.582	506.2
633.997	510.2
634.412	506.2
634.806	506.2
635.221	507.8
635.637	522.4
636.052	502.4
636.468	513.8
636.883	525.6
637.299	516.2
637.715	501.4
638.109	505.6
638.525	496.8
638.941	523.2
639.357	514.6
639.773	519.2
640.189	504
640.584	500.8
641	508.4
641.416	491.4
641.832	506.6
642.249	504.4
642.665	515.4
643.06	519
643.477	519.8
643.894	506.2
644.31	505.8
644.727	513.8
645.123	508.8
645.54	501.6
645.957	520.8
646.374	521.4
646.77	514.8
647.187	530.4
647.604	512
648.021	495.6
648.439	505.4
648.835	516.2
649.252	513
649.67	514.6
650.088	509
650.484	510.6
650.902	511
651.32	515.2
651.738	507.8
652.134	509.2
652.552	518.4
652.971	519.8
653.389	508.4
653.786	519.4
654.204	514.6
654.622	499.2
655.019	511.6
655.438	518.6
655.857	512.8
656.275	517.4
656.673	504.2
657.091	512.8
657.51	516.4
657.908	518.4
658.327	527.8
658.746	496.6
659.144	505.2
659.563	519.2
659.982	509.6
660.38	500.4
660.8	510.4
661.219	517.2
661.617	504.2
662.037	500.8
662.457	523
662.855	490.4
663.275	522.8
663.695	509.2
664.094	497.6
664.514	507.8
664.934	500.6
665.333	504.2
665.753	504.6
666.152	500.2
666.572	502.8
666.993	514.2
667.392	506.2
667.812	503.4
668.212	498.4
668.632	510.2
669.053	497.4
669.453	511
669.874	510.8
670.273	509
670.694	504.6
671.116	511.4
671.515	515.2
671.937	504.4
672.337	499
672.758	500.8
673.158	509.6
673.58	501.2
673.98	506.8
674.402	516.4
674.824	497.8
675.224	502.2
675.646	500.4
676.047	503.8
676.469	501.6
676.869	510.2
677.292	515.6
677.693	499.2
678.115	497.2
678.516	516.8
678.939	512.4
679.34	501.4
679.762	517.6
680.164	510.6
680.586	499.8
680.988	507.8
681.411	523.8
681.812	502.6
682.236	498.2
682.637	498.2
683.061	502.2
683.462	517
683.864	508.2
684.288	514.8
684.69	504.8
685.114	522.4
685.516	504.4
685.94	495.2
686.342	518.4
686.766	503.6
687.168	512.2
687.571	529.6
687.995	502
688.398	499.8
688.822	503
689.225	521.4
689.628	526.8
690.052	504.6
690.456	514.2
690.88	501.4
691.284	490.6
691.687	502.8
692.112	498
692.515	502.4
692.919	502.6
693.344	497.2
693.747	502.8
694.173	502.2
694.577	515.2
694.98	495.6
695.406	497.6
695.81	500
696.214	503.2
696.64	502.2
697.044	499.2
697.448	510.4
697.874	502
698.279	510.6
698.684	493.4
699.11	497
699.514	507.8
699.919	505.2
700.324	491.2
700.75	506.6
701.156	502.4
701.561	512.4
701.987	509.4
702.393	510
702.798	513.6
703.203	501.6
703.63	493.4
704.036	497.4
704.442	509.6
704.847	499.2
705.274	509
705.68	515.2
706.086	511.2
706.492	501.2
706.92	506.6
707.326	515.2
707.732	507.4
708.139	499
708.545	499.4
708.973	502
709.38	505.4
709.786	498
710.193	521
710.6	503.8
711.028	495.4
711.435	503.6
711.842	508.4
712.249	499.2
712.656	506.4
713.064	511.4
713.492	500.4
713.9	508.2
714.307	506.4
714.715	499.4
715.123	508.2
715.53	508.6
715.938	513.6
716.367	508.2
716.775	503.4
717.184	508.6
717.592	504.4
718	515.2
718.408	540
718.816	541.4
719.225	511
719.633	506
720.042	496.6
720.472	497.6
720.881	520.4
721.29	509.4
721.699	494.6
722.108	502
722.517	501.8
722.926	506
723.335	513.6
723.744	503.2
724.154	500.4
724.563	502.6
724.973	507.8
725.382	505.4
725.792	509.6
726.202	499.2
726.612	510
727.022	504.8
727.432	505.8
779.813	503.6
780.223	541.8
780.634	500.6
781.044	495
781.454	508
781.865	511.4
782.276	503.6
782.686	510.6
783.097	502.6
783.508	500.8
783.919	503.4
784.33	514.6
784.741	515.8
785.152	505.8
785.563	491.2
785.974	506
786.386	508.2
786.776	501.8
787.188	510
787.599	501.6
788.011	512.4
788.423	506.6
788.835	506.8
789.247	494
789.659	493.2
790.071	495.4
790.483	541.4
790.874	510.8
791.286	518
791.699	500.6
792.111	502.8
792.524	507.8
792.937	509.4
793.349	494.2
793.741	501.6
794.154	504.6
794.567	517.2
794.98	504
795.393	503
795.785	512.6
796.198	497.6
796.612	513.4
797.026	508
797.439	496.2
797.831	503
798.245	496.8
798.659	501.6
799.073	500.4
799.487	493.8
799.88	503.2
800.294	504.8
800.708	502.4
801.123	493.4
801.516	525
801.93	496.6
802.345	494.8
802.76	505
803.153	513.6
803.568	507.8
803.983	513.4
804.377	503.2
804.792	496.4
805.207	489.6
805.601	503.8
806.016	523.6
806.432	495
806.826	527
807.242	522
807.658	507.4
808.052	503
808.468	506
808.884	492.6
809.279	503.8
809.695	511.8
810.111	514.8
810.506	506.8
810.922	508.8
811.339	498.6
811.734	510.2
812.151	496.6
812.546	501.6
812.963	491.6
813.38	504.8
813.776	501.2
814.193	518.2
814.589	496.2
815.006	499
815.402	496.6
815.82	499.4
816.237	500.2
816.633	507
817.051	494.6
817.448	500.2
817.866	489.6
818.262	513
818.68	498.8
819.077	494.4
819.495	499.4
819.892	535.6
820.311	493
820.708	496.8
821.127	491
821.524	504.4
821.943	507.4
822.34	515.6
822.759	505.8
823.157	504.4
823.576	511.6
823.974	509.2
824.393	590
824.791	500
825.189	499.4
825.609	494.6
826.007	500.4
826.427	490.2
826.826	492.2
827.246	508.2
827.644	491
828.043	503.6
828.463	502.4
828.862	508
829.261	507.2
829.682	488.6
830.081	510.6
830.502	494
830.901	503.4
831.301	495.6
831.722	493.6
832.121	502
832.521	504.8
832.943	502.2
833.342	499.8
833.742	487.8
834.164	505.8
834.564	491.4
834.965	499.2
835.386	495.6
835.787	504.4
836.188	503
836.588	505
837.01	502.6
837.411	504
837.812	504.8
838.213	506.4
838.636	502.4
839.037	550
839.438	497.4
839.84	496.2
840.263	495.8
840.664	491.8
841.066	499
841.468	498.8
841.891	493.4
842.293	508.6
842.695	500.2
843.098	500
843.5	496.6
843.902	500.6
844.326	497.8
844.729	496.6
845.131	510.2
845.534	498.4
845.937	506
846.34	511
846.764	497
847.167	503.4
847.571	499.2
847.974	503
848.377	497.2
848.781	546.4
849.184	506.6
849.588	494.4
849.992	495.8
850.396	503.4
850.821	519.8
851.225	507.2
851.63	496.4
852.034	512.4
852.438	503.2
852.843	565.8
853.247	488.8
853.652	493.4
854.057	519
854.462	502
854.867	495
855.272	534
855.677	500.2
856.082	500.2
