#lambda/nm	C1
208.295	468.8
208.67	434.2
209.045	393.4
209.419	402.2
209.794	533
210.169	520.2
210.544	630.8
210.919	541.4
211.295	528.4
211.67	537
212.045	531.4
212.421	524.8
212.796	557.4
213.172	530.8
213.547	532.4
213.923	531.8
214.299	532.8
214.675	543.6
215.051	533.6
215.427	538.4
215.803	552.6
216.179	544.6
216.555	530
216.932	543.4
217.308	537
217.684	533.4
218.061	547.6
218.438	547.2
218.814	544.2
219.191	548.4
219.568	528.2
219.945	533
220.322	535.4
220.699	535.4
221.076	545.8
221.453	533.4
221.83	524.6
222.208	530.2
222.585	522
222.962	545.4
223.34	538.4
223.717	529.2
224.095	534
224.473	533.6
224.851	524.4
225.229	527.4
225.607	553.2
225.985	532.2
226.363	536.6
226.741	533.8
227.119	532.8
227.497	537.8
227.876	528.8
228.254	541
228.633	534.4
229.011	539
229.39	539.8
229.769	538.2
230.148	536.2
230.527	556.6
230.905	539.2
231.284	543.4
231.664	535.8
232.043	548.4
232.422	544.2
232.801	536.4
233.181	538.8
233.56	531.4
233.94	535.4
234.319	521.4
234.699	531
235.079	575.6
235.458	570.2
235.838	546.2
236.218	538.6
236.598	537
236.978	521.2
237.358	537.2
237.738	529.2
238.119	541.2
238.499	531
238.88	535.6
239.26	552
239.641	525
240.021	528.8
240.402	526.2
240.783	528
241.163	532.8
241.544	529.8
241.925	534.2
242.306	541
242.687	528.6
243.069	533.8
243.45	546.2
243.831	537.2
244.212	530.6
244.594	562.4
244.975	542.6
245.357	537.4
245.739	529
246.12	532.6
246.502	553
246.884	531
247.266	527.6
247.648	541.6
248.03	552.4
248.412	532.8
248.794	537.4
249.176	532.8
249.559	541.4
249.941	528.2
250.323	529.8
250.706	527
251.089	530.6
251.471	533.2
251.854	537.2
252.237	530.4
252.62	546.6
253.002	537
253.385	532
253.769	546.2
254.152	538
254.535	538.6
254.918	528.4
255.301	531.6
255.685	530.6
256.068	523.8
256.452	551.6
256.835	543.8
257.219	539
257.603	546.6
257.986	522.8
258.37	538.2
258.754	529.6
259.138	534.8
259.522	538.8
259.906	530
260.29	539.8
260.675	535
261.059	538.4
261.443	522.6
261.828	532.8
262.212	541.2
262.597	530.2
262.981	533.2
263.366	541.8
263.751	534.4
264.136	525
264.521	530.2
264.906	532.8
265.291	539
265.676	528.8
266.061	539.6
266.446	548.2
266.831	532
267.217	546.8
267.602	537.6
267.987	540.6
268.373	534.6
268.759	545.2
269.144	542.2
269.53	539.6
269.916	527.2
270.302	532.8
270.688	539.4
271.074	532
271.46	546.8
271.846	553.4
272.232	528.2
272.618	531.6
273.004	532.4
273.391	541
273.777	546.8
274.164	534.4
274.55	543.2
274.937	539.8
275.324	530.6
275.71	539
276.097	535.4
276.484	533.2
276.871	534.6
277.258	533.4
277.645	524.8
278.032	532.4
278.419	531.8
278.807	541.4
279.194	530.2
279.581	527
279.969	543.6
280.356	535.6
280.744	537.8
281.131	557
281.519	548.4
281.907	535.6
282.295	534.8
282.682	547
283.07	540
283.458	544.6
283.846	539.6
284.235	541
284.623	537.2
285.011	528.2
285.399	537.2
285.788	538.6
286.176	530.4
286.565	548.4
286.953	541.2
287.342	523.4
287.731	536.6
288.119	527.8
288.508	525.8
288.897	539.4
289.286	525
289.675	529.6
290.064	543.4
290.453	537.4
290.821	533.8
291.21	546
291.599	533.4
291.989	535.2
292.378	538.4
292.768	548.2
293.157	536
293.547	540.2
293.936	537.2
294.326	530.6
294.716	537.6
295.106	532.2
295.496	545.6
295.886	541.4
296.276	530.4
296.666	533.2
297.056	531.8
297.446	522.4
297.836	552.2
298.227	545
298.617	531.6
299.008	547
299.398	536.2
299.789	533.4
300.179	540.8
300.57	546
300.961	538.8
301.352	536
301.742	542.4
302.133	537.8
302.524	537.8
302.915	536.8
303.307	536.8
303.698	547.6
304.089	537
304.48	537.8
304.872	544.4
305.263	535.4
305.655	530
306.046	530.4
306.438	535.8
306.829	519.4
307.221	545.8
307.613	540.6
308.005	543
308.397	538.8
308.789	545.4
309.181	559.2
309.573	539.4
309.965	540.6
310.357	534.4
310.749	546
311.142	529
311.534	532.8
311.926	545.6
312.319	536.4
312.711	526.4
313.104	538
313.497	535.4
313.889	577
314.282	546.6
314.675	562
315.068	535.2
315.461	549.2
315.854	554
316.247	540.4
316.64	541.6
317.033	540.4
317.405	545.2
317.798	537.4
318.192	534.8
318.585	527.8
318.979	535.6
319.372	524.2
319.766	537.8
320.16	538.2
320.553	547
320.947	547.4
321.341	529.8
321.735	532
322.129	520.2
322.523	552.8
322.917	526.4
323.311	540.8
323.705	533.2
324.099	534.6
324.494	544
324.888	546.4
325.282	528.2
325.677	547.4
326.071	550.8
326.466	541.6
326.861	534.8
327.255	547
327.65	547
328.045	545.4
328.44	538.4
328.835	531.6
329.23	542.4
329.625	555
330.02	536
330.415	556
330.81	537.2
331.206	536.2
331.601	532.4
331.996	542
332.37	552.4
332.766	522.2
333.161	560.8
333.557	530.8
333.953	532.6
334.348	841.8
334.744	530.2
335.14	533.6
335.536	525.8
335.932	544.6
336.328	534.2
336.724	539.4
337.12	536.8
337.516	540.2
337.913	536.8
338.309	543.8
338.705	524.8
339.102	548.2
339.498	531.8
339.895	545.6
340.291	529.4
340.688	541.6
341.085	525.2
341.481	543.4
341.878	533.6
342.275	554.2
342.672	525.4
343.069	521
343.466	522.4
343.842	545
344.239	526
344.636	533
345.033	534.4
345.431	524.6
345.828	531.6
346.225	531.2
346.623	560.4
347.02	542.8
347.418	534.6
347.816	549
348.213	530.6
348.611	539
349.009	535.4
349.407	542
349.805	526.6
350.203	522
350.601	541.4
350.999	535.6
351.397	592.8
351.795	537.2
352.193	534.8
352.57	544.8
352.969	541.2
353.367	522
353.766	525
354.164	534.8
354.563	541.6
354.961	531
355.36	536.2
355.759	531.6
356.158	522.2
356.557	521.4
356.956	524.6
357.355	519.2
357.754	522.6
358.153	533
358.552	543.2
358.951	530.6
359.35	548.2
359.75	526
360.149	526.6
360.527	514.6
360.926	524.6
361.326	537.6
361.726	528.6
362.125	525
362.525	534
362.925	526.8
363.325	532.6
363.724	531
364.124	523.6
364.524	525.4
364.924	528.6
365.324	537.2
365.725	513.6
366.125	530.6
366.525	533.2
366.904	523.8
367.304	512.4
367.705	544
368.105	538.8
368.506	525
368.906	531.2
369.307	532
369.708	532.8
370.108	521.4
370.509	538
370.91	523.8
371.311	539.2
371.712	526.6
372.113	518
372.514	522.2
372.894	531.8
373.295	515.8
373.696	542.8
374.097	535.2
374.499	554.8
374.9	532.8
375.301	527.6
375.703	537.4
376.105	517
376.506	532.6
376.908	533
377.309	533.6
377.711	526.4
378.113	521.4
378.493	520.4
378.895	521.8
379.297	531.8
379.699	527.8
380.102	529.4
380.504	524.8
380.906	519.6
381.308	546.6
381.71	521.8
382.113	532.6
382.515	533.4
382.918	533.6
383.299	530
383.701	532.6
384.104	535.4
384.507	512.4
384.909	528
385.312	526.2
385.715	520.6
386.118	524.8
386.521	510
386.924	529.6
387.327	519.8
387.709	520.4
388.112	514.8
388.515	535.8
388.918	522.6
389.322	529.6
389.725	512.8
390.129	546.8
390.532	534.6
390.936	521
391.339	518.6
391.743	529.2
392.125	528
392.529	540.4
392.933	534.2
393.337	522
393.74	532.6
394.144	526
394.548	524.2
394.953	527.4
395.357	530.6
395.761	521.6
396.144	530.8
396.548	528.4
396.952	526
397.357	529.8
397.761	529.2
398.166	524
398.57	521.6
398.975	525
399.379	530.8
399.763	570
400.168	525.6
400.572	523.8
400.977	528.4
401.382	543.6
401.787	536
402.192	542.6
402.597	540.2
403.002	514
403.386	532.4
403.791	545.2
404.197	521.6
404.602	521.4
405.007	523.8
405.413	516.2
405.818	530.4
406.224	519.8
406.608	522.8
407.014	518
407.42	533.8
407.825	517.6
408.231	526
408.637	525.2
409.043	535.8
409.449	519.8
409.834	519.8
410.24	524
410.646	541.2
411.052	540.6
411.458	534.6
411.865	530.8
412.271	531.4
412.677	527.2
413.062	531
413.469	517
413.875	546.6
414.282	536.6
414.689	531
415.095	532.8
415.502	522
415.888	530.8
416.294	513.4
416.701	562.6
417.108	516.2
417.515	534.4
417.923	523
418.33	534.6
418.715	537.8
419.123	520
419.53	528
419.937	524
420.345	535
420.752	528.8
421.16	538.6
421.546	532
421.953	534.4
422.361	519
422.769	528.8
423.177	523.6
423.585	545.6
423.992	542.2
424.379	531.4
424.787	535.6
425.195	549.2
425.603	531.2
426.011	535
426.419	528.4
426.806	524.8
427.214	530.8
427.623	541.6
428.031	542.4
428.44	537.4
428.848	537.8
429.235	543
429.644	532.8
430.053	533.2
430.461	541.2
430.87	553.4
431.279	541.4
431.666	530.8
432.075	529.6
432.484	534.8
432.893	528.4
433.302	536
433.711	568.6
434.099	533.2
434.508	522
434.918	517
435.327	529
435.737	530.6
436.125	534.6
436.534	528.2
436.944	529.4
437.353	529.8
437.763	541.8
438.173	514.8
438.561	534.6
438.971	501.6
439.381	524.4
439.791	525.2
440.201	517.8
440.589	529.8
440.999	534.8
441.409	526.8
441.819	527.8
442.23	536.8
442.619	539.8
443.029	532.4
443.439	532.8
443.85	532
444.26	541
444.649	526.4
445.06	525.4
445.471	519
445.881	522.4
446.292	542.6
446.682	544.8
447.092	512.8
447.503	566.8
447.914	532.4
448.325	526.2
448.715	524.6
449.126	517.6
449.537	527
449.948	526
450.338	522.6
450.75	531.6
451.161	527.6
451.572	533.4
451.984	510.6
452.374	511.2
452.786	526.8
453.197	525.4
453.609	533.4
453.999	512.4
454.411	521.2
454.823	535.2
455.235	524.8
455.647	525.2
456.037	528
456.449	508.8
456.862	524.2
457.274	532.8
457.665	519.2
458.077	531.6
458.489	551.4
458.902	520
459.293	518
459.705	529
460.118	518.2
460.53	527
460.921	520.4
461.334	526.4
461.747	525.2
462.16	534.8
462.551	540.2
462.964	527.2
463.377	516.2
463.79	519.4
464.182	521.4
464.595	517.4
465.008	519.6
465.421	521.4
465.813	518.6
466.226	528
466.64	520
467.053	557.4
467.445	522.4
467.859	533.2
468.272	528.2
468.686	531.8
469.078	523.6
469.492	509
469.906	522.2
470.298	523.4
470.712	515.8
471.126	549.2
471.54	515.6
471.933	522.2
472.347	524.2
472.761	516.4
473.175	516.8
473.568	520.8
473.982	513.2
474.397	518.4
474.79	514.8
475.204	524.4
475.619	525.2
476.033	533
476.426	518.8
476.841	518.6
477.256	541.4
477.649	510
478.064	519.8
478.479	515.6
478.872	515.2
479.287	507.6
479.702	512.8
480.118	516.4
480.511	521.8
480.927	520.6
481.342	515.6
481.736	523
482.151	509.4
482.566	523.2
482.96	523.6
483.376	525.8
483.792	515
484.186	526.6
484.602	518.2
485.017	529
485.412	520.4
485.827	530.2
486.243	525.6
486.638	539.4
487.054	526.6
487.47	541
487.865	519.4
488.281	516.6
488.697	513.2
489.092	515.4
489.508	519.2
489.925	527.8
490.32	513.6
490.736	530.2
491.153	520.6
491.548	518.2
491.964	530.8
492.381	513.2
492.776	519.2
493.193	521.6
493.61	525.4
494.006	518.4
494.422	524.8
494.84	516.4
495.235	528.8
495.652	518.2
496.069	519
496.465	506.2
496.883	514.6
497.3	536
497.696	514.8
498.113	529.8
498.509	511.2
498.927	510
499.344	513.2
499.741	509.4
500.158	517.4
500.576	524.8
500.973	522.8
501.39	508.6
501.787	508.6
502.205	515.4
502.623	511.6
503.02	503
503.438	516.8
503.856	507.6
504.253	525.6
504.671	513.4
505.068	507.2
505.486	511
505.905	540.6
506.302	512.2
506.72	523.2
507.118	505
507.536	514.6
507.955	515.8
508.352	514.2
508.771	525.6
509.169	523.4
509.587	507.2
510.006	525.2
510.404	510.8
510.823	508
511.221	515.8
511.64	512.4
512.038	520.6
512.457	520.6
512.877	508.6
513.275	513.2
513.694	517.6
514.092	507.8
514.512	520.8
514.91	518.6
515.33	509
515.749	513.6
516.148	518.6
516.568	514.6
516.966	511.8
517.386	511.8
517.785	516.6
518.205	514.8
518.603	506.8
519.024	509.6
519.444	507.6
519.843	522.6
520.263	523.8
520.662	514.2
521.082	523.6
521.481	520.8
521.902	516
522.301	518.6
522.722	515.2
523.121	514.8
523.542	518
523.963	512.8
524.362	514.8
524.783	520.8
525.183	516.6
525.604	522.4
526.003	512.6
526.425	518.4
526.824	525.6
527.246	521
527.646	518
528.067	513.6
528.467	519
528.888	515
529.289	512.4
529.71	517
530.11	509.2
530.532	521
530.932	506.4
531.354	506
531.755	543.2
532.176	512.6
532.577	509.6
532.999	515.2
533.4	511.4
533.822	520.2
534.223	518
534.645	510.8
535.046	510.2
535.468	513.4
535.869	531.8
536.292	515.8
536.693	543.4
537.115	513.4
537.516	509.6
537.939	515
538.34	529.6
538.742	523
539.165	516
539.566	514.4
539.989	515
540.391	512.8
540.814	513
541.216	514.8
541.639	521.2
542.041	523.6
542.464	516
542.866	507.4
543.268	509.4
543.691	519.4
544.093	517
544.517	525.4
544.919	506.6
545.343	527
545.745	509.6
546.147	510.6
546.571	511.8
546.974	499.8
547.398	509
547.8	523.4
548.224	513
548.627	508.8
549.03	521
549.454	507.4
549.857	505.8
550.281	505.8
550.684	514.4
551.087	520.6
551.512	515.8
551.915	519
552.34	514.6
552.743	507
553.146	514.6
553.571	514.8
553.975	526.4
554.399	502.8
554.803	551
555.207	512.6
555.632	516
556.036	514.6
556.461	503.6
556.865	515.8
557.268	508.8
557.694	520.6
558.098	525.8
558.502	508.2
558.927	517.6
559.332	510
559.736	512
560.162	520.6
560.566	513
560.992	517.8
561.396	513
561.801	506.6
562.227	509.6
562.631	514.8
563.036	517.4
563.462	522.2
563.867	514.8
564.272	506
564.698	510.4
565.103	503.6
565.508	530.8
565.935	512.4
566.34	515.2
566.745	518.2
567.172	510.8
567.577	527.2
567.982	523
568.409	516.8
568.815	514.8
569.22	521.6
569.626	522.8
570.053	499.8
570.459	519
570.865	525.4
571.292	529.2
571.698	515.8
572.104	505.2
572.531	510
572.937	528.8
573.343	512.2
573.75	511
574.177	518.8
574.583	519.4
574.99	510.2
575.396	520.6
575.824	509.4
576.231	517.4
576.637	515
577.065	537
577.472	507.2
577.879	515.2
578.286	530
578.714	514.8
579.121	507.4
579.528	519.6
579.935	515
580.364	515.8
580.771	499.2
581.178	508.4
581.585	517.4
582.014	530
582.421	511.8
582.829	517.4
583.236	521.4
583.644	515.4
584.073	510.8
584.481	510.4
584.889	512.2
585.296	515.4
585.726	515.4
586.134	507.4
586.542	512.8
586.95	529.4
587.358	505
587.787	507.8
588.196	496.4
588.604	508
589.012	512
589.421	499.8
589.851	507.2
590.259	517.6
590.668	506
591.076	541
591.485	497.4
591.894	516.4
592.324	525.8
592.733	526.6
593.142	496.8
593.551	511.2
593.96	549.8
594.369	502.8
594.8	509.4
595.209	507.2
595.618	499.8
596.028	507
596.437	512.4
596.847	509.6
597.256	510.4
597.687	519
598.097	508.4
598.507	502
598.917	515.6
599.327	512.4
599.736	511
600.146	517.4
600.556	500.6
600.988	515
601.398	505
601.808	513.2
602.219	503.4
602.629	517.6
603.039	513.8
603.45	527
603.86	509.4
604.271	520.2
604.703	509.6
605.114	507
605.525	510.2
605.935	511.6
606.346	526
606.757	514.2
607.168	512.2
607.579	506.6
607.99	518.4
608.402	513.6
608.813	520.2
609.224	514.4
609.636	508.4
610.047	502.4
610.48	518.8
610.892	513.4
611.303	521.2
611.715	514.2
612.127	502
612.539	505.2
612.95	512.6
613.362	502.8
613.774	506
614.186	512.6
614.599	512
615.011	520.2
615.423	512.4
615.835	512.8
616.248	499.2
616.66	516.2
617.073	509.8
617.485	508
617.898	513.2
618.311	520.2
618.723	519.4
619.136	530.6
619.549	520.4
619.962	538.8
620.375	513.4
620.788	524.6
621.201	503.2
621.614	517.8
622.028	515.8
622.441	522.8
622.854	529.4
623.268	512.8
623.681	518.6
624.095	520
624.509	524.2
624.922	526.8
625.336	505.4
625.728	520.6
626.142	517
626.556	533.8
626.97	517.4
627.384	513.8
627.799	518.6
628.213	527
628.627	515.6
629.041	514.8
629.456	512.4
629.87	515
630.285	523.2
630.699	521.8
631.093	508.8
631.507	530.4
631.922	518
632.337	525
632.752	513
633.167	510.8
633.582	509.4
633.997	511.4
634.412	505.2
634.806	510.6
635.221	506
635.637	521
636.052	504.6
636.468	512.2
636.883	533.2
637.299	515.8
637.715	503.2
638.109	513.4
638.525	504.4
638.941	519.6
639.357	514.8
639.773	526.6
640.189	505.6
640.584	518.6
641	516
641.416	501.8
641.832	520.6
642.249	508.8
642.665	508.8
643.06	516.8
643.477	516
643.894	503.2
644.31	512
644.727	508
645.123	514.2
645.54	505.8
645.957	511.4
646.374	520.2
646.77	517.2
647.187	536
647.604	511.4
648.021	496
648.439	505.4
648.835	508.4
649.252	506.8
649.67	512
650.088	509.4
650.484	515.2
650.902	517
651.32	513.2
651.738	511.8
652.134	510.8
652.552	523.8
652.971	509
653.389	516
653.786	526.4
654.204	516.8
654.622	505.4
655.019	515
655.438	513.2
655.857	503.8
656.275	511.2
656.673	508
657.091	523.8
657.51	510.8
657.908	521.4
658.327	521.2
658.746	504.8
659.144	505.2
659.563	518.4
659.982	508.4
660.38	500
660.8	517.2
661.219	518.8
661.617	509.8
662.037	507.4
662.457	522.4
662.855	500.8
663.275	532.8
663.695	509
664.094	504.6
664.514	507.4
664.934	498.4
665.333	516.6
665.753	503.2
666.152	502
666.572	505.2
666.993	517.4
667.392	505.6
667.812	511.8
668.212	508.2
668.632	521.6
669.053	509.4
669.453	518.6
669.874	513
670.273	506.6
670.694	499.2
671.116	513
671.515	514.8
671.937	505.8
672.337	509
672.758	496.6
673.158	520.2
673.58	500.6
673.98	509
674.402	522
674.824	503.6
675.224	504.6
675.646	501
676.047	508.2
676.469	507.4
676.869	516.6
677.292	501
677.693	503.6
678.115	499.8
678.516	514.4
678.939	507
679.34	505.6
679.762	514.8
680.164	514.4
680.586	506.2
680.988	515.8
681.411	520
681.812	509.6
682.236	495.2
682.637	499.6
683.061	500.4
683.462	512.6
683.864	500.4
684.288	512.8
684.69	498.4
685.114	508.8
685.516	509.8
685.94	497
686.342	512.8
686.766	501.4
687.168	509.2
687.571	512.4
687.995	508.2
688.398	497.8
688.822	502.2
689.225	513.6
689.628	519.8
690.052	505.8
690.456	507.8
690.88	502.6
691.284	504.8
691.687	519
692.112	497.2
692.515	508.6
692.919	502.6
693.344	507.4
693.747	503
694.173	505
694.577	508.2
694.98	501.2
695.406	502
695.81	508.4
696.214	510.6
696.64	511.6
697.044	505.6
697.448	516.6
697.874	499
698.279	498.8
698.684	497
699.11	497.8
699.514	509
699.919	502.8
700.324	490
700.75	502.6
701.156	501.4
701.561	512.4
701.987	508.8
702.393	510.8
702.798	511.6
703.203	506.8
703.63	491.8
704.036	498.4
704.442	504.2
704.847	503.2
705.274	501.4
705.68	503
706.086	513
706.492	496.2
706.92	497.8
707.326	507.6
707.732	498.4
708.139	494.6
708.545	499.8
708.973	497.8
709.38	503.6
709.786	489.6
710.193	517.2
710.6	507
711.028	498.6
711.435	494.4
711.842	502.2
712.249	512.4
712.656	508
713.064	513.8
713.492	499.4
713.9	507.4
714.307	509.6
714.715	508
715.123	512.4
715.53	508.8
715.938	513.2
716.367	512
716.775	501.4
717.184	501
717.592	509
718	508
718.408	527.4
718.816	542.8
719.225	497.4
719.633	506.4
720.042	503.4
720.472	498.2
720.881	520.6
721.29	510.2
721.699	495
722.108	508
722.517	507.6
722.926	498.6
723.335	515.6
723.744	500.8
724.154	507.8
724.563	506.2
724.973	504
725.382	496
725.792	502.2
726.202	497.8
726.612	511.2
727.022	491.4
727.432	488.8
779.813	502.6
780.223	545.8
780.634	496.6
781.044	502.4
781.454	500.2
781.865	507.6
782.276	496
782.686	514.4
783.097	504.6
783.508	501.8
783.919	508.2
784.33	510.6
784.741	510.2
785.152	507.4
785.563	493
785.974	500.2
786.386	510.4
786.776	503.2
787.188	500.2
787.599	499.6
788.011	502.6
788.423	505.6
788.835	500
789.247	494.6
789.659	496.2
790.071	496.2
790.483	534.8
790.874	499
791.286	503.8
791.699	498
792.111	504.4
792.524	497.4
792.937	501
793.349	496.4
793.741	498.2
794.154	497.6
794.567	516.4
794.98	504.4
795.393	490.4
795.785	518.2
796.198	496.2
796.612	499.4
797.026	495.2
797.439	486.4
797.831	498.6
798.245	490.6
798.659	497.8
799.073	497.8
799.487	493.4
799.88	503.8
800.294	502.6
800.708	509.4
801.123	506.2
801.516	512.4
801.93	489.4
802.345	488.2
802.76	506.2
803.153	506
803.568	512
803.983	515.4
804.377	509
804.792	490.6
805.207	488
805.601	496.8
806.016	529.2
806.432	495.4
806.826	524.2
807.242	500.2
807.658	502.4
808.052	492
808.468	495
808.884	499.8
809.279	498.8
809.695	509.6
810.111	522.8
810.506	504.6
810.922	521.2
811.339	499.2
811.734	506.8
812.151	494.2
812.546	500.2
812.963	492.6
813.38	508
813.776	496.2
814.193	511.8
814.589	499.4
815.006	499.4
815.402	500
815.82	492.6
816.237	498
816.633	509.4
817.051	492.6
817.448	507.8
817.866	492
818.262	516.4
818.68	501.6
819.077	492.6
819.495	507.6
819.892	530.6
820.311	501.6
820.708	494
821.127	502
821.524	507.2
821.943	500.6
822.34	516.2
822.759	500.4
823.157	504.6
823.576	511.4
823.974	502.6
824.393	589
824.791	497.8
825.189	497.2
825.609	499
826.007	497.8
826.427	490.6
826.826	493.4
827.246	506
827.644	489.4
828.043	513.2
828.463	498.6
828.862	512.6
829.261	501
829.682	486.4
830.081	508.2
830.502	493
830.901	505
831.301	496
831.722	494.8
832.121	493.6
832.521	496
832.943	495.8
833.342	508.4
833.742	501.4
834.164	506.2
834.564	486
834.965	504.8
835.386	498.6
835.787	499.4
836.188	505.6
836.588	507.4
837.01	500.6
837.411	494.6
837.812	505.2
838.213	506.4
838.636	492.6
839.037	556.2
839.438	499.8
839.84	503.8
840.263	507
840.664	495.8
841.066	494.6
841.468	495.2
841.891	490.4
842.293	509.4
842.695	505.6
843.098	507
843.5	493.4
843.902	493.4
844.326	499.8
844.729	496.2
845.131	507.4
845.534	496
845.937	502.6
846.34	510.2
846.764	486.2
847.167	503.6
847.571	489.4
847.974	496
848.377	493.4
848.781	538.2
849.184	508.4
849.588	497
849.992	498.2
850.396	500.2
850.821	513
851.225	498.8
851.63	497
852.034	506.8
852.438	499.8
852.843	523.8
853.247	496.8
853.652	496.2
854.057	510.8
854.462	505.4
854.867	504.4
855.272	529.4
855.677	502.6
856.082	487.6
856.487	492.4
