#lambda/nm	C1
208.295	469.2
208.67	432.6
209.045	396.6
209.419	404
209.794	537.6
210.169	527
210.544	620.8
210.919	539.4
211.295	527.8
211.67	538.2
212.045	529.4
212.421	529.4
212.796	564
213.172	531.8
213.547	530.8
213.923	530
214.299	531.6
214.675	537.2
215.051	545
215.427	539
215.803	555.8
216.179	536
216.555	536
216.932	544
217.308	541.4
217.684	531.4
218.061	536.2
218.438	528.2
218.814	526.6
219.191	536.4
219.568	525.6
219.945	526.4
220.322	535.2
220.699	532.2
221.076	542.6
221.453	532.8
221.83	520.2
222.208	528
222.585	523.2
222.962	531
223.34	536.4
223.717	532.2
224.095	529.6
224.473	538.2
224.851	521.4
225.229	524
225.607	538.6
225.985	524.8
226.363	537.2
226.741	535.8
227.119	528.4
227.497	547.2
227.876	524.4
228.254	535.2
228.633	537.8
229.011	537.2
229.39	534.8
229.769	531.4
230.148	541.6
230.527	552
230.905	526.8
231.284	537.8
231.664	527.6
232.043	547.2
232.422	539.6
232.801	527.4
233.181	535.2
233.56	534.2
233.94	534.2
234.319	529.8
234.699	536
235.079	572.2
235.458	571.4
235.838	547.2
236.218	531.4
236.598	517
236.978	525.6
237.358	524.8
237.738	533.6
238.119	541.8
238.499	522
238.88	535.2
239.26	546
239.641	517.2
240.021	525.6
240.402	537.2
240.783	529.6
241.163	531.8
241.544	539.6
241.925	536.2
242.306	546.2
242.687	529.8
243.069	535
243.45	548.2
243.831	530.4
244.212	535
244.594	570.6
244.975	540.6
245.357	539
245.739	529.6
246.12	539
246.502	545.6
246.884	528.8
247.266	532
247.648	534.4
248.03	549.6
248.412	536.2
248.794	539.4
249.176	532.8
249.559	542.2
249.941	532.2
250.323	529
250.706	528.8
251.089	539.4
251.471	542
251.854	542.4
252.237	537
252.62	541.8
253.002	534.6
253.385	544.4
253.769	548.8
254.152	538.4
254.535	542.8
254.918	527.6
255.301	525.2
255.685	528.6
256.068	521.2
256.452	550.2
256.835	537.6
257.219	537.8
257.603	544
257.986	528.6
258.37	537.6
258.754	520.8
259.138	546.8
259.522	536.6
259.906	535
260.29	533.6
260.675	529
261.059	530.6
261.443	527.2
261.828	544.4
262.212	541.6
262.597	521.2
262.981	534.6
263.366	541.8
263.751	535.4
264.136	526.2
264.521	536.4
264.906	529
265.291	546.6
265.676	529.8
266.061	534.4
266.446	550
266.831	534.8
267.217	551
267.602	536.8
267.987	537.2
268.373	529.8
268.759	545
269.144	544.4
269.53	536
269.916	536
270.302	538.4
270.688	545.4
271.074	540.8
271.46	547.6
271.846	562.6
272.232	534.8
272.618	538.6
273.004	535.2
273.391	551.4
273.777	542.2
274.164	538.4
274.55	542.2
274.937	540.6
275.324	530
275.71	537
276.097	540.6
276.484	532
276.871	538.4
277.258	535.6
277.645	531.6
278.032	535
278.419	534.4
278.807	538.4
279.194	534
279.581	527.6
279.969	540.8
280.356	535.4
280.744	538.4
281.131	557.4
281.519	547.4
281.907	533.2
282.295	529
282.682	547.8
283.07	533.8
283.458	545.6
283.846	543.2
284.235	548.2
284.623	538.8
285.011	526.6
285.399	535
285.788	531.2
286.176	512
286.565	540.8
286.953	534.4
287.342	533
287.731	525.8
288.119	528.4
288.508	527
288.897	532.6
289.286	522.8
289.675	532
290.064	544
290.453	523.2
290.821	532.6
291.21	541.8
291.599	533.8
291.989	534
292.378	542.4
292.768	546.4
293.157	536.8
293.547	538.2
293.936	532.6
294.326	529.4
294.716	530.4
295.106	526
295.496	537.8
295.886	538.2
296.276	533.6
296.666	527.8
297.056	533.8
297.446	520.8
297.836	548.4
298.227	532.8
298.617	530.4
299.008	544.2
299.398	538
299.789	525.4
300.179	525.8
300.57	538.2
300.961	534.2
301.352	530.8
301.742	537.8
302.133	527.2
302.524	534.4
302.915	542.4
303.307	530.8
303.698	543.8
304.089	542.4
304.48	536.2
304.872	542.4
305.263	533
305.655	523
306.046	537.4
306.438	534
306.829	531.2
307.221	544.8
307.613	544.8
308.005	548
308.397	546.2
308.789	549.4
309.181	551
309.573	551.8
309.965	542.6
310.357	528
310.749	539.2
311.142	521.4
311.534	530.8
311.926	533.2
312.319	534.4
312.711	531.2
313.104	539.2
313.497	532.8
313.889	560.8
314.282	546.6
314.675	557.8
315.068	535.6
315.461	547.8
315.854	557.4
316.247	534.6
316.64	528
317.033	534.8
317.405	539
317.798	536
318.192	541.2
318.585	530.2
318.979	538.4
319.372	523.2
319.766	528.4
320.16	537.2
320.553	544.8
320.947	556
321.341	530.8
321.735	532.4
322.129	531.4
322.523	557
322.917	526.4
323.311	542.6
323.705	535.6
324.099	533.8
324.494	549.2
324.888	548.4
325.282	530
325.677	544.4
326.071	538.8
326.466	536.8
326.861	530.4
327.255	545
327.65	535.6
328.045	551.2
328.44	533.8
328.835	535.4
329.23	530.8
329.625	547.2
330.02	526.2
330.415	556.2
330.81	538.8
331.206	544.2
331.601	534
331.996	535.8
332.37	555.2
332.766	526
333.161	557.2
333.557	530.4
333.953	541.4
334.348	836.4
334.744	537.8
335.14	519.8
335.536	527.2
335.932	545.4
336.328	536.8
336.724	543.8
337.12	526.6
337.516	535.4
337.913	535.6
338.309	548
338.705	531.4
339.102	539.6
339.498	530.8
339.895	547.4
340.291	534.2
340.688	543.4
341.085	529.2
341.481	533.4
341.878	534.2
342.275	546.8
342.672	527.4
343.069	524.2
343.466	524.8
343.842	542.2
344.239	529
344.636	533.4
345.033	526.6
345.431	528.6
345.828	540.2
346.225	529.2
346.623	557.4
347.02	534.4
347.418	544.2
347.816	542.2
348.213	525.4
348.611	532
349.009	524.4
349.407	531.8
349.805	521.2
350.203	525
350.601	540.6
350.999	528.8
351.397	584.4
351.795	528.8
352.193	538
352.57	529
352.969	538.2
353.367	525.6
353.766	520
354.164	526.4
354.563	536
354.961	532.2
355.36	528.8
355.759	526.8
356.158	523.6
356.557	521
356.956	524
357.355	523.8
357.754	525.4
358.153	537
358.552	549
358.951	530.4
359.35	533.6
359.75	524.8
360.149	523.4
360.527	520.2
360.926	515.8
361.326	537.6
361.726	531.4
362.125	525.2
362.525	537
362.925	529.8
363.325	529
363.724	532.6
364.124	517.6
364.524	524.6
364.924	527.4
365.324	540.8
365.725	523.6
366.125	529.2
366.525	529.6
366.904	520.8
367.304	510.6
367.705	544.4
368.105	533.8
368.506	525
368.906	533.2
369.307	522.8
369.708	527.8
370.108	514.8
370.509	536.6
370.91	516.4
371.311	530.6
371.712	535.4
372.113	528.6
372.514	518.6
372.894	516.2
373.295	526.6
373.696	535
374.097	536
374.499	549.4
374.9	529.2
375.301	521.8
375.703	526.6
376.105	520.8
376.506	532.2
376.908	531.2
377.309	533.8
377.711	527.2
378.113	526.2
378.493	529.4
378.895	519.4
379.297	534.6
379.699	519.2
380.102	530.8
380.504	528.6
380.906	517
381.308	549.2
381.71	528.8
382.113	530.6
382.515	531.4
382.918	526.2
383.299	530
383.701	533.4
384.104	532.6
384.507	515.2
384.909	525
385.312	518.8
385.715	515.4
386.118	526.6
386.521	515.8
386.924	538
387.327	516.8
387.709	517
388.112	512.4
388.515	518.6
388.918	521.6
389.322	524.6
389.725	525.4
390.129	538.2
390.532	535.4
390.936	523.4
391.339	529
391.743	525
392.125	524.8
392.529	526.2
392.933	538.2
393.337	521.6
393.74	516
394.144	526.4
394.548	516.8
394.953	519.6
395.357	527.6
395.761	523.8
396.144	527
396.548	517.6
396.952	523.4
397.357	524
397.761	520
398.166	513.4
398.57	515.8
398.975	510.2
399.379	521.2
399.763	568.2
400.168	518.2
400.572	520.6
400.977	530
401.382	536.6
401.787	536.2
402.192	535.6
402.597	537.8
403.002	517.2
403.386	539.2
403.791	534.4
404.197	516.8
404.602	514.2
405.007	522.6
405.413	519.4
405.818	529.6
406.224	513.6
406.608	524.6
407.014	520
407.42	539.2
407.825	523.4
408.231	533.4
408.637	522.4
409.043	532.8
409.449	518.6
409.834	521.2
410.24	521
410.646	536.2
411.052	536.4
411.458	536.2
411.865	541.2
412.271	537.4
412.677	524.2
413.062	536.2
413.469	510.6
413.875	547.4
414.282	534.8
414.689	525.2
415.095	527.4
415.502	521.6
415.888	527
416.294	514
416.701	563.8
417.108	518.2
417.515	532.4
417.923	530
418.33	540.4
418.715	536.8
419.123	518.6
419.53	526.6
419.937	523.8
420.345	534
420.752	519.2
421.16	533.8
421.546	522.4
421.953	529.6
422.361	523.6
422.769	526.8
423.177	516.2
423.585	550
423.992	536.8
424.379	526.8
424.787	535
425.195	540
425.603	528
426.011	542.2
426.419	532.6
426.806	523.6
427.214	525
427.623	538.8
428.031	531.8
428.44	525.4
428.848	538.6
429.235	535.6
429.644	534
430.053	521.2
430.461	544.4
430.87	549
431.279	530.8
431.666	515.4
432.075	533.8
432.484	530.8
432.893	532
433.302	539.4
433.711	551.8
434.099	534.4
434.508	519.6
434.918	527.2
435.327	528
435.737	524.6
436.125	535
436.534	525.4
436.944	529.4
437.353	535.8
437.763	537
438.173	517
438.561	533.2
438.971	508.6
439.381	522.2
439.791	527.6
440.201	514.8
440.589	527.8
440.999	527.4
441.409	526.8
441.819	521
442.23	537.4
442.619	526
443.029	527.8
443.439	528.4
443.85	525.6
444.26	528.6
444.649	524
445.06	524
445.471	522.6
445.881	517
446.292	536.4
446.682	540.8
447.092	510.4
447.503	564
447.914	523.6
448.325	527.2
448.715	525.2
449.126	517.4
449.537	520
449.948	520.8
450.338	524.8
450.75	533.8
451.161	524.6
451.572	528.2
451.984	519.4
452.374	513.8
452.786	525
453.197	524.2
453.609	527.4
453.999	512.6
454.411	514.6
454.823	530
455.235	522.4
455.647	523.4
456.037	521.2
456.449	506
456.862	521.4
457.274	525.6
457.665	507.2
458.077	525.8
458.489	548.6
458.902	520.8
459.293	521.6
459.705	523.6
460.118	516.2
460.53	524.6
460.921	524.4
461.334	519.8
461.747	521.8
462.16	534.6
462.551	539.2
462.964	522.8
463.377	506.2
463.79	519
464.182	530.6
464.595	511
465.008	525.8
465.421	519.2
465.813	522.8
466.226	530
466.64	524.2
467.053	553.8
467.445	534
467.859	529
468.272	525.2
468.686	532.6
469.078	521.2
469.492	516
469.906	527.6
470.298	524.2
470.712	520.2
471.126	540
471.54	512.2
471.933	515.2
472.347	520.8
472.761	519
473.175	509.6
473.568	515
473.982	512
474.397	524.2
474.79	520
475.204	525
475.619	512.6
476.033	523.6
476.426	521.8
476.841	510
477.256	535
477.649	519.4
478.064	510.6
478.479	519
478.872	514.8
479.287	500.4
479.702	523.4
480.118	514.6
480.511	518.6
480.927	511.6
481.342	513.4
481.736	513.8
482.151	516.2
482.566	527
482.96	526.8
483.376	528.6
483.792	513.8
484.186	515.8
484.602	509
485.017	519.4
485.412	512.6
485.827	516.4
486.243	512.6
486.638	532.2
487.054	525.4
487.47	526.4
487.865	511.6
488.281	514
488.697	513.4
489.092	518.8
489.508	507.4
489.925	526.8
490.32	510.4
490.736	524.6
491.153	516.8
491.548	512.2
491.964	522.4
492.381	508
492.776	520
493.193	515.6
493.61	522
494.006	516.2
494.422	520.4
494.84	516
495.235	525
495.652	516.4
496.069	520.2
496.465	505.4
496.883	522.6
497.3	535.8
497.696	512.4
498.113	523.8
498.509	501.2
498.927	510
499.344	509.4
499.741	512
500.158	518
500.576	525.6
500.973	514.2
501.39	506.2
501.787	506
502.205	521
502.623	513
503.02	508
503.438	514.4
503.856	514
504.253	518
504.671	504
505.068	509.8
505.486	510.2
505.905	532.4
506.302	521.4
506.72	517.6
507.118	507
507.536	512.2
507.955	511.6
508.352	517
508.771	520.4
509.169	520.8
509.587	513
510.006	525.2
510.404	504.4
510.823	510.6
511.221	511.6
511.64	510.4
512.038	523
512.457	506.8
512.877	519.6
513.275	511.2
513.694	509.2
514.092	507.6
514.512	515.8
514.91	520.2
515.33	511.8
515.749	513.6
516.148	516.2
516.568	519.4
516.966	514
517.386	508.4
517.785	507.4
518.205	514
518.603	509.2
519.024	500
519.444	506.6
519.843	525
520.263	520.6
520.662	514.2
521.082	511.2
521.481	518
521.902	517
522.301	521
522.722	512
523.121	511.4
523.542	509.6
523.963	508.2
524.362	515.8
524.783	518.2
525.183	508.8
525.604	517.6
526.003	512.4
526.425	509.8
526.824	517
527.246	521.4
527.646	526.6
528.067	521.8
528.467	515
528.888	512.6
529.289	516.8
529.71	514.6
530.11	513.2
530.532	510.6
530.932	514.2
531.354	506.4
531.755	537
532.176	517.8
532.577	513
532.999	520
533.4	512.6
533.822	523
534.223	508.6
534.645	506.6
535.046	516
535.468	513.2
535.869	529.6
536.292	505.4
536.693	541
537.115	511.8
537.516	510.2
537.939	513.2
538.34	526.4
538.742	522.4
539.165	514
539.566	509.8
539.989	509
540.391	508.6
540.814	517.2
541.216	512.6
541.639	514.6
542.041	524
542.464	512.2
542.866	510.4
543.268	511.2
543.691	515.6
544.093	525.4
544.517	523.4
544.919	507
545.343	529.2
545.745	505
546.147	511.6
546.571	510.6
546.974	505.4
547.398	503.8
547.8	525.6
548.224	515.2
548.627	504.2
549.03	515.2
549.454	507.8
549.857	514.4
550.281	505.4
550.684	511.6
551.087	511.8
551.512	512.6
551.915	520.6
552.34	512.4
552.743	506.4
553.146	508
553.571	518.4
553.975	519.8
554.399	507.4
554.803	548.2
555.207	507.6
555.632	499.2
556.036	513.6
556.461	509.6
556.865	513.8
557.268	505.2
557.694	509.4
558.098	513
558.502	513
558.927	510
559.332	508.8
559.736	512
560.162	517.8
560.566	507.8
560.992	522.6
561.396	506.4
561.801	517.8
562.227	517.6
562.631	508.4
563.036	517.4
563.462	518.4
563.867	512.6
564.272	503
564.698	511
565.103	510
565.508	527.2
565.935	519
566.34	511.2
566.745	518.6
567.172	510.4
567.577	530
567.982	521.8
568.409	516.6
568.815	505.6
569.22	514.2
569.626	518
570.053	502.4
570.459	519
570.865	515.4
571.292	516.6
571.698	512
572.104	500
572.531	508
572.937	523.8
573.343	510
573.75	508.6
574.177	518.8
574.583	520.2
574.99	506.2
575.396	515.8
575.824	512.8
576.231	511.4
576.637	510.4
577.065	529.4
577.472	502
577.879	509
578.286	522.2
578.714	503.6
579.121	510.4
579.528	499.4
579.935	519
580.364	506.4
580.771	493.8
581.178	504.8
581.585	513.6
582.014	510.6
582.421	504.4
582.829	502.2
583.236	518.6
583.644	511
584.073	503
584.481	507.8
584.889	501.4
585.296	511
585.726	504
586.134	494.8
586.542	502
586.95	526.6
587.358	500
587.787	513.2
588.196	504.2
588.604	505.6
589.012	497.4
589.421	506.4
589.851	495.2
590.259	515
590.668	507.4
591.076	539.2
591.485	498
591.894	516
592.324	517.4
592.733	516.8
593.142	499
593.551	501.2
593.96	530
594.369	505.6
594.8	507.8
595.209	509.8
595.618	497.4
596.028	505.8
596.437	497.4
596.847	508.6
597.256	504.4
597.687	507.4
598.097	505
598.507	498
598.917	509
599.327	508.6
599.736	502
600.146	518.6
600.556	515.6
600.988	517.4
601.398	508.8
601.808	516.8
602.219	504.4
602.629	515.6
603.039	508.2
603.45	540
603.86	510.4
604.271	516.8
604.703	511.2
605.114	516.2
605.525	515.4
605.935	514.2
606.346	523.8
606.757	515.8
607.168	517.4
607.579	513.8
607.99	520.2
608.402	511.8
608.813	518
609.224	510.8
609.636	506
610.047	508
610.48	511.8
610.892	525.6
611.303	516.4
611.715	510.8
612.127	512.4
612.539	513.4
612.95	520.2
613.362	507
613.774	508
614.186	509.6
614.599	503.8
615.011	522.2
615.423	515.4
615.835	507.2
616.248	505.4
616.66	511.6
617.073	503.8
617.485	517.4
617.898	534.8
618.311	518.6
618.723	519
619.136	537.2
619.549	521.2
619.962	531.4
620.375	512.6
620.788	525.6
621.201	516.4
621.614	528
622.028	523.2
622.441	518.4
622.854	536.6
623.268	521
623.681	521.6
624.095	520.6
624.509	528.6
624.922	526.4
625.336	517.8
625.728	525.2
626.142	537.6
626.556	531.6
626.97	524.4
627.384	514.6
627.799	519.2
628.213	525
628.627	518
629.041	518.2
629.456	519.4
629.87	519
630.285	529.4
630.699	528
631.093	523.2
631.507	524.6
631.922	523.4
632.337	532.2
632.752	524.8
633.167	519.8
633.582	518.8
633.997	515
634.412	518
634.806	516.4
635.221	507.4
635.637	517.4
636.052	510.4
636.468	511.6
636.883	531
637.299	511.6
637.715	507.2
638.109	520.4
638.525	506.8
638.941	532.4
639.357	514.2
639.773	529.6
640.189	511.8
640.584	517.2
641	512.2
641.416	498.8
641.832	516.6
642.249	510
642.665	511.4
643.06	523.2
643.477	520.2
643.894	502.8
644.31	506.8
644.727	514.2
645.123	511
645.54	505.6
645.957	512
646.374	524
646.77	506.8
647.187	540.2
647.604	511.8
648.021	500.6
648.439	509.4
648.835	509
649.252	510
649.67	507.6
650.088	514
650.484	516.2
650.902	518
651.32	518.2
651.738	506.6
652.134	521.6
652.552	519.2
652.971	525.2
653.389	509.8
653.786	521.4
654.204	520.6
654.622	511.6
655.019	512.2
655.438	513.8
655.857	519
656.275	513.2
656.673	502.4
657.091	520.6
657.51	512.8
657.908	520.4
658.327	515.4
658.746	498
659.144	512.8
659.563	521
659.982	515.4
660.38	499.6
660.8	509.2
661.219	518.6
661.617	517.4
662.037	508.2
662.457	514.2
662.855	492.8
663.275	527.4
663.695	502.4
664.094	509.8
664.514	506.2
664.934	507.4
665.333	516.6
665.753	502
666.152	503.2
666.572	503.4
666.993	517.8
667.392	502.6
667.812	513.4
668.212	507.8
668.632	513.6
669.053	500.4
669.453	510.2
669.874	510.6
670.273	507.4
670.694	506.4
671.116	513.8
671.515	515.6
671.937	506
672.337	505.8
672.758	501.6
673.158	514.2
673.58	499.2
673.98	500.6
674.402	515
674.824	513
675.224	504.4
675.646	497.4
676.047	502.8
676.469	508
676.869	512.2
677.292	508.2
677.693	503.2
678.115	504.8
678.516	509.8
678.939	507.2
679.34	502.8
679.762	511.8
680.164	507.2
680.586	495.2
680.988	505
681.411	523.8
681.812	502.8
682.236	504.4
682.637	498.2
683.061	495.2
683.462	507
683.864	502.8
684.288	500.8
684.69	490.4
685.114	510.6
685.516	516.2
685.94	492.6
686.342	513
686.766	494.6
687.168	500.6
687.571	512.2
687.995	504.6
688.398	501.2
688.822	502.2
689.225	514.2
689.628	526.2
690.052	499.6
690.456	502.2
690.88	502.2
691.284	500.2
691.687	505.4
692.112	501.6
692.515	496.2
692.919	498.2
693.344	503.4
693.747	503
694.173	488.8
694.577	510.4
694.98	495.4
695.406	500.2
695.81	508.4
696.214	499.2
696.64	510.8
697.044	506.2
697.448	506
697.874	505.2
698.279	501.6
698.684	494.2
699.11	495
699.514	497.6
699.919	495.8
700.324	496.8
700.75	502
701.156	505.2
701.561	514.6
701.987	500.4
702.393	516
702.798	519.2
703.203	506.2
703.63	498
704.036	504.4
704.442	502.4
704.847	496.2
705.274	510.4
705.68	507.6
706.086	505.2
706.492	496.2
706.92	497.6
707.326	509.8
707.732	498
708.139	494.8
708.545	494
708.973	493.8
709.38	498.6
709.786	491
710.193	511.4
710.6	503.4
711.028	495.8
711.435	501.4
711.842	497
712.249	494.4
712.656	503.6
713.064	510.2
713.492	498.6
713.9	501.4
714.307	500.6
714.715	499.8
715.123	506.8
715.53	501.4
715.938	516.2
716.367	508
716.775	502
717.184	497.6
717.592	500.6
718	510.6
718.408	525.4
718.816	538.6
719.225	508.6
719.633	499
720.042	494.6
720.472	506
720.881	516
721.29	513.4
721.699	503.4
722.108	504.2
722.517	505.6
722.926	498
723.335	507.2
723.744	506.6
724.154	504.2
724.563	505.8
724.973	504.8
725.382	506.2
725.792	506.2
726.202	495
726.612	512.6
727.022	506.6
727.432	497.2
779.813	504.8
780.223	543
780.634	498.4
781.044	501.6
781.454	504
781.865	503.8
782.276	494.2
782.686	502.4
783.097	504.4
783.508	498.8
783.919	499.4
784.33	512.4
784.741	510.2
785.152	499.2
785.563	490.8
785.974	490.4
786.386	514.8
786.776	496.6
787.188	495
787.599	503.2
788.011	509.8
788.423	508
788.835	495
789.247	498.2
789.659	493.6
790.071	498.4
790.483	531
790.874	499.6
791.286	507.8
791.699	496.4
792.111	497.2
792.524	493.6
792.937	494
793.349	495.4
793.741	496.2
794.154	491.2
794.567	515
794.98	497
795.393	492.8
795.785	515.6
796.198	501.6
796.612	503.8
797.026	492.6
797.439	495.4
797.831	492
798.245	492
798.659	501.6
799.073	492.8
799.487	494.4
799.88	503.6
800.294	497
800.708	497
801.123	500.2
801.516	518
801.93	490.8
802.345	493.6
802.76	506
803.153	503.6
803.568	513.6
803.983	510.4
804.377	500.6
804.792	490.4
805.207	488
805.601	501
806.016	528.6
806.432	501.4
806.826	524.8
807.242	505.6
807.658	499.2
808.052	493
808.468	506.6
808.884	494.4
809.279	501.2
809.695	511.4
810.111	513.6
810.506	497.4
810.922	518
811.339	501.6
811.734	503.8
812.151	496.2
812.546	496.4
812.963	494.2
813.38	499.8
813.776	500
814.193	517.6
814.589	492.4
815.006	500.8
815.402	494.2
815.82	498
816.237	499.8
816.633	498.6
817.051	494
817.448	496.8
817.866	494
818.262	518
818.68	490.4
819.077	500.6
819.495	499.4
819.892	531
820.311	507.6
820.708	493.2
821.127	493.2
821.524	509
821.943	497.4
822.34	513
822.759	500
823.157	498
823.576	511.2
823.974	509.8
824.393	589.8
824.791	493.6
825.189	491.2
825.609	488.8
826.007	491.4
826.427	490.4
826.826	491.2
827.246	497
827.644	491.4
828.043	504.2
828.463	492.8
828.862	505
829.261	496.4
829.682	493.2
830.081	500.2
830.502	490.8
830.901	501
831.301	488.4
831.722	489.4
832.121	502.6
832.521	490.8
832.943	497
833.342	499.8
833.742	497.4
834.164	492.6
834.564	492.2
834.965	489.2
835.386	491
835.787	490.8
836.188	494
836.588	495
837.01	494
837.411	492.8
837.812	511.8
838.213	496.2
838.636	491.2
839.037	553.2
839.438	500
839.84	494.2
840.263	497.4
840.664	506.4
841.066	487.6
841.468	498.8
841.891	496.8
842.293	501.2
842.695	502.2
843.098	505.2
843.5	496
843.902	494
844.326	503.8
844.729	497.8
845.131	505.6
845.534	504.4
845.937	509.8
846.34	515.4
846.764	500
847.167	500
847.571	487.6
847.974	496.6
848.377	495
848.781	532.2
849.184	506.8
849.588	494.4
849.992	490.6
850.396	498
850.821	514.2
851.225	496
851.63	500.4
852.034	507.6
852.438	500.2
852.843	557.6
853.247	495
853.652	496
854.057	509.6
854.462	498.6
854.867	496.6
855.272	522.4
855.677	502
856.082	482
856.487	489.6
856.893	494.8
857.298	495
857.704	484.2
