#lambda/nm	C1
208.295	464.8
208.67	430.8
209.045	398
209.419	400.8
209.794	542
210.169	522.4
210.544	632.2
210.919	541.2
211.295	527.6
211.67	540.6
212.045	537.6
212.421	529.2
212.796	560
213.172	530.4
213.547	527.8
213.923	531.4
214.299	529
214.675	541.8
215.051	540.4
215.427	542.6
215.803	553.4
216.179	535
216.555	535.2
216.932	540.8
217.308	543.2
217.684	530.8
218.061	543.4
218.438	536.4
218.814	527.2
219.191	546.4
219.568	537.4
219.945	537.6
220.322	543.8
220.699	535.4
221.076	550
221.453	538.6
221.83	526.8
222.208	531.4
222.585	530.6
222.962	533.4
223.34	537.6
223.717	534.8
224.095	533.4
224.473	539.2
224.851	529.4
225.229	525.6
225.607	538.2
225.985	526.6
226.363	537.2
226.741	539.2
227.119	535.2
227.497	545.8
227.876	526.6
228.254	542
228.633	535.4
229.011	531
229.39	536.8
229.769	540.6
230.148	536
230.527	548.8
230.905	533.8
231.284	539
231.664	537.8
232.043	543
232.422	541.8
232.801	533.6
233.181	537.2
233.56	537
233.94	533.4
234.319	525
234.699	537.2
235.079	566.8
235.458	570.4
235.838	550.8
236.218	529.8
236.598	527.4
236.978	531.8
237.358	531.2
237.738	534.8
238.119	534.4
238.499	530
238.88	533.2
239.26	549
239.641	524.2
240.021	540.6
240.402	534.2
240.783	534.6
241.163	527.6
241.544	542.4
241.925	538
242.306	555
242.687	531
243.069	538.6
243.45	538.2
243.831	533.4
244.212	535.4
244.594	565.2
244.975	544.6
245.357	541.4
245.739	534.6
246.12	532.6
246.502	546
246.884	533.2
247.266	531.4
247.648	533.4
248.03	551.8
248.412	531.4
248.794	540
249.176	530.4
249.559	539.8
249.941	527
250.323	521.6
250.706	536
251.089	531.8
251.471	534.4
251.854	535.6
252.237	529.6
252.62	544.6
253.002	528.4
253.385	536.8
253.769	545.6
254.152	535.4
254.535	532
254.918	531
255.301	534.2
255.685	529.8
256.068	526.4
256.452	552.4
256.835	547.6
257.219	536
257.603	549.4
257.986	529.8
258.37	539.6
258.754	531.8
259.138	541.4
259.522	538.2
259.906	535.4
260.29	539.2
260.675	535.2
261.059	535.4
261.443	530.6
261.828	541
262.212	537.4
262.597	530.8
262.981	529.4
263.366	542.4
263.751	535.2
264.136	530.8
264.521	533
264.906	526.4
265.291	544
265.676	527.4
266.061	531.2
266.446	547.6
266.831	532
267.217	542.6
267.602	534.8
267.987	537.6
268.373	536
268.759	543.2
269.144	538.8
269.53	528.4
269.916	524.6
270.302	526.4
270.688	545
271.074	539
271.46	539
271.846	566.2
272.232	530.8
272.618	535.2
273.004	540.2
273.391	550.6
273.777	545.8
274.164	544.6
274.55	542.4
274.937	537.8
275.324	540.8
275.71	536
276.097	538.4
276.484	535
276.871	542
277.258	544.8
277.645	535.6
278.032	537.8
278.419	536.8
278.807	537
279.194	537.2
279.581	529.2
279.969	546.6
280.356	541.2
280.744	534.8
281.131	565.4
281.519	547
281.907	534.4
282.295	531.8
282.682	548.4
283.07	543
283.458	548
283.846	547.6
284.235	552.6
284.623	539
285.011	535.2
285.399	542.8
285.788	538.6
286.176	530.6
286.565	545.2
286.953	530.2
287.342	530.6
287.731	533.8
288.119	523.6
288.508	533
288.897	534.4
289.286	516.4
289.675	542.4
290.064	542
290.453	533.2
290.821	534.4
291.21	546
291.599	532.4
291.989	535.2
292.378	539.2
292.768	549.4
293.157	544.6
293.547	543.4
293.936	531
294.326	533
294.716	537
295.106	530
295.496	536.4
295.886	548.6
296.276	529.4
296.666	532.8
297.056	530.2
297.446	532.8
297.836	548.8
298.227	543.8
298.617	535.2
299.008	543.6
299.398	530
299.789	535.6
300.179	536.4
300.57	539.6
300.961	535.8
301.352	533.2
301.742	540.6
302.133	530.2
302.524	534.2
302.915	538.2
303.307	531
303.698	537.6
304.089	537.2
304.48	526.6
304.872	534.4
305.263	533.2
305.655	532.4
306.046	544.4
306.438	539
306.829	527.4
307.221	550.2
307.613	544.8
308.005	543
308.397	547.8
308.789	551
309.181	553.8
309.573	551.6
309.965	552.4
310.357	535.4
310.749	543.2
311.142	525.4
311.534	535.8
311.926	544.8
312.319	536
312.711	530.8
313.104	552
313.497	534.2
313.889	567.4
314.282	549.4
314.675	559.6
315.068	543.4
315.461	539.8
315.854	562.8
316.247	548
316.64	537.6
317.033	539.6
317.405	543.2
317.798	541.2
318.192	540.6
318.585	529.6
318.979	534.8
319.372	533
319.766	536.8
320.16	544
320.553	543
320.947	547.4
321.341	525.8
321.735	529.6
322.129	521.6
322.523	561.6
322.917	526.4
323.311	547.6
323.705	533.4
324.099	536.8
324.494	554.8
324.888	541.6
325.282	532.2
325.677	537
326.071	539.2
326.466	542.2
326.861	534.8
327.255	553
327.65	544.4
328.045	550
328.44	534.6
328.835	540
329.23	533.2
329.625	553.8
330.02	537
330.415	545.8
330.81	535.4
331.206	531.8
331.601	533.6
331.996	540.8
332.37	552
332.766	521.6
333.161	551.6
333.557	525.4
333.953	542.2
334.348	807
334.744	534.8
335.14	532
335.536	530.4
335.932	548.6
336.328	537.2
336.724	553.2
337.12	535
337.516	537.8
337.913	535.8
338.309	552.2
338.705	537.6
339.102	543.2
339.498	535.2
339.895	546.8
340.291	520.2
340.688	543.8
341.085	531
341.481	537.4
341.878	532.6
342.275	547
342.672	531
343.069	530.4
343.466	523.8
343.842	542.8
344.239	528.8
344.636	535.8
345.033	538
345.431	529
345.828	529.2
346.225	536.4
346.623	563.2
347.02	531.8
347.418	536.8
347.816	544.4
348.213	526.2
348.611	531.2
349.009	528
349.407	545.6
349.805	530
350.203	523.6
350.601	538.2
350.999	536.2
351.397	572.6
351.795	533.6
352.193	537.2
352.57	545
352.969	548.8
353.367	530.4
353.766	528.2
354.164	524.8
354.563	539.2
354.961	536.6
355.36	532.2
355.759	532.2
356.158	527.2
356.557	525.8
356.956	526.2
357.355	519
357.754	540.6
358.153	534.8
358.552	554.2
358.951	525.2
359.35	545
359.75	534.8
360.149	522.6
360.527	516.2
360.926	523.6
361.326	530
361.726	535.6
362.125	529
362.525	533.4
362.925	526
363.325	532.6
363.724	533.4
364.124	531.4
364.524	527.4
364.924	524.2
365.324	538
365.725	514.8
366.125	527.6
366.525	522
366.904	516.4
367.304	514
367.705	538
368.105	532.4
368.506	524.8
368.906	522.8
369.307	527.2
369.708	533.6
370.108	513.2
370.509	549.8
370.91	526.2
371.311	534.4
371.712	530.6
372.113	531.2
372.514	522.6
372.894	532.4
373.295	524
373.696	531.8
374.097	540.8
374.499	554.8
374.9	533.4
375.301	525.6
375.703	526.8
376.105	526.8
376.506	535.8
376.908	533.2
377.309	528
377.711	525.6
378.113	530.4
378.493	526.8
378.895	523.4
379.297	532.8
379.699	516.6
380.102	528.6
380.504	528.4
380.906	520.8
381.308	553.6
381.71	527.6
382.113	531.6
382.515	525.4
382.918	539.8
383.299	526.8
383.701	538.2
384.104	537.2
384.507	510.8
384.909	524.2
385.312	521.4
385.715	516.8
386.118	527.4
386.521	522.2
386.924	525.4
387.327	515.6
387.709	519.4
388.112	513.8
388.515	524
388.918	515
389.322	527.8
389.725	517.2
390.129	542.4
390.532	524.6
390.936	522.6
391.339	517.4
391.743	526.2
392.125	525.2
392.529	531.2
392.933	544.8
393.337	530.2
393.74	532.8
394.144	530.2
394.548	523.8
394.953	524.8
395.357	534.8
395.761	527.4
396.144	533
396.548	519.6
396.952	526
397.357	536
397.761	525
398.166	530.8
398.57	531
398.975	521
399.379	528.4
399.763	565.2
400.168	523.4
400.572	522
400.977	522.2
401.382	536.4
401.787	534.4
402.192	533.8
402.597	547.8
403.002	521.6
403.386	534.8
403.791	537.8
404.197	521
404.602	521.4
405.007	532
405.413	521.8
405.818	523.8
406.224	518.8
406.608	524.6
407.014	518.2
407.42	538.8
407.825	531.2
408.231	540.6
408.637	526.2
409.043	540.6
409.449	536.8
409.834	513.4
410.24	530.2
410.646	536.6
411.052	530.8
411.458	528.8
411.865	544.2
412.271	533.4
412.677	531.4
413.062	538.6
413.469	510.2
413.875	551
414.282	541.8
414.689	526
415.095	535.4
415.502	521.8
415.888	531.2
416.294	516
416.701	552.6
417.108	522.2
417.515	534.4
417.923	523.8
418.33	527.6
418.715	528.4
419.123	525
419.53	524
419.937	524.6
420.345	535.4
420.752	520.8
421.16	536
421.546	525.2
421.953	538.6
422.361	521.4
422.769	524.6
423.177	523.2
423.585	547.4
423.992	549.2
424.379	533.8
424.787	539.2
425.195	543.6
425.603	529.4
426.011	542
426.419	548.4
426.806	529.6
427.214	536.2
427.623	544.6
428.031	543.2
428.44	535
428.848	541.6
429.235	545.2
429.644	534.2
430.053	535.8
430.461	542
430.87	551.6
431.279	533
431.666	527.4
432.075	533.4
432.484	537
432.893	533.4
433.302	534.8
433.711	564.2
434.099	536
434.508	526.4
434.918	518.6
435.327	532.4
435.737	530.8
436.125	539
436.534	534.6
436.944	529
437.353	532.8
437.763	546.4
438.173	524.6
438.561	535.2
438.971	510.8
439.381	521.4
439.791	534
440.201	519.4
440.589	529.8
440.999	531.6
441.409	540.2
441.819	517
442.23	536.6
442.619	527.6
443.029	531.8
443.439	530.4
443.85	540
444.26	537.6
444.649	536.6
445.06	522.6
445.471	525.2
445.881	524.8
446.292	537.4
446.682	545.4
447.092	511.8
447.503	562.4
447.914	523.8
448.325	526.2
448.715	523.2
449.126	519
449.537	526
449.948	531.8
450.338	523.2
450.75	527.6
451.161	526.8
451.572	525.4
451.984	521.6
452.374	516.2
452.786	518.8
453.197	529
453.609	532.6
453.999	521.6
454.411	511.6
454.823	531.8
455.235	526.8
455.647	527
456.037	527.8
456.449	513.2
456.862	528.4
457.274	530
457.665	510
458.077	531.8
458.489	542.2
458.902	530
459.293	531.4
459.705	522.6
460.118	521.8
460.53	524
460.921	519.6
461.334	515.6
461.747	515
462.16	530.8
462.551	534.8
462.964	525.4
463.377	506.8
463.79	524.4
464.182	532.6
464.595	521.2
465.008	527.4
465.421	528.8
465.813	521.4
466.226	525.4
466.64	516
467.053	552.6
467.445	527.4
467.859	526.2
468.272	522
468.686	532.2
469.078	520.4
469.492	511.8
469.906	521.2
470.298	520
470.712	521.6
471.126	539.8
471.54	515.8
471.933	516.8
472.347	521.2
472.761	519.8
473.175	510.6
473.568	511.8
473.982	512.4
474.397	524.4
474.79	525
475.204	526.4
475.619	524
476.033	526.4
476.426	518.6
476.841	519
477.256	534.4
477.649	515.2
478.064	515.2
478.479	515
478.872	515.4
479.287	510.4
479.702	516.8
480.118	515.4
480.511	518.6
480.927	514.6
481.342	523
481.736	521
482.151	517.6
482.566	523
482.96	519.8
483.376	528
483.792	509.6
484.186	529
484.602	517.8
485.017	516
485.412	524.8
485.827	523.6
486.243	515.6
486.638	533.6
487.054	524.2
487.47	529.2
487.865	514.4
488.281	523.4
488.697	516.4
489.092	521.4
489.508	513.8
489.925	534
490.32	517.4
490.736	526.2
491.153	523.8
491.548	521.8
491.964	522.6
492.381	513.2
492.776	520.8
493.193	524.8
493.61	519.4
494.006	516.2
494.422	527.6
494.84	507.4
495.235	524.2
495.652	519.2
496.069	515.2
496.465	515
496.883	517
497.3	543.8
497.696	515.6
498.113	517.8
498.509	510.8
498.927	513
499.344	512
499.741	512.6
500.158	526.6
500.576	529.6
500.973	522.6
501.39	506.6
501.787	508.4
502.205	528.8
502.623	515.4
503.02	504.4
503.438	515.2
503.856	520
504.253	525.2
504.671	525.8
505.068	514.4
505.486	510
505.905	532.2
506.302	518.4
506.72	526
507.118	510.8
507.536	516.4
507.955	519.6
508.352	524.8
508.771	521.8
509.169	520.4
509.587	509.8
510.006	518
510.404	514.6
510.823	508.8
511.221	511.6
511.64	519.4
512.038	527
512.457	519.6
512.877	516.8
513.275	514.6
513.694	513.4
514.092	516.2
514.512	516.4
514.91	528.2
515.33	511.2
515.749	512.4
516.148	509
516.568	518
516.966	511.8
517.386	518.6
517.785	515.2
518.205	510.2
518.603	509.6
519.024	505.4
519.444	517.4
519.843	521.2
520.263	525.6
520.662	528
521.082	518.8
521.481	518.6
521.902	510.4
522.301	520.2
522.722	523.6
523.121	522.4
523.542	512.8
523.963	515.2
524.362	521.6
524.783	519.6
525.183	513.2
525.604	517.4
526.003	511.8
526.425	511.2
526.824	523.2
527.246	518.4
527.646	524.2
528.067	521.4
528.467	516.2
528.888	519.8
529.289	512
529.71	520
530.11	514.8
530.532	512.8
530.932	513.8
531.354	514.4
531.755	542.8
532.176	524.2
532.577	517.8
532.999	516.6
533.4	520.2
533.822	525.4
534.223	514
534.645	508.2
535.046	515.2
535.468	514.4
535.869	532
536.292	512.8
536.693	543.4
537.115	518.8
537.516	509
537.939	516.6
538.34	527.8
538.742	524
539.165	517
539.566	520.4
539.989	503.4
540.391	512.6
540.814	516.2
541.216	522.4
541.639	515.8
542.041	513.4
542.464	503.6
542.866	508.4
543.268	502.4
543.691	514.6
544.093	517.6
544.517	528
544.919	505.4
545.343	535.6
545.745	512
546.147	517
546.571	509.2
546.974	506
547.398	514.4
547.8	525.2
548.224	517
548.627	505.8
549.03	529.4
549.454	508.8
549.857	509.8
550.281	504.6
550.684	501.4
551.087	529
551.512	521.8
551.915	526.8
552.34	515.8
552.743	509.2
553.146	518.4
553.571	516
553.975	530.6
554.399	507
554.803	559.6
555.207	508.4
555.632	509.8
556.036	524.8
556.461	509
556.865	516.2
557.268	503.6
557.694	503
558.098	512.6
558.502	510.2
558.927	503.6
559.332	507.2
559.736	516.2
560.162	516.4
560.566	513
560.992	521.6
561.396	510.8
561.801	514
562.227	516.2
562.631	521.2
563.036	512.6
563.462	526
563.867	516.4
564.272	507.6
564.698	521.6
565.103	503.4
565.508	531
565.935	513.6
566.34	513.6
566.745	525.4
567.172	513.4
567.577	528.8
567.982	525.8
568.409	518.6
568.815	508
569.22	508.6
569.626	518.8
570.053	499.4
570.459	515.2
570.865	519.6
571.292	512.6
571.698	516
572.104	506.8
572.531	514.4
572.937	515.4
573.343	518.4
573.75	514.2
574.177	510.4
574.583	521.6
574.99	515
575.396	522.4
575.824	504.4
576.231	517
576.637	508.4
577.065	537.8
577.472	509.2
577.879	515
578.286	525
578.714	507
579.121	509.4
579.528	514
579.935	516.2
580.364	521
580.771	505.4
581.178	505
581.585	511.4
582.014	509
582.421	509.4
582.829	502.4
583.236	519.4
583.644	504.6
584.073	510.2
584.481	515.6
584.889	507.2
585.296	515.6
585.726	503.8
586.134	503.6
586.542	509.6
586.95	526.6
587.358	499.4
587.787	517
588.196	504.8
588.604	508.6
589.012	512.2
589.421	504.6
589.851	505.2
590.259	519.8
590.668	515.8
591.076	542
591.485	511
591.894	513.6
592.324	525
592.733	519
593.142	506.8
593.551	508
593.96	516.4
594.369	496.8
594.8	507.4
595.209	512.8
595.618	496.2
596.028	506.2
596.437	506.4
596.847	505.6
597.256	512.2
597.687	513.6
598.097	514.8
598.507	499
598.917	508.2
599.327	515.2
599.736	514.6
600.146	517.2
600.556	513
600.988	519.8
601.398	506.2
601.808	518.4
602.219	505.2
602.629	514.8
603.039	514.2
603.45	533.6
603.86	511.2
604.271	525.2
604.703	512.2
605.114	516.6
605.525	507.4
605.935	512.2
606.346	527.8
606.757	526.4
607.168	514.4
607.579	520.6
607.99	515
608.402	518.2
608.813	519.2
609.224	513.8
609.636	512.8
610.047	512.4
610.48	518
610.892	521.2
611.303	522.8
611.715	507.2
612.127	506.8
612.539	516.4
612.95	513.2
613.362	502.2
613.774	505.2
614.186	513.8
614.599	515.6
615.011	518.4
615.423	511
615.835	508.4
616.248	508.4
616.66	523.4
617.073	511.4
617.485	522.2
617.898	517.8
618.311	518.8
618.723	517.8
619.136	550
619.549	530
619.962	542.6
620.375	524.6
620.788	531
621.201	523.2
621.614	522.6
622.028	524
622.441	534
622.854	538.4
623.268	525
623.681	524.2
624.095	526.6
624.509	533
624.922	528.8
625.336	520
625.728	529
626.142	532
626.556	533.4
626.97	525.8
627.384	529.8
627.799	528
628.213	535.8
628.627	522
629.041	522.4
629.456	520.8
629.87	525.2
630.285	533
630.699	536.4
631.093	522.6
631.507	523.6
631.922	530
632.337	540
632.752	522.8
633.167	521.2
633.582	524.4
633.997	524.2
634.412	522.2
634.806	533.4
635.221	526
635.637	530
636.052	516.8
636.468	525.8
636.883	541.6
637.299	523.8
637.715	511.8
638.109	521.2
638.525	514.8
638.941	527.4
639.357	528
639.773	527.2
640.189	515.8
640.584	519
641	526
641.416	509.4
641.832	521.2
642.249	521.2
642.665	519.2
643.06	524
643.477	529.4
643.894	512.2
644.31	519.4
644.727	524.6
645.123	525.6
645.54	515.4
645.957	528
646.374	529
646.77	519.8
647.187	537.6
647.604	510.8
648.021	505
648.439	517.6
648.835	520.4
649.252	525.4
649.67	513.6
650.088	522.4
650.484	519.2
650.902	528
651.32	521
651.738	516.2
652.134	512.2
652.552	527
652.971	522.2
653.389	511.6
653.786	524
654.204	522.2
654.622	513.2
655.019	516.8
655.438	511
655.857	507.8
656.275	513.8
656.673	510.2
657.091	519.4
657.51	503.2
657.908	517
658.327	521.6
658.746	501.6
659.144	508.6
659.563	513
659.982	514.6
660.38	513.2
660.8	518.4
661.219	518.6
661.617	519
662.037	510
662.457	522.6
662.855	505.2
663.275	534.2
663.695	513.4
664.094	514
664.514	524.8
664.934	508.8
665.333	512.2
665.753	499.6
666.152	502.4
666.572	499
666.993	519.6
667.392	515.4
667.812	511
668.212	502.8
668.632	520.8
669.053	510.4
669.453	520
669.874	505.8
670.273	513.6
670.694	507.2
671.116	524.4
671.515	523.2
671.937	517
672.337	505
672.758	511
673.158	514.8
673.58	509.2
673.98	501.2
674.402	524.2
674.824	508.6
675.224	511.6
675.646	496.8
676.047	502.8
676.469	501.6
676.869	512
677.292	508
677.693	505.6
678.115	498.8
678.516	519.8
678.939	508
679.34	515.4
679.762	518
680.164	507.2
680.586	504.4
680.988	511.6
681.411	525
681.812	504.8
682.236	501.8
682.637	498.6
683.061	496.6
683.462	510.6
683.864	505
684.288	512.8
684.69	501.6
685.114	515.8
685.516	506.8
685.94	505.4
686.342	510.6
686.766	500
687.168	512
687.571	519.2
687.995	515.4
688.398	504.8
688.822	503.4
689.225	516.6
689.628	526.6
690.052	496.2
690.456	521.4
690.88	511.2
691.284	502.8
691.687	514
692.112	489.4
692.515	492.2
692.919	506.6
693.344	504
693.747	499.2
694.173	506.2
694.577	513.6
694.98	505
695.406	495.4
695.81	510.2
696.214	514.6
696.64	510.6
697.044	509
697.448	504.8
697.874	502.4
698.279	505.6
698.684	498
699.11	497
699.514	501.6
699.919	513.8
700.324	493
700.75	502.2
701.156	520
701.561	512.4
701.987	517.2
702.393	520
702.798	508.4
703.203	504
703.63	497.8
704.036	501.4
704.442	509
704.847	496.4
705.274	497.4
705.68	500.8
706.086	511.8
706.492	503.8
706.92	498.8
707.326	507.6
707.732	493.6
708.139	493.6
708.545	492.6
708.973	492.4
709.38	503.2
709.786	493.6
710.193	516.4
710.6	509.6
711.028	492.6
711.435	512.4
711.842	501
712.249	504.8
712.656	502.4
713.064	511.6
713.492	498
713.9	506.2
714.307	510.4
714.715	503.8
715.123	513.6
715.53	501.8
715.938	512
716.367	497.8
716.775	499.4
717.184	502
717.592	505.6
718	511.4
718.408	534.2
718.816	541.4
719.225	511.2
719.633	506.4
720.042	496
720.472	502
720.881	525.2
721.29	509.4
721.699	494
722.108	509.2
722.517	504.4
722.926	498.2
723.335	515.2
723.744	502
724.154	504
724.563	508.4
724.973	511.2
725.382	503.8
725.792	502
726.202	493.4
726.612	513.4
727.022	503.4
727.432	507.4
779.813	499.6
780.223	546
780.634	501
781.044	498.8
781.454	504.8
781.865	515.8
782.276	501
782.686	510.6
783.097	509
783.508	497
783.919	507.6
784.33	512.6
784.741	508
785.152	491.6
785.563	490.4
785.974	496.6
786.386	513
786.776	501.8
787.188	495.6
787.599	487.6
788.011	508.6
788.423	507.2
788.835	506
789.247	502.6
789.659	497
790.071	504.2
790.483	536.6
790.874	497.2
791.286	518.8
791.699	493
792.111	506.6
792.524	507.8
792.937	501.2
793.349	497
793.741	496.2
794.154	503.2
794.567	517.4
794.98	497
795.393	495
795.785	515.2
796.198	499.2
796.612	507.8
797.026	502.4
797.439	497
797.831	505.6
798.245	494.4
798.659	492.8
799.073	503.6
799.487	493.8
799.88	502.6
800.294	506.2
800.708	503.6
801.123	503.4
801.516	511
801.93	491.4
802.345	490.4
802.76	507
803.153	519.2
803.568	517.4
803.983	502.2
804.377	501
804.792	490.6
805.207	485
805.601	496.6
806.016	526.4
806.432	493.2
806.826	522.2
807.242	508.8
807.658	500.6
808.052	499.6
808.468	502.2
808.884	495.8
809.279	502.6
809.695	511.4
810.111	521.4
810.506	502.6
810.922	513.2
811.339	500.4
811.734	507.6
812.151	493.2
812.546	496.4
812.963	499.6
813.38	500.2
813.776	503.4
814.193	521.8
814.589	499.8
815.006	495.6
815.402	496.8
815.82	500.4
816.237	505.6
816.633	512.4
817.051	498.2
817.448	499.8
817.866	497.6
818.262	515.4
818.68	504.2
819.077	503.4
819.495	510.2
819.892	542
820.311	500.4
820.708	496.2
821.127	504.6
821.524	512.6
821.943	502.8
822.34	512.2
822.759	503
823.157	498.4
823.576	513
823.974	509.2
824.393	551.8
824.791	494.6
825.189	491
825.609	502
826.007	500.8
826.427	492.2
826.826	498.4
827.246	503
827.644	484.2
828.043	509.8
828.463	500
828.862	508.6
829.261	504.6
829.682	489.6
830.081	503.4
830.502	495
830.901	503.4
831.301	496.2
831.722	492.4
832.121	496.8
832.521	494.8
832.943	501.2
833.342	495.4
833.742	497
834.164	492
834.564	490.2
834.965	499.4
835.386	497.8
835.787	496.4
836.188	497.2
836.588	494.2
837.01	497.6
837.411	490.6
837.812	505.2
838.213	498.6
838.636	488
839.037	560.6
839.438	499.2
839.84	500.6
840.263	496
840.664	500
841.066	497.2
841.468	500.2
841.891	492.4
842.293	504.6
842.695	502
843.098	509.6
843.5	498.6
843.902	510.6
844.326	509.8
844.729	503.4
845.131	504.2
845.534	505
845.937	510.8
846.34	515.4
846.764	495.8
847.167	495
847.571	494.8
847.974	501.2
848.377	491.8
848.781	537
849.184	502.2
849.588	498.8
849.992	495.8
850.396	496.2
850.821	516.4
851.225	510
851.63	498.8
852.034	511.4
852.438	505.6
852.843	571.2
853.247	493.6
853.652	494.6
854.057	507.2
854.462	499.8
854.867	506.2
855.272	523
855.677	505.8
856.082	492.8
856.487	486
856.893	498.6
