#lambda/nm	C1
208.295	466.6
208.67	429.2
209.045	395.8
209.419	404.2
209.794	538.6
210.169	519.6
210.544	626.2
210.919	535.8
211.295	529.4
211.67	538.4
212.045	532.4
212.421	535.6
212.796	562
213.172	525.4
213.547	529.4
213.923	538.4
214.299	532.4
214.675	551.6
215.051	540.8
215.427	539.6
215.803	545
216.179	544.6
216.555	539.6
216.932	548.2
217.308	540.4
217.684	537.8
218.061	539.8
218.438	537.8
218.814	533
219.191	542.6
219.568	525.2
219.945	532
220.322	543
220.699	539.4
221.076	545.4
221.453	537.2
221.83	528.2
222.208	531.8
222.585	537.6
222.962	536.4
223.34	542.6
223.717	537.2
224.095	537
224.473	543
224.851	529.2
225.229	533.2
225.607	548.8
225.985	528.2
226.363	534.8
226.741	539.6
227.119	534.4
227.497	539.8
227.876	525.4
228.254	539.8
228.633	541.8
229.011	540
229.39	542.8
229.769	541.6
230.148	542.2
230.527	548
230.905	538
231.284	538.2
231.664	542.8
232.043	552.6
232.422	545.4
232.801	534.6
233.181	542.2
233.56	534.2
233.94	536.6
234.319	525.8
234.699	539.6
235.079	572.2
235.458	569.8
235.838	552
236.218	524.4
236.598	532.6
236.978	530.8
237.358	536.6
237.738	536
238.119	542
238.499	531.2
238.88	537.2
239.26	551.8
239.641	524.6
240.021	536.4
240.402	537.8
240.783	536.8
241.163	534.4
241.544	539.8
241.925	535.6
242.306	550.4
242.687	536.4
243.069	541
243.45	541.2
243.831	540
244.212	534.6
244.594	569.8
244.975	543.2
245.357	543.2
245.739	529.2
246.12	534.4
246.502	545.2
246.884	532.4
247.266	534.8
247.648	534.6
248.03	554.2
248.412	535.8
248.794	538
249.176	529.2
249.559	547
249.941	525.8
250.323	523
250.706	533
251.089	538.2
251.471	533.4
251.854	535.4
252.237	535.8
252.62	546.2
253.002	534.8
253.385	543
253.769	548.8
254.152	532
254.535	532.6
254.918	531.8
255.301	535.6
255.685	534.4
256.068	536.4
256.452	558.2
256.835	543.4
257.219	541.6
257.603	549.4
257.986	535
258.37	542.6
258.754	524.8
259.138	532
259.522	549.8
259.906	531.8
260.29	541
260.675	529
261.059	540
261.443	528
261.828	541
262.212	542.8
262.597	527.6
262.981	528.2
263.366	547.8
263.751	533.6
264.136	523
264.521	533.4
264.906	527
265.291	546.2
265.676	535.2
266.061	540
266.446	545.2
266.831	533.2
267.217	556
267.602	538.8
267.987	539.8
268.373	532.4
268.759	548.2
269.144	541.4
269.53	538.4
269.916	538.4
270.302	534.2
270.688	541
271.074	534
271.46	545.2
271.846	567.4
272.232	537.4
272.618	528.6
273.004	535.6
273.391	539.8
273.777	550.4
274.164	544
274.55	544.2
274.937	540
275.324	537.2
275.71	539.2
276.097	542.8
276.484	530
276.871	540.2
277.258	536.2
277.645	535.4
278.032	531.6
278.419	534.2
278.807	536
279.194	531.2
279.581	523.8
279.969	537.4
280.356	536
280.744	535.2
281.131	552
281.519	542.4
281.907	535.2
282.295	529.2
282.682	542.4
283.07	532
283.458	546.4
283.846	550.6
284.235	546.6
284.623	538
285.011	532
285.399	546
285.788	534.6
286.176	522.4
286.565	543.4
286.953	527.4
287.342	531.8
287.731	529.6
288.119	528
288.508	529
288.897	532.6
289.286	526
289.675	532.2
290.064	552.4
290.453	525.4
290.821	537.2
291.21	545.6
291.599	536.8
291.989	537.8
292.378	544.4
292.768	560.2
293.157	531.8
293.547	540
293.936	530.6
294.326	532.4
294.716	535.4
295.106	528.2
295.496	541
295.886	542.6
296.276	532.6
296.666	532.2
297.056	528
297.446	524.6
297.836	544
298.227	530.6
298.617	534.6
299.008	542.4
299.398	533.8
299.789	527.8
300.179	532.2
300.57	546.2
300.961	533.2
301.352	534.8
301.742	541.2
302.133	534.8
302.524	536.2
302.915	532.6
303.307	520.6
303.698	547.6
304.089	538.4
304.48	534.8
304.872	544.2
305.263	535.2
305.655	530.8
306.046	540.4
306.438	536
306.829	534
307.221	551.2
307.613	548
308.005	546.2
308.397	547.2
308.789	548.2
309.181	559.8
309.573	552.2
309.965	548.6
310.357	536.6
310.749	548.8
311.142	528.2
311.534	534.2
311.926	543.8
312.319	538
312.711	526.4
313.104	547.4
313.497	538
313.889	568.2
314.282	542.6
314.675	565.8
315.068	542.6
315.461	546
315.854	564.6
316.247	545
316.64	536.2
317.033	539.2
317.405	547.4
317.798	535.4
318.192	543.6
318.585	532.6
318.979	543.8
319.372	534.6
319.766	541.2
320.16	544
320.553	555.2
320.947	557
321.341	534
321.735	542.2
322.129	532
322.523	554.2
322.917	530.2
323.311	540.4
323.705	536.2
324.099	540.4
324.494	551.2
324.888	547.8
325.282	530.4
325.677	550.6
326.071	543.2
326.466	547.6
326.861	546.8
327.255	550
327.65	549
328.045	549.6
328.44	536.2
328.835	540.4
329.23	534
329.625	551.6
330.02	526.6
330.415	552
330.81	538.8
331.206	544.2
331.601	530.8
331.996	540
332.37	547
332.766	526
333.161	560
333.557	543.2
333.953	537.2
334.348	828.4
334.744	536
335.14	535.4
335.536	526.6
335.932	554
336.328	530.4
336.724	538.6
337.12	531.4
337.516	536.2
337.913	537.2
338.309	543.4
338.705	545
339.102	543.2
339.498	530.4
339.895	551.2
340.291	542.6
340.688	547
341.085	530.2
341.481	530.4
341.878	531.6
342.275	549.8
342.672	527.6
343.069	533
343.466	528.6
343.842	544.2
344.239	526.6
344.636	534
345.033	526.2
345.431	523.4
345.828	537.6
346.225	526.2
346.623	563.8
347.02	532.2
347.418	537.8
347.816	541.6
348.213	528
348.611	543.2
349.009	526
349.407	547.2
349.805	527.8
350.203	519.4
350.601	544.4
350.999	539.8
351.397	563
351.795	530.2
352.193	535.2
352.57	542.4
352.969	540.4
353.367	529.2
353.766	529.8
354.164	527.8
354.563	541.6
354.961	537.2
355.36	529.4
355.759	536
356.158	523.2
356.557	526.8
356.956	524.6
357.355	527.4
357.754	531.6
358.153	538.4
358.552	543
358.951	528.8
359.35	540.8
359.75	531.2
360.149	528.6
360.527	513
360.926	514.6
361.326	529.2
361.726	527.8
362.125	520.6
362.525	536.2
362.925	523.2
363.325	525.8
363.724	527.6
364.124	525.8
364.524	528.6
364.924	523.6
365.324	535.4
365.725	522.4
366.125	537.4
366.525	530.6
366.904	526.4
367.304	520
367.705	538
368.105	537.8
368.506	526.6
368.906	530.6
369.307	525
369.708	537.4
370.108	517.2
370.509	541.6
370.91	527.2
371.311	537.2
371.712	535
372.113	525.4
372.514	524.4
372.894	528.4
373.295	526.8
373.696	531.4
374.097	537.6
374.499	546.2
374.9	537.6
375.301	517.2
375.703	526
376.105	526.8
376.506	529
376.908	528.2
377.309	528.6
377.711	535.4
378.113	520.4
378.493	525.6
378.895	519
379.297	538.2
379.699	520.2
380.102	532.6
380.504	522
380.906	518
381.308	544.4
381.71	531.4
382.113	523.8
382.515	516.8
382.918	534.8
383.299	526.6
383.701	527.6
384.104	523.8
384.507	510.4
384.909	523
385.312	511.4
385.715	520.6
386.118	525.2
386.521	514
386.924	531.6
387.327	519
387.709	507.4
388.112	515.2
388.515	521.4
388.918	519.8
389.322	532.6
389.725	526.2
390.129	542.6
390.532	522.4
390.936	522.8
391.339	526.8
391.743	524.6
392.125	517.4
392.529	537.8
392.933	532.8
393.337	520.8
393.74	527.4
394.144	520.4
394.548	524
394.953	533.2
395.357	529
395.761	522
396.144	518.6
396.548	523
396.952	527.4
397.357	529.2
397.761	524.2
398.166	520
398.57	526.8
398.975	513.8
399.379	532
399.763	563.8
400.168	528.4
400.572	522.2
400.977	524.6
401.382	538.8
401.787	530
402.192	541.8
402.597	540.2
403.002	514.8
403.386	524.8
403.791	544.2
404.197	530.8
404.602	530.8
405.007	532.2
405.413	528.2
405.818	523.4
406.224	529
406.608	530.4
407.014	525
407.42	532.4
407.825	523.8
408.231	532.6
408.637	530
409.043	536.2
409.449	525.2
409.834	520.2
410.24	523.4
410.646	540.2
411.052	539
411.458	532.2
411.865	535
412.271	532.4
412.677	530.8
413.062	533.6
413.469	518.6
413.875	550.4
414.282	542.2
414.689	532.8
415.095	528
415.502	520.6
415.888	535
416.294	519.2
416.701	561.4
417.108	520.2
417.515	540.4
417.923	523.2
418.33	543
418.715	531.2
419.123	526.8
419.53	528.4
419.937	534
420.345	533.6
420.752	526.2
421.16	536.6
421.546	530
421.953	534.6
422.361	515.4
422.769	528
423.177	519.4
423.585	552.2
423.992	548
424.379	536
424.787	531.2
425.195	536.8
425.603	526.8
426.011	534.4
426.419	532.2
426.806	521.8
427.214	536.8
427.623	537.6
428.031	542
428.44	540.6
428.848	539.2
429.235	545.4
429.644	522.8
430.053	529.8
430.461	542.4
430.87	554.4
431.279	534.8
431.666	527.6
432.075	531.2
432.484	534.2
432.893	525
433.302	534.8
433.711	559.6
434.099	534.6
434.508	529.2
434.918	526.6
435.327	529.6
435.737	540.8
436.125	534.6
436.534	528.8
436.944	528.2
437.353	534
437.763	542.2
438.173	519.4
438.561	540.8
438.971	517.6
439.381	525.4
439.791	526.6
440.201	514.6
440.589	536.2
440.999	532.4
441.409	527.2
441.819	515.4
442.23	531.2
442.619	525.4
443.029	527.6
443.439	527.2
443.85	537.4
444.26	535.4
444.649	533.4
445.06	524.8
445.471	524.2
445.881	528.6
446.292	537.2
446.682	543.4
447.092	519.4
447.503	567.6
447.914	521
448.325	523.6
448.715	533.6
449.126	523
449.537	524.8
449.948	531.6
450.338	526.6
450.75	524
451.161	519.8
451.572	525.2
451.984	521.6
452.374	514.4
452.786	524.6
453.197	532
453.609	531.4
453.999	514.4
454.411	517.6
454.823	535.8
455.235	529.4
455.647	518.2
456.037	527.6
456.449	508.8
456.862	524
457.274	526.8
457.665	519.8
458.077	530
458.489	541.4
458.902	519
459.293	525.6
459.705	522.8
460.118	524.6
460.53	525.8
460.921	518.4
461.334	522.4
461.747	518
462.16	528.8
462.551	535
462.964	528.8
463.377	514.2
463.79	521.8
464.182	529
464.595	508
465.008	520.4
465.421	530
465.813	516.8
466.226	532.2
466.64	518.2
467.053	558.6
467.445	528.6
467.859	534.4
468.272	528.8
468.686	538.2
469.078	528.8
469.492	512.8
469.906	520.8
470.298	534.8
470.712	510.6
471.126	542.8
471.54	512.2
471.933	515.8
472.347	519
472.761	511.2
473.175	509.6
473.568	517.4
473.982	511
474.397	516.8
474.79	517
475.204	517.8
475.619	513.8
476.033	524.2
476.426	519.2
476.841	515.8
477.256	540
477.649	519.6
478.064	513.4
478.479	516.4
478.872	505.4
479.287	506.4
479.702	509.4
480.118	510.8
480.511	516.8
480.927	517
481.342	509.8
481.736	517.2
482.151	511.6
482.566	525.2
482.96	515.2
483.376	517.8
483.792	510.4
484.186	519
484.602	517
485.017	518
485.412	518.6
485.827	525.8
486.243	515.8
486.638	536.2
487.054	529.6
487.47	534.4
487.865	514
488.281	520.2
488.697	513.6
489.092	516.2
489.508	511.4
489.925	523.8
490.32	508.8
490.736	530.4
491.153	525
491.548	522.6
491.964	528
492.381	506.8
492.776	521
493.193	521.2
493.61	520.8
494.006	514.2
494.422	522.8
494.84	515
495.235	522.6
495.652	519.8
496.069	523.2
496.465	510.4
496.883	521.4
497.3	541
497.696	510.8
498.113	522.6
498.509	510.6
498.927	505.6
499.344	513
499.741	507.4
500.158	530.8
500.576	528.8
500.973	520.4
501.39	522
501.787	514.8
502.205	513.4
502.623	514.8
503.02	513.4
503.438	515.6
503.856	516.8
504.253	523.6
504.671	518.4
505.068	516.6
505.486	523.8
505.905	533
506.302	522.6
506.72	523
507.118	514
507.536	518.4
507.955	518.2
508.352	522
508.771	519.8
509.169	530.2
509.587	519
510.006	526.8
510.404	514.8
510.823	517.4
511.221	518
511.64	514.4
512.038	529
512.457	520.2
512.877	512.4
513.275	520
513.694	519.4
514.092	515.4
514.512	521.4
514.91	518.6
515.33	517.8
515.749	521.2
516.148	525.4
516.568	517.2
516.966	521.8
517.386	518.2
517.785	514.4
518.205	509.8
518.603	515.8
519.024	509.2
519.444	514
519.843	527
520.263	537.2
520.662	527.8
521.082	511.4
521.481	523
521.902	513
522.301	520.6
522.722	517.2
523.121	510.2
523.542	508.8
523.963	514.8
524.362	508.2
524.783	527.2
525.183	516.8
525.604	525
526.003	514
526.425	508.6
526.824	519
527.246	516.8
527.646	517.4
528.067	517.2
528.467	516.6
528.888	518.8
529.289	518.2
529.71	516
530.11	521.8
530.532	511
530.932	509.2
531.354	506.2
531.755	543.2
532.176	521.8
532.577	514.4
532.999	519.2
533.4	507.6
533.822	521.4
534.223	518
534.645	507.8
535.046	509.4
535.468	511.4
535.869	529
536.292	511
536.693	539
537.115	512.8
537.516	515
537.939	505.6
538.34	530.8
538.742	522
539.165	512.6
539.566	508.8
539.989	510.2
540.391	505.6
540.814	512.6
541.216	511
541.639	517.6
542.041	522.6
542.464	508.4
542.866	504.2
543.268	507.4
543.691	521
544.093	509.8
544.517	528.2
544.919	504.4
545.343	535.4
545.745	502.8
546.147	516.8
546.571	511.8
546.974	501.6
547.398	510.8
547.8	515.4
548.224	510.4
548.627	506.8
549.03	524.8
549.454	507.2
549.857	509.6
550.281	511
550.684	512.4
551.087	523
551.512	514.2
551.915	520.4
552.34	517.4
552.743	510.4
553.146	517.8
553.571	510.8
553.975	530.8
554.399	507
554.803	558.2
555.207	509.2
555.632	504
556.036	508.8
556.461	507.4
556.865	515
557.268	505.2
557.694	517.4
558.098	521.8
558.502	517.6
558.927	508.8
559.332	508.8
559.736	515
560.162	518.6
560.566	509.2
560.992	511.8
561.396	514.4
561.801	514.8
562.227	509.6
562.631	510.8
563.036	515.4
563.462	512.4
563.867	516.4
564.272	508.2
564.698	516.4
565.103	501.8
565.508	528.6
565.935	515.8
566.34	508
566.745	521.4
567.172	508.4
567.577	530.4
567.982	523.4
568.409	508.2
568.815	506.2
569.22	514
569.626	515.4
570.053	502.6
570.459	510.8
570.865	513
571.292	517.8
571.698	514.2
572.104	505.2
572.531	508
572.937	517
573.343	510
573.75	507.8
574.177	506.6
574.583	523.2
574.99	509.4
575.396	520.8
575.824	509.8
576.231	516.6
576.637	502.2
577.065	533.6
577.472	508.2
577.879	497.6
578.286	528.4
578.714	504.4
579.121	505
579.528	508.8
579.935	515.8
580.364	508.4
580.771	493.8
581.178	505.6
581.585	511
582.014	518.6
582.421	502.6
582.829	502.6
583.236	513.8
583.644	501.2
584.073	511.4
584.481	514.8
584.889	511.8
585.296	512.2
585.726	514.8
586.134	507.2
586.542	509.2
586.95	524.4
587.358	511.2
587.787	510.4
588.196	509.6
588.604	511.2
589.012	507.8
589.421	501.6
589.851	516.6
590.259	522
590.668	507.4
591.076	546.2
591.485	507.6
591.894	518
592.324	526.2
592.733	517
593.142	502.2
593.551	517.6
593.96	520
594.369	497.6
594.8	502.6
595.209	511.6
595.618	503
596.028	506
596.437	503.2
596.847	517.8
597.256	513.2
597.687	511.6
598.097	510.8
598.507	504.6
598.917	521.6
599.327	513.2
599.736	513.6
600.146	519.4
600.556	511.6
600.988	526.6
601.398	505.8
601.808	512.8
602.219	504.4
602.629	513.6
603.039	511
603.45	520
603.86	506.8
604.271	530
604.703	516.2
605.114	513.8
605.525	512.4
605.935	517.8
606.346	533.6
606.757	516.2
607.168	512.6
607.579	508
607.99	521.8
608.402	507.6
608.813	526.2
609.224	504.8
609.636	508.2
610.047	497.4
610.48	511.6
610.892	518
611.303	517.4
611.715	521
612.127	505.4
612.539	505.2
612.95	513.4
613.362	500
613.774	502.2
614.186	509.6
614.599	505.8
615.011	524.8
615.423	510
615.835	502.2
616.248	507
616.66	522
617.073	511.6
617.485	508.6
617.898	524.8
618.311	514.4
618.723	509
619.136	543.2
619.549	532.4
619.962	527.6
620.375	508.6
620.788	521.8
621.201	506.4
621.614	527.2
622.028	513
622.441	519
622.854	524.4
623.268	515.4
623.681	522.4
624.095	519
624.509	522.4
624.922	518
625.336	511.8
625.728	507
626.142	521.2
626.556	530.8
626.97	527
627.384	517.8
627.799	512.2
628.213	518.6
628.627	510.8
629.041	513.6
629.456	512.6
629.87	514.6
630.285	515.6
630.699	519
631.093	521.8
631.507	519.8
631.922	524.2
632.337	527.2
632.752	508.6
633.167	513.4
633.582	512.2
633.997	511.2
634.412	510
634.806	510.6
635.221	498.2
635.637	515.4
636.052	502.8
636.468	512.8
636.883	536.8
637.299	523.6
637.715	505.6
638.109	515.6
638.525	503.4
638.941	526.4
639.357	517
639.773	519.2
640.189	516.8
640.584	509.2
641	515
641.416	496.2
641.832	510.4
642.249	504.8
642.665	511.4
643.06	510.8
643.477	518
643.894	504.2
644.31	512.8
644.727	507.4
645.123	513.2
645.54	496.8
645.957	514.8
646.374	520.6
646.77	518
647.187	532.2
647.604	512.4
648.021	494.8
648.439	504
648.835	511
649.252	511.4
649.67	509.4
650.088	506.4
650.484	509.6
650.902	516
651.32	513.6
651.738	503.2
652.134	507.8
652.552	530.2
652.971	514
653.389	508.6
653.786	519.2
654.204	509.4
654.622	501
655.019	507.4
655.438	516.4
655.857	512.2
656.275	514.4
656.673	499.4
657.091	515.2
657.51	509.8
657.908	511.6
658.327	524.8
658.746	506.8
659.144	509
659.563	513.4
659.982	504.8
660.38	507.6
660.8	509.6
661.219	517.8
661.617	513.2
662.037	513.4
662.457	521.4
662.855	497.2
663.275	535.4
663.695	509.6
664.094	502.2
664.514	519.2
664.934	495.2
665.333	514
665.753	496.6
666.152	500.2
666.572	504.4
666.993	520
667.392	504.2
667.812	501.2
668.212	506.6
668.632	511.6
669.053	502
669.453	506.4
669.874	507.6
670.273	501.2
670.694	502
671.116	519.8
671.515	510.8
671.937	502.6
672.337	508.2
672.758	508
673.158	516.2
673.58	495.4
673.98	510.6
674.402	515
674.824	512.2
675.224	501.4
675.646	491
676.047	501.6
676.469	502.2
676.869	507.8
677.292	499
677.693	498.6
678.115	497.2
678.516	510.8
678.939	499.4
679.34	509.8
679.762	507.8
680.164	507.2
680.586	502.8
680.988	504
681.411	529.6
681.812	497.6
682.236	500.6
682.637	499.2
683.061	494.8
683.462	513.4
683.864	497.4
684.288	506
684.69	498
685.114	517.8
685.516	509
685.94	500.2
686.342	511.2
686.766	497.2
687.168	501.8
687.571	523.4
687.995	506.4
688.398	497
688.822	511.4
689.225	513.6
689.628	526.4
690.052	508.6
690.456	511
690.88	507.8
691.284	495
691.687	514.6
692.112	498
692.515	503.6
692.919	505
693.344	502.2
693.747	500.8
694.173	506.6
694.577	516.8
694.98	505.6
695.406	508.2
695.81	518.8
696.214	513.4
696.64	502
697.044	511
697.448	516.4
697.874	500.8
698.279	512.6
698.684	494.4
699.11	503.8
699.514	505.4
699.919	504.6
700.324	498.2
700.75	500
701.156	510
701.561	511.6
701.987	509.2
702.393	510.6
702.798	518.6
703.203	509.8
703.63	501.6
704.036	503.8
704.442	502.8
704.847	501
705.274	502.8
705.68	511.8
706.086	516.2
706.492	499
706.92	505.2
707.326	520.6
707.732	506.8
708.139	498.2
708.545	500
708.973	505.8
709.38	512
709.786	496.4
710.193	518
710.6	513.4
711.028	500
711.435	502.8
711.842	508.4
712.249	496.2
712.656	514.8
713.064	514.2
713.492	498.2
713.9	497.4
714.307	504.2
714.715	510.2
715.123	503.4
715.53	507.4
715.938	516
716.367	507.6
716.775	506
717.184	501.4
717.592	503.4
718	510.2
718.408	539
718.816	540.2
719.225	508
719.633	501.6
720.042	495.4
720.472	505.4
720.881	519.4
721.29	503.4
721.699	496.6
722.108	502.6
722.517	504.2
722.926	493.6
723.335	513
723.744	502.2
724.154	511.6
724.563	508.6
724.973	513
725.382	509
725.792	497.4
726.202	493.2
726.612	514.6
727.022	506
727.432	504.4
779.813	510
780.223	533
780.634	502.8
781.044	497
781.454	496.8
781.865	511
782.276	492.6
782.686	512.2
783.097	505.8
783.508	498.2
783.919	507.6
784.33	504.2
784.741	514
785.152	503.2
785.563	490.6
785.974	497.8
786.386	509
786.776	501.2
787.188	506.4
787.599	495.8
788.011	509
788.423	506
788.835	496.2
789.247	495.8
789.659	497
790.071	491
790.483	535.6
790.874	501.2
791.286	502.2
791.699	496.6
792.111	502.2
792.524	504
792.937	497
793.349	495.4
793.741	497.6
794.154	496.8
794.567	518.4
794.98	497.4
795.393	487.8
795.785	518.4
796.198	496.2
796.612	509.4
797.026	501.8
797.439	496
797.831	495.2
798.245	494.4
798.659	499.4
799.073	494.8
799.487	501.2
799.88	507.6
800.294	497.4
800.708	509.4
801.123	493.8
801.516	519.8
801.93	498
802.345	485.8
802.76	501.6
803.153	505.6
803.568	509.8
803.983	507
804.377	497.6
804.792	493.6
805.207	487.2
805.601	500.2
806.016	524.6
806.432	506.4
806.826	525.6
807.242	511.2
807.658	503.4
808.052	497.8
808.468	498
808.884	492.4
809.279	498.6
809.695	510.2
810.111	522
810.506	508
810.922	520.2
811.339	506.4
811.734	506.6
812.151	492.6
812.546	497.8
812.963	496.2
813.38	506
813.776	501.4
814.193	516.8
814.589	501
815.006	498
815.402	494
815.82	486.4
816.237	495.6
816.633	497.2
817.051	493.6
817.448	495.8
817.866	497
818.262	514.2
818.68	499.4
819.077	499.8
819.495	502.2
819.892	530.2
820.311	497.2
820.708	497.4
821.127	495.4
821.524	509
821.943	499.2
822.34	506.2
822.759	494
823.157	494.8
823.576	499.4
823.974	510.2
824.393	582.8
824.791	491.8
825.189	483.8
825.609	496.4
826.007	493.4
826.427	483.4
826.826	498.8
827.246	507.6
827.644	487
828.043	510
828.463	497.2
828.862	505.6
829.261	502.6
829.682	487
830.081	505.2
830.502	496.2
830.901	500.4
831.301	498.2
831.722	488
832.121	500.8
832.521	496.2
832.943	506.2
833.342	502.2
833.742	496.2
834.164	494.2
834.564	489.4
834.965	490.2
835.386	495.4
835.787	494
836.188	502.8
836.588	497.4
837.01	500.4
837.411	496
837.812	507.8
838.213	509.6
838.636	503.4
839.037	561.6
839.438	501.8
839.84	496.6
840.263	507.2
840.664	508.4
841.066	493.4
841.468	502.4
841.891	504.4
842.293	506.4
842.695	502.2
843.098	506.4
843.5	497.8
843.902	502.2
844.326	503.4
844.729	507.8
845.131	515.8
845.534	500.4
845.937	509.8
846.34	511.4
846.764	502
847.167	502
847.571	494
847.974	494.6
848.377	492.4
848.781	536.2
849.184	507.4
849.588	489.4
849.992	495.8
850.396	502
850.821	519
851.225	503.6
851.63	499.2
852.034	513
852.438	500.2
852.843	522.6
853.247	496.2
853.652	489.6
854.057	508.4
854.462	502.6
854.867	500.6
855.272	533.4
855.677	509.4
856.082	489.6
856.487	480.8
