#lambda/nm	C1
208.295	466.6
208.67	425.4
209.045	393.2
209.419	400.2
209.794	536.8
210.169	521.4
210.544	623.4
210.919	539
211.295	526
211.67	534
212.045	538.2
212.421	529.2
212.796	561
213.172	531.4
213.547	534.8
213.923	528.6
214.299	530.4
214.675	534.8
215.051	536.8
215.427	544.2
215.803	549.8
216.179	542.6
216.555	531.4
216.932	543.4
217.308	532.4
217.684	539
218.061	536.4
218.438	535.6
218.814	531
219.191	545.8
219.568	529.2
219.945	531.2
220.322	538
220.699	540.8
221.076	546.4
221.453	540
221.83	530.8
222.208	529.6
222.585	531.6
222.962	536.4
223.34	534.4
223.717	535.8
224.095	532.2
224.473	536.6
224.851	527
225.229	522.6
225.607	547.6
225.985	532.4
226.363	536.6
226.741	541.6
227.119	528.6
227.497	546.4
227.876	531
228.254	541.6
228.633	546.2
229.011	537.6
229.39	546.2
229.769	539
230.148	540.2
230.527	546.2
230.905	540.4
231.284	548.2
231.664	533.2
232.043	550.6
232.422	540.2
232.801	532.4
233.181	539
233.56	538.6
233.94	536.8
234.319	520.2
234.699	538.8
235.079	568.8
235.458	563.4
235.838	547.2
236.218	527.2
236.598	536.6
236.978	527.2
237.358	530.8
237.738	534.4
238.119	540.6
238.499	533
238.88	538.6
239.26	547.6
239.641	530.2
240.021	531.8
240.402	535.2
240.783	536
241.163	542.6
241.544	530
241.925	541.6
242.306	547.8
242.687	534.6
243.069	537
243.45	545.8
243.831	524.6
244.212	534
244.594	563.8
244.975	532.8
245.357	536.8
245.739	526
246.12	532.8
246.502	549.2
246.884	527
247.266	529.6
247.648	543.2
248.03	553.6
248.412	535.4
248.794	538.8
249.176	533.6
249.559	543.2
249.941	538.6
250.323	529.6
250.706	528.8
251.089	533.2
251.471	543.8
251.854	538.6
252.237	535.4
252.62	548.2
253.002	541.2
253.385	534.4
253.769	547.6
254.152	538.4
254.535	542.4
254.918	529.4
255.301	540.6
255.685	535.6
256.068	531.2
256.452	555.2
256.835	551.2
257.219	543.4
257.603	544.4
257.986	532.4
258.37	547.8
258.754	523
259.138	536.2
259.522	542.8
259.906	535.6
260.29	542
260.675	530.2
261.059	533.2
261.443	527.8
261.828	537.2
262.212	537.8
262.597	525.2
262.981	524.2
263.366	534.6
263.751	530.8
264.136	534.4
264.521	533
264.906	533.2
265.291	542.2
265.676	533.4
266.061	542.2
266.446	549
266.831	539
267.217	549.2
267.602	529.4
267.987	531
268.373	527.6
268.759	544
269.144	540.2
269.53	538.8
269.916	530
270.302	535.6
270.688	535
271.074	534.8
271.46	550
271.846	560.8
272.232	535.6
272.618	534.4
273.004	533.6
273.391	546.4
273.777	550
274.164	540
274.55	546
274.937	545.2
275.324	529.6
275.71	538.8
276.097	533.2
276.484	533
276.871	542
277.258	535.4
277.645	525
278.032	531.4
278.419	535.4
278.807	545.2
279.194	529.2
279.581	532.6
279.969	539.6
280.356	537.6
280.744	532.4
281.131	549.4
281.519	554.6
281.907	533.8
282.295	537.2
282.682	551
283.07	540.8
283.458	548
283.846	540.2
284.235	544.2
284.623	541.2
285.011	522
285.399	540.8
285.788	538.2
286.176	533.2
286.565	544.4
286.953	535
287.342	532.6
287.731	533
288.119	526.4
288.508	531
288.897	538.6
289.286	530.6
289.675	536.2
290.064	545.8
290.453	535
290.821	543
291.21	552.4
291.599	526.4
291.989	534.6
292.378	545
292.768	555.2
293.157	539.4
293.547	540
293.936	529.8
294.326	533.8
294.716	537.6
295.106	532.2
295.496	543.8
295.886	537.2
296.276	530.6
296.666	533
297.056	531.2
297.446	524.8
297.836	544.8
298.227	530.4
298.617	531.6
299.008	545.6
299.398	535.4
299.789	533.6
300.179	540.6
300.57	546.6
300.961	537
301.352	535.8
301.742	544
302.133	538
302.524	531.6
302.915	537
303.307	525.2
303.698	542.2
304.089	537.4
304.48	532.8
304.872	539.4
305.263	537.8
305.655	524.6
306.046	541.8
306.438	535.6
306.829	536.8
307.221	543.4
307.613	532.8
308.005	542.8
308.397	543
308.789	548.2
309.181	557.8
309.573	553
309.965	536.4
310.357	532.2
310.749	542.4
311.142	514.8
311.534	532.6
311.926	536.4
312.319	534.6
312.711	532.6
313.104	543
313.497	526
313.889	572.8
314.282	542.8
314.675	556.6
315.068	536.6
315.461	539.8
315.854	560.8
316.247	542.4
316.64	530.6
317.033	539.4
317.405	544.8
317.798	534.2
318.192	538
318.585	530.2
318.979	549
319.372	527.2
319.766	537
320.16	545.8
320.553	552.2
320.947	551.4
321.341	539.2
321.735	539.2
322.129	529.4
322.523	552.2
322.917	530
323.311	545.6
323.705	536.6
324.099	543.2
324.494	554.4
324.888	541.2
325.282	542
325.677	547
326.071	533.2
326.466	546.2
326.861	537.2
327.255	543.2
327.65	551.8
328.045	546.6
328.44	536
328.835	539.6
329.23	525
329.625	553.2
330.02	532.4
330.415	547.8
330.81	537.6
331.206	538
331.601	532.8
331.996	542
332.37	559.8
332.766	533.2
333.161	554.6
333.557	537
333.953	541.2
334.348	813.6
334.744	542
335.14	531
335.536	535
335.932	546
336.328	541.6
336.724	536.4
337.12	544
337.516	538.4
337.913	543.6
338.309	547.2
338.705	527.4
339.102	538
339.498	541.8
339.895	553
340.291	529.2
340.688	540.2
341.085	520.4
341.481	526.4
341.878	529.6
342.275	547
342.672	528.4
343.069	528
343.466	516.4
343.842	545.6
344.239	524.6
344.636	533.2
345.033	528.6
345.431	524.6
345.828	534.6
346.225	528
346.623	562.4
347.02	537
347.418	541.2
347.816	546.4
348.213	529.8
348.611	544
349.009	527.8
349.407	551.6
349.805	529.8
350.203	518.4
350.601	552.6
350.999	533.2
351.397	587
351.795	531.4
352.193	547
352.57	535.6
352.969	539.8
353.367	533.4
353.766	529
354.164	536
354.563	540
354.961	533.6
355.36	523.8
355.759	530
356.158	529.6
356.557	528.8
356.956	528.8
357.355	527
357.754	541.2
358.153	533
358.552	550
358.951	529.8
359.35	547.2
359.75	527.6
360.149	525.8
360.527	518.8
360.926	520.2
361.326	534.4
361.726	526
362.125	520.8
362.525	537
362.925	526.8
363.325	531.2
363.724	526.8
364.124	526.4
364.524	530
364.924	526.4
365.324	532
365.725	515.4
366.125	533.8
366.525	522
366.904	527.2
367.304	513.6
367.705	542
368.105	530.2
368.506	521.2
368.906	528.6
369.307	530.2
369.708	527.4
370.108	518
370.509	542.6
370.91	518.8
371.311	531.4
371.712	529.6
372.113	532
372.514	517.8
372.894	530
373.295	527.4
373.696	535.8
374.097	542.8
374.499	546
374.9	531.6
375.301	520
375.703	532.8
376.105	523.4
376.506	533.8
376.908	532.8
377.309	527.2
377.711	531
378.113	524.4
378.493	533
378.895	523.2
379.297	531.4
379.699	520.2
380.102	532.6
380.504	516.4
380.906	525.2
381.308	547.4
381.71	525.4
382.113	533.6
382.515	527.8
382.918	533
383.299	526.2
383.701	536.8
384.104	527.4
384.507	514
384.909	530
385.312	517.2
385.715	520.2
386.118	518.4
386.521	513.8
386.924	535.8
387.327	518.8
387.709	514
388.112	510.2
388.515	524
388.918	526.2
389.322	536.4
389.725	517.8
390.129	544.6
390.532	543.4
390.936	525.8
391.339	519.2
391.743	531.2
392.125	520.4
392.529	530
392.933	536.4
393.337	530.8
393.74	524
394.144	533.8
394.548	524.8
394.953	527.4
395.357	526.2
395.761	523.8
396.144	522
396.548	531.2
396.952	522
397.357	524.2
397.761	525.2
398.166	532.4
398.57	525.2
398.975	519.2
399.379	531
399.763	575.2
400.168	532.4
400.572	517
400.977	526.8
401.382	545
401.787	537
402.192	535
402.597	537.2
403.002	523
403.386	534.2
403.791	535
404.197	519.8
404.602	523.4
405.007	531.6
405.413	514.4
405.818	525
406.224	527.6
406.608	524.4
407.014	511.6
407.42	535.8
407.825	515.8
408.231	532.8
408.637	530
409.043	532.8
409.449	521
409.834	525.2
410.24	524
410.646	533.2
411.052	526.8
411.458	532
411.865	531.4
412.271	533.6
412.677	530.2
413.062	538.2
413.469	515.4
413.875	545.4
414.282	532.8
414.689	535
415.095	533.8
415.502	527.2
415.888	531.6
416.294	514.2
416.701	561.8
417.108	524
417.515	532.8
417.923	524.4
418.33	549.8
418.715	541.4
419.123	531.6
419.53	521.4
419.937	529.6
420.345	538.2
420.752	525.2
421.16	543.8
421.546	530.6
421.953	530
422.361	522.2
422.769	532.4
423.177	522.6
423.585	551
423.992	543.8
424.379	535.8
424.787	531.6
425.195	544.8
425.603	529
426.011	537.2
426.419	544
426.806	536.2
427.214	529.6
427.623	546.2
428.031	543
428.44	532.6
428.848	538.4
429.235	539.8
429.644	537
430.053	527.2
430.461	542.8
430.87	550.8
431.279	535.8
431.666	526
432.075	533.2
432.484	538.2
432.893	529.2
433.302	541.2
433.711	567.6
434.099	531.8
434.508	516
434.918	526.2
435.327	537.6
435.737	524.4
436.125	528
436.534	525.8
436.944	529.2
437.353	533.8
437.763	543.6
438.173	532.8
438.561	528.6
438.971	521.2
439.381	530.6
439.791	533.8
440.201	508.2
440.589	528.4
440.999	534
441.409	539.4
441.819	518.2
442.23	538.4
442.619	536
443.029	526
443.439	536.8
443.85	545.8
444.26	532.4
444.649	533.6
445.06	526
445.471	525
445.881	521.6
446.292	544.2
446.682	535.6
447.092	514.4
447.503	565.6
447.914	526.8
448.325	527
448.715	526.2
449.126	526.2
449.537	530.2
449.948	532.2
450.338	526
450.75	531.6
451.161	535
451.572	532.8
451.984	523.2
452.374	515.4
452.786	528.8
453.197	527
453.609	527.6
453.999	520.6
454.411	524.6
454.823	525.2
455.235	522.8
455.647	516
456.037	522
456.449	516
456.862	519.6
457.274	520.2
457.665	520
458.077	525.2
458.489	550.2
458.902	524.4
459.293	526.6
459.705	523.4
460.118	514.6
460.53	523.2
460.921	531.6
461.334	518.2
461.747	526.8
462.16	531.6
462.551	527.6
462.964	525.8
463.377	501.4
463.79	519
464.182	518
464.595	519.8
465.008	519.4
465.421	528
465.813	520.8
466.226	530.6
466.64	515.2
467.053	557
467.445	528.2
467.859	537.4
468.272	524.2
468.686	529
469.078	523.4
469.492	510.8
469.906	526
470.298	530.6
470.712	515.2
471.126	544
471.54	514
471.933	516.2
472.347	516.6
472.761	522.2
473.175	523.6
473.568	518.8
473.982	514.8
474.397	520.4
474.79	521
475.204	526.6
475.619	523.4
476.033	516.2
476.426	522
476.841	513
477.256	529.2
477.649	515.6
478.064	510
478.479	513.6
478.872	510.2
479.287	503
479.702	512.6
480.118	516
480.511	522.2
480.927	521.8
481.342	517.8
481.736	517.6
482.151	511.6
482.566	530
482.96	517.4
483.376	526.8
483.792	515.8
484.186	519.8
484.602	514.8
485.017	521.4
485.412	518.2
485.827	520
486.243	515.6
486.638	536.8
487.054	523.8
487.47	529
487.865	512.4
488.281	519.8
488.697	518.8
489.092	514.2
489.508	519.8
489.925	527.6
490.32	511.8
490.736	520.4
491.153	515.6
491.548	518.8
491.964	522.6
492.381	506
492.776	517.2
493.193	518.8
493.61	527.6
494.006	526.2
494.422	524.6
494.84	509.4
495.235	529
495.652	517.8
496.069	507.6
496.465	512.6
496.883	517
497.3	533.8
497.696	513.6
498.113	525.8
498.509	508
498.927	513.6
499.344	508.8
499.741	514.2
500.158	530.2
500.576	536
500.973	522.4
501.39	504.6
501.787	511.4
502.205	514.6
502.623	510.4
503.02	506.6
503.438	514.2
503.856	515
504.253	511.6
504.671	519.4
505.068	505
505.486	509.8
505.905	529.4
506.302	520.8
506.72	520.4
507.118	517
507.536	525.2
507.955	516.4
508.352	515.2
508.771	519.4
509.169	525.2
509.587	508.8
510.006	510.4
510.404	506
510.823	515.8
511.221	516
511.64	511.8
512.038	526.6
512.457	509.4
512.877	521.8
513.275	513
513.694	516
514.092	517.8
514.512	523.2
514.91	520.6
515.33	517.2
515.749	519.6
516.148	516.6
516.568	516
516.966	520
517.386	511.8
517.785	517
518.205	514.2
518.603	516.8
519.024	511.8
519.444	522.2
519.843	525.2
520.263	520
520.662	517.6
521.082	528
521.481	529
521.902	508.2
522.301	521.4
522.722	524.8
523.121	517.8
523.542	518.6
523.963	519
524.362	516.2
524.783	517.6
525.183	522.6
525.604	521.8
526.003	514.8
526.425	506.8
526.824	514.6
527.246	520
527.646	528.4
528.067	516.2
528.467	513.6
528.888	523.4
529.289	514.2
529.71	514.4
530.11	522.4
530.532	514.8
530.932	511.8
531.354	511
531.755	534
532.176	524.8
532.577	514.6
532.999	512.4
533.4	512
533.822	525.6
534.223	518.8
534.645	513.4
535.046	512.6
535.468	520.4
535.869	529.6
536.292	510.4
536.693	541
537.115	512.6
537.516	513.2
537.939	511.2
538.34	523.6
538.742	516.8
539.165	515
539.566	519.6
539.989	511.8
540.391	515
540.814	514.4
541.216	515.6
541.639	520.6
542.041	515.8
542.464	511.4
542.866	504.6
543.268	504
543.691	521.6
544.093	520.4
544.517	533.6
544.919	520.2
545.343	541.6
545.745	511
546.147	523.4
546.571	520
546.974	510
547.398	518.6
547.8	521.2
548.224	510.6
548.627	513
549.03	518.4
549.454	513.8
549.857	509.8
550.281	507.4
550.684	512.4
551.087	526.6
551.512	513.8
551.915	518.4
552.34	515
552.743	516.2
553.146	514
553.571	509.6
553.975	526.8
554.399	505.4
554.803	544.2
555.207	508.6
555.632	510.4
556.036	517.8
556.461	513.8
556.865	520.8
557.268	513.2
557.694	512.4
558.098	523
558.502	515.6
558.927	503.2
559.332	516.2
559.736	506.8
560.162	516
560.566	514.8
560.992	517.2
561.396	516.6
561.801	506.8
562.227	509
562.631	514.2
563.036	508.4
563.462	524.4
563.867	515
564.272	503.6
564.698	524
565.103	504.4
565.508	526
565.935	514
566.34	510.6
566.745	524.4
567.172	513.6
567.577	533.4
567.982	525
568.409	514
568.815	505.8
569.22	514.2
569.626	515.6
570.053	504.2
570.459	511.8
570.865	523
571.292	525.4
571.698	515.4
572.104	505.2
572.531	514
572.937	521
573.343	515
573.75	514.6
574.177	512
574.583	524.6
574.99	508.8
575.396	513
575.824	514.8
576.231	511.8
576.637	511.2
577.065	530.8
577.472	504.4
577.879	509
578.286	523
578.714	507.8
579.121	505.8
579.528	512.2
579.935	515
580.364	513.8
580.771	499
581.178	505.6
581.585	511.8
582.014	519
582.421	510.6
582.829	505.6
583.236	519.6
583.644	507.8
584.073	506.2
584.481	511.4
584.889	509.4
585.296	519.8
585.726	514.6
586.134	511.2
586.542	507.4
586.95	523.6
587.358	507.8
587.787	514.6
588.196	508.2
588.604	512.6
589.012	511.8
589.421	499.2
589.851	504.4
590.259	509.6
590.668	507.6
591.076	537.8
591.485	502.4
591.894	511
592.324	525.6
592.733	515
593.142	505.4
593.551	508.2
593.96	520.4
594.369	504.4
594.8	509
595.209	505.2
595.618	501.4
596.028	508
596.437	503.6
596.847	517.8
597.256	521
597.687	516
598.097	510.2
598.507	502.2
598.917	507.6
599.327	519
599.736	512.2
600.146	509.2
600.556	509.2
600.988	515.4
601.398	506.8
601.808	518.2
602.219	497
602.629	504.6
603.039	511.4
603.45	530
603.86	504.6
604.271	520.4
604.703	518.2
605.114	514.8
605.525	513.4
605.935	518.6
606.346	531.2
606.757	518
607.168	506
607.579	506.4
607.99	517.6
608.402	516
608.813	510.8
609.224	500
609.636	508
610.047	511.8
610.48	520
610.892	514
611.303	517.8
611.715	512.6
612.127	508.8
612.539	503.8
612.95	510.8
613.362	502.6
613.774	508.8
614.186	517.2
614.599	507.2
615.011	519.6
615.423	511.6
615.835	512.8
616.248	508.6
616.66	509.8
617.073	504.2
617.485	520.4
617.898	516.6
618.311	515.4
618.723	515.6
619.136	541.8
619.549	528.6
619.962	525.6
620.375	507.4
620.788	509.8
621.201	511.8
621.614	519.4
622.028	511.6
622.441	521
622.854	532.4
623.268	503
623.681	517.2
624.095	514
624.509	517.8
624.922	526.8
625.336	497.2
625.728	520
626.142	527.2
626.556	539.8
626.97	517.8
627.384	505.8
627.799	515
628.213	521.4
628.627	515.4
629.041	510.6
629.456	511
629.87	515.6
630.285	522
630.699	524.4
631.093	518
631.507	518.4
631.922	519
632.337	522.2
632.752	506.4
633.167	524.2
633.582	506.8
633.997	520.8
634.412	510.8
634.806	519
635.221	499.2
635.637	530.6
636.052	505.6
636.468	516.8
636.883	538.8
637.299	512
637.715	505.4
638.109	513.2
638.525	505.2
638.941	522.6
639.357	523
639.773	527.2
640.189	507.6
640.584	516.2
641	515.6
641.416	505.2
641.832	512.8
642.249	511.6
642.665	518
643.06	513
643.477	521
643.894	506.8
644.31	505.6
644.727	516
645.123	511.2
645.54	502.6
645.957	518.2
646.374	515.6
646.77	513.2
647.187	534.6
647.604	507.2
648.021	501.2
648.439	507
648.835	503.4
649.252	519.8
649.67	506.2
650.088	517
650.484	509.2
650.902	511.8
651.32	511.8
651.738	510.2
652.134	514.2
652.552	520
652.971	519.4
653.389	513
653.786	527.6
654.204	513.6
654.622	506.6
655.019	503
655.438	510.4
655.857	513.8
656.275	514
656.673	503.4
657.091	510.8
657.51	504.8
657.908	515.4
658.327	512.8
658.746	499
659.144	506.4
659.563	512.4
659.982	506.4
660.38	494.6
660.8	500.2
661.219	515.8
661.617	511.6
662.037	510.4
662.457	519
662.855	499.4
663.275	536.2
663.695	513.6
664.094	508.2
664.514	514
664.934	506
665.333	514.2
665.753	499.4
666.152	497.2
666.572	504.6
666.993	524
667.392	507
667.812	509.4
668.212	506.4
668.632	519.8
669.053	502.2
669.453	514.8
669.874	516.8
670.273	507.4
670.694	498
671.116	514.4
671.515	517.6
671.937	500.6
672.337	495.8
672.758	500.8
673.158	518.2
673.58	500.2
673.98	504.4
674.402	516.4
674.824	501.8
675.224	502.6
675.646	501.4
676.047	502.6
676.469	508.6
676.869	503.4
677.292	506
677.693	508.6
678.115	511.4
678.516	503.4
678.939	515.4
679.34	508.8
679.762	513.4
680.164	506
680.586	499.6
680.988	520
681.411	528.4
681.812	498
682.236	500
682.637	497
683.061	500.8
683.462	503
683.864	502
684.288	507.6
684.69	501.2
685.114	513.4
685.516	508.4
685.94	497.2
686.342	511.2
686.766	502.8
687.168	500.6
687.571	522.2
687.995	498.2
688.398	504.2
688.822	504
689.225	524.2
689.628	518.6
690.052	504
690.456	511.2
690.88	506
691.284	499.8
691.687	508.4
692.112	494.2
692.515	499
692.919	506.6
693.344	504.4
693.747	506.4
694.173	501.4
694.577	517.4
694.98	508.2
695.406	503
695.81	507.6
696.214	500.4
696.64	507
697.044	503.4
697.448	509
697.874	501.4
698.279	505.6
698.684	495.2
699.11	500.6
699.514	502.2
699.919	501.2
700.324	501.6
700.75	504
701.156	505.4
701.561	513.2
701.987	516.8
702.393	515.2
702.798	517.6
703.203	501
703.63	495.4
704.036	504.8
704.442	509.6
704.847	500.6
705.274	508.6
705.68	499.6
706.086	520.2
706.492	496.2
706.92	505.4
707.326	515.8
707.732	501.2
708.139	504.6
708.545	495
708.973	505.4
709.38	505.4
709.786	490.6
710.193	520.4
710.6	513.2
711.028	496.2
711.435	501.2
711.842	505.6
712.249	499.8
712.656	505.4
713.064	513.4
713.492	500
713.9	503.8
714.307	501
714.715	505.8
715.123	507.2
715.53	512.2
715.938	511.4
716.367	511.4
716.775	504.8
717.184	497.6
717.592	499.4
718	510
718.408	532.8
718.816	536.8
719.225	497.2
719.633	504.8
720.042	499.8
720.472	505.4
720.881	519.2
721.29	505.8
721.699	503.6
722.108	509
722.517	501
722.926	502
723.335	515.6
723.744	504.8
724.154	508.4
724.563	502.2
724.973	508.4
725.382	503.2
725.792	501.4
726.202	500.6
726.612	511.4
727.022	495.8
727.432	503
779.813	507.4
780.223	537.2
780.634	507.8
781.044	499.6
781.454	502.8
781.865	523.6
782.276	493.2
782.686	513.4
783.097	506.4
783.508	504.4
783.919	513
784.33	514
784.741	509.2
785.152	509.4
785.563	495.4
785.974	499.6
786.386	509
786.776	503
787.188	506.6
787.599	494.2
788.011	509
788.423	512.2
788.835	501
789.247	492.6
789.659	505.8
790.071	504.8
790.483	544.6
790.874	500.4
791.286	502.2
791.699	500.6
792.111	497
792.524	499.2
792.937	496.8
793.349	492.4
793.741	496.8
794.154	506.4
794.567	512.2
794.98	503.2
795.393	490.6
795.785	512.6
796.198	497.4
796.612	503
797.026	501.2
797.439	484.4
797.831	499.4
798.245	492.2
798.659	501.2
799.073	501.2
799.487	496.6
799.88	503.2
800.294	502.4
800.708	507.2
801.123	508.6
801.516	516
801.93	490.8
802.345	500.4
802.76	504.6
803.153	516.4
803.568	508.6
803.983	507.4
804.377	507.2
804.792	495.2
805.207	486.2
805.601	494.2
806.016	531.8
806.432	493
806.826	523.8
807.242	502.6
807.658	501.4
808.052	502.8
808.468	498.2
808.884	494
809.279	502.4
809.695	507.8
810.111	515.4
810.506	510.4
810.922	510.6
811.339	494
811.734	513.6
812.151	497.4
812.546	495
812.963	503.6
813.38	501.4
813.776	500
814.193	524.4
814.589	498.2
815.006	490.2
815.402	497.4
815.82	502.6
816.237	502.2
816.633	499.4
817.051	493.4
817.448	498.6
817.866	490.8
818.262	514
818.68	500.8
819.077	499.2
819.495	496.2
819.892	535.6
820.311	494.6
820.708	499.4
821.127	493.8
821.524	504
821.943	502.8
822.34	508.6
822.759	498
823.157	503.6
823.576	499.2
823.974	503.2
824.393	580.2
824.791	496.8
825.189	495.6
825.609	500.8
826.007	500.6
826.427	493.4
826.826	496.4
827.246	514.2
827.644	490.8
828.043	503.4
828.463	489
828.862	502.8
829.261	505.6
829.682	496
830.081	506
830.502	492.8
830.901	500.4
831.301	499.8
831.722	488.6
832.121	496.6
832.521	497
832.943	497.4
833.342	503.2
833.742	489.6
834.164	494.8
834.564	484
834.965	488.4
835.386	497.2
835.787	501.6
836.188	498.4
836.588	495.6
837.01	491.6
837.411	492.6
837.812	498.2
838.213	504.2
838.636	488.2
839.037	551.2
839.438	506.6
839.84	495.8
840.263	497.6
840.664	502
841.066	502.6
841.468	505.2
841.891	491.6
842.293	507.6
842.695	501.6
843.098	503.4
843.5	498.6
843.902	494.2
844.326	499.4
844.729	505.2
845.131	501.8
845.534	496
845.937	503.4
846.34	507
846.764	503.8
847.167	499.6
847.571	490.2
847.974	497
848.377	499.8
848.781	537.8
849.184	505.8
849.588	500
849.992	489.6
850.396	498
850.821	516.2
851.225	499.8
851.63	491.8
852.034	514.4
852.438	506.8
852.843	559.6
853.247	492.6
853.652	488.6
854.057	517.4
854.462	495.4
854.867	504.2
855.272	529.2
855.677	508.6
856.082	493.2
856.487	494.2
856.893	498.6
857.298	492.6
857.704	502.8
