#lambda/nm	C1
208.295	470.4
208.67	433.4
209.045	394.4
209.419	399.8
209.794	540
210.169	519
210.544	634
210.919	546.6
211.295	533.8
211.67	536.6
212.045	527.2
212.421	529.8
212.796	563
213.172	531.2
213.547	532
213.923	532.4
214.299	532
214.675	539.2
215.051	547.2
215.427	541
215.803	548.2
216.179	537
216.555	533.8
216.932	541
217.308	543
217.684	541.4
218.061	539.2
218.438	530.6
218.814	537
219.191	543.8
219.568	529.2
219.945	528.8
220.322	549
220.699	537.6
221.076	542
221.453	539
221.83	526.2
222.208	535.4
222.585	525.2
222.962	533
223.34	532.6
223.717	537.6
224.095	528
224.473	535.8
224.851	535.6
225.229	528.2
225.607	550.8
225.985	525.6
226.363	541
226.741	543.4
227.119	529
227.497	546
227.876	531.4
228.254	542.4
228.633	545.2
229.011	540
229.39	536.4
229.769	535.8
230.148	538.6
230.527	548.6
230.905	540
231.284	550
231.664	532.8
232.043	545.2
232.422	545
232.801	534
233.181	538.8
233.56	543.8
233.94	544.2
234.319	529.2
234.699	540.2
235.079	569.6
235.458	565.8
235.838	550.4
236.218	530.2
236.598	519.6
236.978	536.4
237.358	527
237.738	522
238.119	539
238.499	522.6
238.88	528.4
239.26	547.2
239.641	522.6
240.021	529.2
240.402	529.8
240.783	526.8
241.163	532.2
241.544	540.8
241.925	531.4
242.306	547.8
242.687	530.6
243.069	534.2
243.45	534.4
243.831	532.8
244.212	530.6
244.594	562.4
244.975	541.6
245.357	536
245.739	529.2
246.12	540.6
246.502	541.2
246.884	538.2
247.266	533.4
247.648	540.6
248.03	557.4
248.412	537.4
248.794	541.4
249.176	534.2
249.559	547
249.941	536.2
250.323	529.8
250.706	526
251.089	546.8
251.471	535
251.854	532
252.237	533.2
252.62	545
253.002	531.6
253.385	533
253.769	550
254.152	527.4
254.535	540.4
254.918	529.4
255.301	529
255.685	536.6
256.068	524
256.452	550.8
256.835	546.4
257.219	540.6
257.603	538
257.986	527.2
258.37	543.4
258.754	520
259.138	531.8
259.522	550.6
259.906	536.8
260.29	538.4
260.675	544.6
261.059	538.6
261.443	528.2
261.828	543.6
262.212	538.2
262.597	527
262.981	526.4
263.366	539
263.751	540.6
264.136	529
264.521	533
264.906	525.2
265.291	538.8
265.676	529
266.061	538.4
266.446	558
266.831	534.2
267.217	548
267.602	541.4
267.987	534.2
268.373	543
268.759	542.6
269.144	538.2
269.53	539.8
269.916	531.8
270.302	533
270.688	537.4
271.074	537
271.46	542.6
271.846	555.4
272.232	526.2
272.618	523.8
273.004	526.2
273.391	543.8
273.777	542.8
274.164	542
274.55	546.8
274.937	536.2
275.324	534.4
275.71	540.2
276.097	543.8
276.484	521.8
276.871	542.6
277.258	550.2
277.645	527.6
278.032	533
278.419	521.4
278.807	539.4
279.194	526.4
279.581	531
279.969	537.4
280.356	540.6
280.744	538.6
281.131	555.8
281.519	538.8
281.907	527.6
282.295	537.2
282.682	540.8
283.07	534
283.458	533
283.846	544
284.235	544.4
284.623	542.4
285.011	528
285.399	540.2
285.788	532
286.176	526.6
286.565	547.8
286.953	523.8
287.342	531.8
287.731	525.8
288.119	521.8
288.508	528.4
288.897	529
289.286	525.8
289.675	531.8
290.064	549.8
290.453	533.8
290.821	531.4
291.21	548
291.599	537.4
291.989	540.8
292.378	543.4
292.768	547.4
293.157	535.4
293.547	541.8
293.936	534.6
294.326	532.8
294.716	539.4
295.106	536.4
295.496	545.2
295.886	543.6
296.276	540.8
296.666	534
297.056	530.6
297.446	526.6
297.836	559.2
298.227	533.8
298.617	540.2
299.008	543.6
299.398	533.8
299.789	532.2
300.179	540.4
300.57	548.6
300.961	534.6
301.352	534.2
301.742	547
302.133	548
302.524	530.8
302.915	535.4
303.307	531.2
303.698	536.2
304.089	539.2
304.48	534.4
304.872	538.6
305.263	539
305.655	529
306.046	544
306.438	534.8
306.829	533
307.221	552
307.613	539
308.005	549.4
308.397	545.2
308.789	552.6
309.181	563.2
309.573	543.8
309.965	550.4
310.357	533
310.749	545.4
311.142	536
311.534	533.4
311.926	540.4
312.319	543.4
312.711	529.4
313.104	547
313.497	534.6
313.889	561.6
314.282	541.8
314.675	550.4
315.068	538.4
315.461	546.4
315.854	559.6
316.247	542
316.64	536.8
317.033	535
317.405	545
317.798	529.4
318.192	535.2
318.585	529.2
318.979	543.2
319.372	530.8
319.766	540.6
320.16	544.8
320.553	552.2
320.947	554.8
321.341	529.6
321.735	533.4
322.129	526.6
322.523	556.4
322.917	528
323.311	547
323.705	551.6
324.099	537.8
324.494	548.4
324.888	548
325.282	532.8
325.677	550
326.071	537.6
326.466	545.4
326.861	542
327.255	546.8
327.65	538.8
328.045	556.2
328.44	535.6
328.835	538
329.23	533.2
329.625	556.4
330.02	537.4
330.415	552.8
330.81	534.4
331.206	539.8
331.601	536.4
331.996	540.4
332.37	554.8
332.766	529
333.161	561.2
333.557	524.2
333.953	539.8
334.348	808.6
334.744	538.8
335.14	533.2
335.536	532.6
335.932	540.6
336.328	534
336.724	539.2
337.12	536.4
337.516	540.4
337.913	531.2
338.309	542.4
338.705	529.2
339.102	543.8
339.498	534.8
339.895	545.6
340.291	530.8
340.688	550.4
341.085	521.6
341.481	531.8
341.878	526.2
342.275	544.4
342.672	528.4
343.069	531.8
343.466	516.2
343.842	538.2
344.239	531.4
344.636	534.2
345.033	530.4
345.431	524.4
345.828	530.2
346.225	526.6
346.623	554
347.02	543.8
347.418	540.2
347.816	544.2
348.213	526.8
348.611	540.8
349.009	528.6
349.407	548
349.805	531.8
350.203	528.4
350.601	547.2
350.999	537
351.397	572.4
351.795	528.2
352.193	542.4
352.57	542.4
352.969	541.2
353.367	528.8
353.766	529.6
354.164	528
354.563	534
354.961	527
355.36	528
355.759	531.2
356.158	524
356.557	526.2
356.956	526.2
357.355	522
357.754	541
358.153	535.4
358.552	555.4
358.951	530.8
359.35	547.2
359.75	527.8
360.149	522.8
360.527	515.8
360.926	524
361.326	533.4
361.726	528.8
362.125	525.2
362.525	539.6
362.925	527.6
363.325	536.4
363.724	527
364.124	523.4
364.524	527.8
364.924	525.6
365.324	538.8
365.725	513
366.125	528.8
366.525	523
366.904	525.2
367.304	522.6
367.705	544.8
368.105	541.6
368.506	527.2
368.906	522.8
369.307	535.8
369.708	529.6
370.108	524.8
370.509	535.2
370.91	523.8
371.311	523.2
371.712	527.8
372.113	529.6
372.514	526.6
372.894	531.4
373.295	526.2
373.696	533.2
374.097	544
374.499	559
374.9	529.4
375.301	521
375.703	519.4
376.105	523
376.506	527.8
376.908	531.8
377.309	528.4
377.711	523.2
378.113	521.4
378.493	528.4
378.895	517.4
379.297	537
379.699	521
380.102	533
380.504	524
380.906	520.8
381.308	547.6
381.71	525.6
382.113	535.4
382.515	529
382.918	531
383.299	532.8
383.701	529.4
384.104	527
384.507	513.4
384.909	518.4
385.312	514.4
385.715	520
386.118	518.4
386.521	510.6
386.924	527.8
387.327	522
387.709	512
388.112	518.2
388.515	517
388.918	528.8
389.322	533.6
389.725	521.2
390.129	547.6
390.532	529
390.936	527.2
391.339	520.4
391.743	530.4
392.125	523
392.529	533.6
392.933	538.8
393.337	526.2
393.74	528.2
394.144	520.8
394.548	530.6
394.953	527.6
395.357	531.4
395.761	521.2
396.144	526.4
396.548	532.4
396.952	523.8
397.357	520.4
397.761	525
398.166	526.8
398.57	528
398.975	523.2
399.379	525.8
399.763	572.2
400.168	526.4
400.572	534.8
400.977	533
401.382	539.2
401.787	540.8
402.192	539.6
402.597	541.6
403.002	509.2
403.386	537
403.791	545.2
404.197	524.4
404.602	526.2
405.007	530.4
405.413	525.8
405.818	528.6
406.224	523.6
406.608	518.2
407.014	522
407.42	535.6
407.825	521
408.231	536
408.637	536.8
409.043	541
409.449	526
409.834	524.8
410.24	524.2
410.646	540.6
411.052	537.2
411.458	528
411.865	541.2
412.271	534.2
412.677	527.6
413.062	529.8
413.469	525
413.875	544.8
414.282	531
414.689	533
415.095	537.2
415.502	527.2
415.888	530.6
416.294	518.8
416.701	561
417.108	528.2
417.515	536
417.923	527.2
418.33	541.2
418.715	530
419.123	531.4
419.53	527.2
419.937	523.8
420.345	543.2
420.752	523
421.16	546.2
421.546	531.4
421.953	538.4
422.361	522.2
422.769	524.8
423.177	525.2
423.585	556.2
423.992	546.8
424.379	536.2
424.787	536.2
425.195	546.4
425.603	528.2
426.011	535.8
426.419	539.6
426.806	526.2
427.214	527.6
427.623	541
428.031	536.8
428.44	528.4
428.848	540.6
429.235	534.6
429.644	530.8
430.053	538.6
430.461	543.2
430.87	551.8
431.279	539.4
431.666	533.2
432.075	533.2
432.484	535.8
432.893	529.2
433.302	540.2
433.711	560.8
434.099	529.4
434.508	519.6
434.918	525.4
435.327	527.4
435.737	525.4
436.125	523.6
436.534	531
436.944	525.6
437.353	529.8
437.763	539.4
438.173	515.4
438.561	529.2
438.971	518.8
439.381	528
439.791	526.4
440.201	506.4
440.589	520.8
440.999	536
441.409	520.4
441.819	513.8
442.23	535.6
442.619	531.8
443.029	522.6
443.439	524.4
443.85	533.6
444.26	543
444.649	532.6
445.06	532.4
445.471	519.8
445.881	519.4
446.292	535
446.682	543.2
447.092	514
447.503	568.8
447.914	528.4
448.325	528.2
448.715	520.8
449.126	525.4
449.537	525.8
449.948	527.6
450.338	530
450.75	527.2
451.161	532.6
451.572	531
451.984	520.4
452.374	512.6
452.786	526.8
453.197	532.8
453.609	528
453.999	521
454.411	513.6
454.823	531.6
455.235	522
455.647	520
456.037	528.4
456.449	513.8
456.862	530.4
457.274	522
457.665	517.8
458.077	536.4
458.489	551.4
458.902	523.2
459.293	531.8
459.705	522.6
460.118	522.8
460.53	523.6
460.921	523.8
461.334	525.6
461.747	523.8
462.16	528.6
462.551	537
462.964	529.2
463.377	516.6
463.79	520.6
464.182	532.2
464.595	518.2
465.008	523.6
465.421	528.2
465.813	514.2
466.226	530.6
466.64	518
467.053	559.8
467.445	530.2
467.859	539.2
468.272	523
468.686	531.2
469.078	527.6
469.492	514.6
469.906	532.2
470.298	530.4
470.712	518
471.126	546.8
471.54	512.2
471.933	521
472.347	518.8
472.761	517.4
473.175	515.8
473.568	519
473.982	511.4
474.397	526
474.79	519.4
475.204	518
475.619	515.8
476.033	518.2
476.426	515
476.841	511.4
477.256	539.4
477.649	513.2
478.064	513.8
478.479	512.6
478.872	516
479.287	515.8
479.702	510.6
480.118	514
480.511	525
480.927	521.6
481.342	515
481.736	527.8
482.151	509.4
482.566	532
482.96	526
483.376	524.8
483.792	508.4
484.186	522.6
484.602	517.6
485.017	519.4
485.412	512.4
485.827	515
486.243	515.2
486.638	537.6
487.054	524.8
487.47	529
487.865	514.2
488.281	522.8
488.697	520.6
489.092	520
489.508	515.8
489.925	523.4
490.32	512.4
490.736	528.2
491.153	515.8
491.548	522.4
491.964	527
492.381	514
492.776	527.2
493.193	522
493.61	514.2
494.006	520.6
494.422	518.8
494.84	516.6
495.235	528.2
495.652	523.4
496.069	526
496.465	514.2
496.883	523.6
497.3	542.2
497.696	517.2
498.113	529.8
498.509	501.6
498.927	511.4
499.344	514
499.741	516.8
500.158	524.6
500.576	521.6
500.973	520.4
501.39	512.8
501.787	512.4
502.205	523
502.623	514.2
503.02	505.8
503.438	514
503.856	512.2
504.253	519.4
504.671	518.2
505.068	511.6
505.486	511.8
505.905	534.8
506.302	518.8
506.72	521.2
507.118	514.8
507.536	521.8
507.955	515.8
508.352	523.6
508.771	520.2
509.169	520.8
509.587	505
510.006	519.4
510.404	502.6
510.823	515.4
511.221	521
511.64	516.6
512.038	526.4
512.457	518.6
512.877	523
513.275	522
513.694	516
514.092	514
514.512	512.4
514.91	516
515.33	518.2
515.749	514.4
516.148	515.4
516.568	521.8
516.966	516.8
517.386	512.8
517.785	517.8
518.205	511.2
518.603	508.4
519.024	516.8
519.444	524.4
519.843	526.8
520.263	526.4
520.662	517.6
521.082	520.8
521.481	517.6
521.902	517
522.301	519.8
522.722	521.6
523.121	516.4
523.542	520.2
523.963	509.2
524.362	511.4
524.783	521.4
525.183	513.4
525.604	518.4
526.003	515.2
526.425	516.4
526.824	518.6
527.246	517.4
527.646	525.2
528.067	519.4
528.467	516
528.888	517.2
529.289	510.4
529.71	517.2
530.11	510
530.532	513.4
530.932	506
531.354	502
531.755	534.4
532.176	515.2
532.577	517
532.999	516.6
533.4	503.8
533.822	521.2
534.223	512.8
534.645	512.2
535.046	514.2
535.468	523.4
535.869	521.2
536.292	510.2
536.693	539.6
537.115	514
537.516	511.2
537.939	505.2
538.34	529.2
538.742	525.6
539.165	512.6
539.566	518.4
539.989	508.6
540.391	515
540.814	510.6
541.216	516.2
541.639	526
542.041	522.4
542.464	508.4
542.866	514.8
543.268	509.2
543.691	521.2
544.093	522.6
544.517	528
544.919	517.4
545.343	533
545.745	512.2
546.147	515.8
546.571	509.2
546.974	499.4
547.398	508.6
547.8	531.6
548.224	510.6
548.627	501.4
549.03	524
549.454	508.2
549.857	502.6
550.281	510
550.684	516.2
551.087	526
551.512	521.6
551.915	524.6
552.34	519.4
552.743	514.6
553.146	516
553.571	514.6
553.975	527.2
554.399	508
554.803	556.2
555.207	508.8
555.632	508.4
556.036	518.8
556.461	512
556.865	512.8
557.268	512.4
557.694	512
558.098	526.4
558.502	516
558.927	512.8
559.332	508
559.736	514
560.162	521.2
560.566	513.8
560.992	507.6
561.396	515.6
561.801	514.6
562.227	521
562.631	507.2
563.036	516.8
563.462	513
563.867	515
564.272	498.4
564.698	517.4
565.103	506.6
565.508	528.8
565.935	518.4
566.34	515.8
566.745	524.8
567.172	518.6
567.577	527
567.982	524.2
568.409	519.6
568.815	509.6
569.22	517.8
569.626	511.4
570.053	504
570.459	521
570.865	513
571.292	520.4
571.698	517.6
572.104	503.6
572.531	514.2
572.937	522
573.343	511
573.75	506.6
574.177	515.6
574.583	522.2
574.99	511.8
575.396	511.6
575.824	508.8
576.231	523.6
576.637	511.2
577.065	529.6
577.472	505.6
577.879	514
578.286	525.2
578.714	500.2
579.121	507.2
579.528	517.4
579.935	516
580.364	509.8
580.771	501.8
581.178	505.4
581.585	508.4
582.014	513.4
582.421	507.2
582.829	518.8
583.236	521.4
583.644	502
584.073	519.2
584.481	507.6
584.889	503.8
585.296	516.8
585.726	512
586.134	510.6
586.542	505.4
586.95	521.8
587.358	511
587.787	515.8
588.196	512.6
588.604	509.6
589.012	515.6
589.421	504.6
589.851	503.6
590.259	516.8
590.668	508
591.076	540.8
591.485	502.8
591.894	510
592.324	520.8
592.733	523
593.142	504.4
593.551	514.2
593.96	514.8
594.369	504.8
594.8	506.8
595.209	514.6
595.618	508.2
596.028	507
596.437	514.6
596.847	509.2
597.256	516
597.687	513.8
598.097	513
598.507	503
598.917	513.6
599.327	516.4
599.736	519.4
600.146	514.8
600.556	517
600.988	527.4
601.398	512.8
601.808	518.4
602.219	502.4
602.629	523
603.039	514.8
603.45	532.8
603.86	513.4
604.271	528.2
604.703	511.2
605.114	513.4
605.525	514.2
605.935	518
606.346	533.8
606.757	509.6
607.168	507.4
607.579	511.2
607.99	521.6
608.402	521
608.813	518.2
609.224	509
609.636	504.2
610.047	505.6
610.48	513.8
610.892	518.2
611.303	519.4
611.715	509.2
612.127	512.4
612.539	511.6
612.95	512.4
613.362	501.8
613.774	504.2
614.186	513
614.599	507
615.011	522.6
615.423	510.2
615.835	509.8
616.248	513
616.66	518.2
617.073	504.6
617.485	510
617.898	522.2
618.311	511.2
618.723	511.4
619.136	534.6
619.549	529.6
619.962	540.6
620.375	518.2
620.788	517.8
621.201	515.4
621.614	526
622.028	516.2
622.441	514.6
622.854	525.2
623.268	508.6
623.681	514.4
624.095	524.4
624.509	527.8
624.922	525.8
625.336	507
625.728	517
626.142	526
626.556	529.6
626.97	519.8
627.384	510
627.799	513.8
628.213	522.4
628.627	516
629.041	514.8
629.456	511.6
629.87	506
630.285	523
630.699	525
631.093	518.6
631.507	517.4
631.922	519.2
632.337	520.6
632.752	515.2
633.167	515.8
633.582	518.8
633.997	508.2
634.412	511.4
634.806	518
635.221	515.8
635.637	523.2
636.052	506.2
636.468	521.8
636.883	531.8
637.299	510.8
637.715	502.4
638.109	519.8
638.525	510
638.941	524.2
639.357	520.2
639.773	524.6
640.189	515
640.584	513.4
641	515.6
641.416	499.6
641.832	521.2
642.249	512.2
642.665	512.2
643.06	514.6
643.477	522.6
643.894	504.6
644.31	510.8
644.727	519
645.123	515.4
645.54	507.8
645.957	511.4
646.374	510.8
646.77	510.4
647.187	536.2
647.604	509.2
648.021	502.6
648.439	504
648.835	517.6
649.252	517.6
649.67	505.2
650.088	510.8
650.484	513
650.902	515
651.32	520.2
651.738	508
652.134	508.6
652.552	523.6
652.971	520.2
653.389	511.2
653.786	524.6
654.204	512.2
654.622	512.2
655.019	510.6
655.438	512.6
655.857	514.4
656.275	511
656.673	502.4
657.091	509.6
657.51	503.2
657.908	519.8
658.327	516
658.746	499.2
659.144	505.8
659.563	514.8
659.982	512.2
660.38	500.6
660.8	507.2
661.219	521
661.617	508.8
662.037	501
662.457	525
662.855	501.2
663.275	534.4
663.695	515
664.094	509.6
664.514	512.6
664.934	507.6
665.333	511
665.753	502.8
666.152	502.8
666.572	500.4
666.993	514.4
667.392	500.4
667.812	507.4
668.212	502.6
668.632	518
669.053	504.8
669.453	507.6
669.874	508.8
670.273	511.4
670.694	502.8
671.116	514.8
671.515	511.4
671.937	511.2
672.337	514
672.758	502.2
673.158	507.6
673.58	494.6
673.98	514
674.402	515
674.824	504
675.224	501
675.646	507.4
676.047	506.8
676.469	509.6
676.869	510.8
677.292	505.8
677.693	500
678.115	506.4
678.516	507.6
678.939	511.2
679.34	501.2
679.762	510.8
680.164	505
680.586	497.2
680.988	504.6
681.411	523.4
681.812	508.8
682.236	502.6
682.637	500.2
683.061	496.2
683.462	509.2
683.864	506.2
684.288	515.2
684.69	499
685.114	521.6
685.516	515.4
685.94	508
686.342	509
686.766	495.6
687.168	505.4
687.571	516.6
687.995	512.6
688.398	493.4
688.822	507.8
689.225	521.8
689.628	518
690.052	504.4
690.456	519
690.88	507.6
691.284	499
691.687	503.8
692.112	500.8
692.515	491.8
692.919	504.6
693.344	508.4
693.747	504
694.173	502.6
694.577	514.6
694.98	508
695.406	508
695.81	506.6
696.214	514.6
696.64	513
697.044	505.8
697.448	519
697.874	509.8
698.279	514
698.684	491.8
699.11	497.2
699.514	510.6
699.919	507.6
700.324	499.2
700.75	521
701.156	507.8
701.561	520
701.987	514.2
702.393	517.4
702.798	510.8
703.203	505
703.63	504.8
704.036	496.8
704.442	503.4
704.847	496.6
705.274	502.2
705.68	502.6
706.086	509.6
706.492	495.2
706.92	503
707.326	512.8
707.732	509
708.139	502
708.545	493.2
708.973	505.8
709.38	503.4
709.786	498
710.193	518.4
710.6	503.8
711.028	499.8
711.435	500.4
711.842	506
712.249	502
712.656	503.8
713.064	515.8
713.492	499.2
713.9	502.2
714.307	515.8
714.715	504.8
715.123	508.6
715.53	508
715.938	507.8
716.367	507.4
716.775	499.2
717.184	505.4
717.592	500.8
718	514.4
718.408	530.4
718.816	535
719.225	504
719.633	507
720.042	499.8
720.472	506
720.881	520.2
721.29	511.2
721.699	497
722.108	505.6
722.517	500.8
722.926	501
723.335	508.6
723.744	498.2
724.154	505.8
724.563	501.6
724.973	507.6
725.382	506.8
725.792	494.8
726.202	488.4
726.612	511.6
727.022	500.8
727.432	495.6
779.813	499
780.223	544
780.634	502.2
781.044	503
781.454	502.6
781.865	510.8
782.276	491.8
782.686	507.4
783.097	496
783.508	502.8
783.919	494.8
784.33	513
784.741	517.6
785.152	506.8
785.563	489.8
785.974	492.8
786.386	517.4
786.776	503
787.188	503.4
787.599	495.6
788.011	509.6
788.423	505.8
788.835	498.8
789.247	496.6
789.659	494.6
790.071	501
790.483	542.8
790.874	506
791.286	511
791.699	496.8
792.111	498
792.524	500.4
792.937	496
793.349	486.4
793.741	499.8
794.154	499.2
794.567	519.4
794.98	508.6
795.393	497.8
795.785	515.6
796.198	498.6
796.612	500.6
797.026	496.4
797.439	485.2
797.831	503.4
798.245	492.4
798.659	499
799.073	500.4
799.487	497
799.88	499.8
800.294	506
800.708	504.8
801.123	510.6
801.516	520.2
801.93	504.8
802.345	487.2
802.76	509.4
803.153	510.2
803.568	514.4
803.983	507.6
804.377	504.8
804.792	487.6
805.207	487.6
805.601	507.6
806.016	526.8
806.432	489
806.826	521.6
807.242	511
807.658	505.6
808.052	497.6
808.468	499.8
808.884	501
809.279	502.4
809.695	507.4
810.111	520.2
810.506	505.6
810.922	521.6
811.339	500.8
811.734	503.8
812.151	496.2
812.546	498.2
812.963	495.6
813.38	504.8
813.776	502.4
814.193	509.2
814.589	495.4
815.006	497
815.402	495.8
815.82	492
816.237	506.4
816.633	508.2
817.051	490.8
817.448	496.8
817.866	494.2
818.262	516.6
818.68	499.4
819.077	493
819.495	496.2
819.892	534.8
820.311	497.8
820.708	498.2
821.127	502.4
821.524	505.8
821.943	508.2
822.34	514
822.759	510.2
823.157	502
823.576	513.4
823.974	506
824.393	587.8
824.791	498.4
825.189	493.6
825.609	502.8
826.007	493.4
826.427	488
826.826	495.6
827.246	503
827.644	489.4
828.043	502.2
828.463	494.8
828.862	505.4
829.261	508.8
829.682	486.2
830.081	508.6
830.502	494.4
830.901	509.4
831.301	493.8
831.722	493.8
832.121	500.4
832.521	495.2
832.943	493
833.342	496.4
833.742	492
834.164	496.6
834.564	486
834.965	506
835.386	495.4
835.787	499
836.188	500.4
836.588	499.6
837.01	502
837.411	494.8
837.812	507.2
838.213	503.6
838.636	494.4
839.037	553.8
839.438	495.2
839.84	503.2
840.263	509.6
840.664	505.4
841.066	496.6
841.468	504.8
841.891	497.6
842.293	508.2
842.695	503.2
843.098	513.8
843.5	500
843.902	498.2
844.326	506.6
844.729	498
845.131	505.6
845.534	499.8
845.937	507
846.34	517.6
846.764	492.4
847.167	507.8
847.571	494.6
847.974	497
848.377	496.6
848.781	536.4
849.184	516.2
849.588	498.2
849.992	497.8
850.396	503.8
850.821	513.6
851.225	498.4
851.63	494
852.034	508.2
852.438	492.8
852.843	561
853.247	494.4
853.652	491
854.057	518.2
854.462	507.4
854.867	494.8
855.272	528.6
855.677	504.4
856.082	491.4
856.487	491
856.893	503.2
857.298	493.4
857.704	495.4
858.11	502.2
858.516	500.2
